File:              	C:\Qtrac\Data\Daniel M Sørensen\MScan multicentre study\Data from centres\Oxford\Processed data\ATC01208B.QZD
Name:              	UK.OXF.NC.8.1
Protocol:          	MSCAN-R2
Date:              	8/12/20
Start time:        	10:21:31
Age:               	30
Sex:               	F
Temperature:       	35.4
S/R sites:         	ADM
NC/disease:        	NC
Operator:          	AT
Comments:          	HC Ulnar N ADM 1st
M-SCAN DATA (6.3-1.6m)
Scanpts: 12, 16, 470, 479
Stim. (mA)     	Amp. (mV)
MS.1           	20             	5.702
MS.2           	20             	5.736
MS.3           	20             	5.781
MS.4           	20             	5.714
MS.5           	20             	5.712
MS.6           	20             	5.724
MS.7           	20             	5.752
MS.8           	20             	5.674
MS.9           	20             	5.75
MS.10          	20             	5.777
MS.11          	20             	5.785
MS.12          	20             	5.775
MS.13          	20             	5.72
MS.14          	20             	5.724
MS.15          	20             	5.736
MS.16          	20             	5.775
MS.17          	20             	5.807
MS.18          	20             	5.593
MS.19          	20             	5.69
MS.20          	20             	5.722
MS.21          	20             	5.73
MS.22          	20             	5.775
MS.23          	20             	5.597
MS.24          	19.92          	5.624
MS.25          	19.88          	5.734
MS.26          	19.84          	5.626
MS.27          	19.8           	5.714
MS.28          	19.762         	5.581
MS.29          	19.722         	5.624
MS.30          	19.682         	5.62
MS.31          	19.642         	5.696
MS.32          	19.605         	5.575
MS.33          	19.565         	5.636
MS.34          	19.525         	5.509
MS.35          	19.487         	5.553
MS.36          	19.448         	5.585
MS.37          	19.41          	5.71
MS.38          	19.37          	5.601
MS.39          	19.333         	5.575
MS.40          	19.292         	5.573
MS.41          	19.255         	5.561
MS.42          	19.215         	5.547
MS.43          	19.177         	5.551
MS.44          	19.14          	5.555
MS.45          	19.1           	5.533
MS.46          	19.062         	5.456
MS.47          	19.025         	5.517
MS.48          	18.987         	5.44
MS.49          	18.948         	5.458
MS.50          	18.91          	5.487
MS.51          	18.872         	5.515
MS.52          	18.835         	5.501
MS.53          	18.797         	5.503
MS.54          	18.76          	5.454
MS.55          	18.722         	5.511
MS.56          	18.685         	5.47
MS.57          	18.647         	5.537
MS.58          	18.61          	5.497
MS.59          	18.573         	5.501
MS.60          	18.535         	5.479
MS.61          	18.5           	5.4
MS.62          	18.462         	5.525
MS.63          	18.425         	5.543
MS.64          	18.387         	5.505
MS.65          	18.352         	5.491
MS.66          	18.315         	5.487
MS.67          	18.278         	5.493
MS.68          	18.243         	5.489
MS.69          	18.205         	5.495
MS.70          	18.17          	5.519
MS.71          	18.132         	5.501
MS.72          	18.097         	5.378
MS.73          	18.06          	5.456
MS.74          	18.025         	5.464
MS.75          	17.987         	5.468
MS.76          	17.952         	5.46
MS.77          	17.917         	5.505
MS.78          	17.88          	5.386
MS.79          	17.845         	5.519
MS.80          	17.81          	5.468
MS.81          	17.775         	5.503
MS.82          	17.737         	5.414
MS.83          	17.702         	5.477
MS.84          	17.667         	5.468
MS.85          	17.632         	5.487
MS.86          	17.597         	5.4
MS.87          	17.562         	5.325
MS.88          	17.528         	5.39
MS.89          	17.493         	5.398
MS.90          	17.458         	5.394
MS.91          	17.422         	5.396
MS.92          	17.387         	5.321
MS.93          	17.352         	5.317
MS.94          	17.317         	5.327
MS.95          	17.282         	5.358
MS.96          	17.247         	5.362
MS.97          	17.215         	5.36
MS.98          	17.18          	5.235
MS.99          	17.145         	5.319
MS.100         	17.11          	5.128
MS.101         	17.077         	5.396
MS.102         	17.042         	5.386
MS.103         	17.01          	5.346
MS.104         	16.975         	5.102
MS.105         	16.94          	5.261
MS.106         	16.907         	5.279
MS.107         	16.872         	5.078
MS.108         	16.84          	5.197
MS.109         	16.805         	5.14
MS.110         	16.772         	5.188
MS.111         	16.74          	5.084
MS.112         	16.705         	5.126
MS.113         	16.672         	5.265
MS.114         	16.637         	5.136
MS.115         	16.605         	5.064
MS.116         	16.573         	5.317
MS.117         	16.54          	5.009
MS.118         	16.505         	5.186
MS.119         	16.472         	5.132
MS.120         	16.44          	5.12
MS.121         	16.407         	5.023
MS.122         	16.375         	5.078
MS.123         	16.342         	4.78
MS.124         	16.31          	5.025
MS.125         	16.278         	4.77
MS.126         	16.245         	4.802
MS.127         	16.212         	4.669
MS.128         	16.18          	4.892
MS.129         	16.147         	4.647
MS.130         	16.115         	4.62
MS.131         	16.083         	4.749
MS.132         	16.05          	4.939
MS.133         	16.017         	4.896
MS.134         	15.985         	4.743
MS.135         	15.955         	4.796
MS.136         	15.922         	4.816
MS.137         	15.89          	4.637
MS.138         	15.86          	4.713
MS.139         	15.827         	4.659
MS.140         	15.795         	4.582
MS.141         	15.765         	4.695
MS.142         	15.733         	4.645
MS.143         	15.7           	4.457
MS.144         	15.67          	4.486
MS.145         	15.637         	4.532
MS.146         	15.608         	4.606
MS.147         	15.575         	4.447
MS.148         	15.545         	4.629
MS.149         	15.515         	4.477
MS.150         	15.483         	4.465
MS.151         	15.452         	4.377
MS.152         	15.42          	4.278
MS.153         	15.39          	4.379
MS.154         	15.36          	4.278
MS.155         	15.327         	4.014
MS.156         	15.297         	4.288
MS.157         	15.267         	4.147
MS.158         	15.237         	4.105
MS.159         	15.207         	3.964
MS.160         	15.175         	4.018
MS.161         	15.145         	3.964
MS.162         	15.115         	3.831
MS.163         	15.085         	3.857
MS.164         	15.055         	3.837
MS.165         	15.025         	3.944
MS.166         	14.995         	3.897
MS.167         	14.965         	3.853
MS.168         	14.935         	3.831
MS.169         	14.905         	3.716
MS.170         	14.875         	3.835
MS.171         	14.845         	3.754
MS.172         	14.818         	3.617
MS.173         	14.787         	3.768
MS.174         	14.757         	3.783
MS.175         	14.727         	3.666
MS.176         	14.697         	3.758
MS.177         	14.67          	3.517
MS.178         	14.64          	3.575
MS.179         	14.61          	3.686
MS.180         	14.58          	3.698
MS.181         	14.552         	3.484
MS.182         	14.523         	3.569
MS.183         	14.495         	3.428
MS.184         	14.465         	3.476
MS.185         	14.435         	3.456
MS.186         	14.407         	3.436
MS.187         	14.377         	3.253
MS.188         	14.35          	3.271
MS.189         	14.32          	3.372
MS.190         	14.292         	3.066
MS.191         	14.265         	3.245
MS.192         	14.235         	3.235
MS.193         	14.207         	3.037
MS.194         	14.177         	3.201
MS.195         	14.15          	3.287
MS.196         	14.122         	3.217
MS.197         	14.092         	3.289
MS.198         	14.065         	3.283
MS.199         	14.037         	3.021
MS.200         	14.01          	2.943
MS.201         	13.983         	3.076
MS.202         	13.952         	2.927
MS.203         	13.925         	2.923
MS.204         	13.898         	2.85
MS.205         	13.87          	2.989
MS.206         	13.842         	2.888
MS.207         	13.815         	2.836
MS.208         	13.787         	2.983
MS.209         	13.76          	2.912
MS.210         	13.733         	2.796
MS.211         	13.705         	2.792
MS.212         	13.677         	2.683
MS.213         	13.65          	2.8
MS.214         	13.622         	2.778
MS.215         	13.595         	2.693
MS.216         	13.568         	2.858
MS.217         	13.54          	2.721
MS.218         	13.515         	2.743
MS.219         	13.487         	2.675
MS.220         	13.46          	2.586
MS.221         	13.432         	2.628
MS.222         	13.407         	2.542
MS.223         	13.38          	2.57
MS.224         	13.352         	2.492
MS.225         	13.325         	2.574
MS.226         	13.3           	2.626
MS.227         	13.273         	2.594
MS.228         	13.247         	2.562
MS.229         	13.22          	2.455
MS.230         	13.193         	2.451
MS.231         	13.167         	2.494
MS.232         	13.14          	2.552
MS.233         	13.115         	2.457
MS.234         	13.087         	2.274
MS.235         	13.062         	2.175
MS.236         	13.035         	2.449
MS.237         	13.01          	2.421
MS.238         	12.985         	2.157
MS.239         	12.957         	2.399
MS.240         	12.932         	2.5
MS.241         	12.907         	2.179
MS.242         	12.88          	2.01
MS.243         	12.855         	2.05
MS.244         	12.83          	2.133
MS.245         	12.802         	2.405
MS.246         	12.778         	2.028
MS.247         	12.752         	2.22
MS.248         	12.727         	2.193
MS.249         	12.702         	2.105
MS.250         	12.675         	2.218
MS.251         	12.65          	1.924
MS.252         	12.625         	2.04
MS.253         	12.6           	2.077
MS.254         	12.575         	1.779
MS.255         	12.55          	1.903
MS.256         	12.525         	1.93
MS.257         	12.5           	1.891
MS.258         	12.475         	2.036
MS.259         	12.45          	1.815
MS.260         	12.425         	1.837
MS.261         	12.4           	1.67
MS.262         	12.375         	1.666
MS.263         	12.35          	1.444
MS.264         	12.325         	1.744
MS.265         	12.302         	1.366
MS.266         	12.278         	1.507
MS.267         	12.252         	1.42
MS.268         	12.227         	1.426
MS.269         	12.202         	1.764
MS.270         	12.18          	1.422
MS.271         	12.155         	1.291
MS.272         	12.13          	1.533
MS.273         	12.108         	1.46
MS.274         	12.082         	1.416
MS.275         	12.057         	1.366
MS.276         	12.035         	1.339
MS.277         	12.01          	1.307
MS.278         	11.985         	1.263
MS.279         	11.962         	1.364
MS.280         	11.938         	1.241
MS.281         	11.915         	1.237
MS.282         	11.89          	1.279
MS.283         	11.867         	1.245
MS.284         	11.842         	1.305
MS.285         	11.82          	1.237
MS.286         	11.795         	1.233
MS.287         	11.773         	1.2
MS.288         	11.747         	0.876
MS.289         	11.725         	1.172
MS.290         	11.702         	1.19
MS.291         	11.677         	1.223
MS.292         	11.655         	1.198
MS.293         	11.632         	1.227
MS.294         	11.608         	1.18
MS.295         	11.585         	1.186
MS.296         	11.562         	0.804
MS.297         	11.54          	1.15
MS.298         	11.515         	1.235
MS.299         	11.492         	0.765
MS.300         	11.47          	0.808
MS.301         	11.447         	0.725
MS.302         	11.425         	0.667
MS.303         	11.403         	0.781
MS.304         	11.377         	0.786
MS.305         	11.355         	0.713
MS.306         	11.332         	0.677
MS.307         	11.31          	0.687
MS.308         	11.287         	0.745
MS.309         	11.265         	0.761
MS.310         	11.242         	0.673
MS.311         	11.22          	0.679
MS.312         	11.197         	0.618
MS.313         	11.175         	0.616
MS.314         	11.153         	0.626
MS.315         	11.13          	0.61
MS.316         	11.108         	0.618
MS.317         	11.087         	0.624
MS.318         	11.065         	0.663
MS.319         	11.042         	0.618
MS.320         	11.02          	0.618
MS.321         	10.997         	0.685
MS.322         	10.975         	0.576
MS.323         	10.955         	0.616
MS.324         	10.932         	0.636
MS.325         	10.91          	0.624
MS.326         	10.887         	0.473
MS.327         	10.867         	0.502
MS.328         	10.845         	0.443
MS.329         	10.823         	0.455
MS.330         	10.802         	0.471
MS.331         	10.78          	0.437
MS.332         	10.76          	0.393
MS.333         	10.738         	0.616
MS.334         	10.715         	0.447
MS.335         	10.695         	0.556
MS.336         	10.672         	0.437
MS.337         	10.653         	0.592
MS.338         	10.63          	0.475
MS.339         	10.61          	0.576
MS.340         	10.587         	0.451
MS.341         	10.568         	0.421
MS.342         	10.545         	0.387
MS.343         	10.525         	0.409
MS.344         	10.502         	0.393
MS.345         	10.483         	0.393
MS.346         	10.462         	0.393
MS.347         	10.44          	0.411
MS.348         	10.42          	0.399
MS.349         	10.4           	0.411
MS.350         	10.377         	0.371
MS.351         	10.358         	0.395
MS.352         	10.337         	0.324
MS.353         	10.318         	0.415
MS.354         	10.295         	0.33
MS.355         	10.275         	0.381
MS.356         	10.255         	0.365
MS.357         	10.235         	0.312
MS.358         	10.212         	0.332
MS.359         	10.193         	0.322
MS.360         	10.172         	0.373
MS.361         	10.153         	0.304
MS.362         	10.132         	0.26
MS.363         	10.113         	0.296
MS.364         	10.092         	0.3
MS.365         	10.073         	0.318
MS.366         	10.052         	0.254
MS.367         	10.032         	0.308
MS.368         	10.012         	0.254
MS.369         	9.992          	0.296
MS.370         	9.972          	0.308
MS.371         	9.952          	0.274
MS.372         	9.932          	0.149
MS.373         	9.912          	0.149
MS.374         	9.892          	0.27
MS.375         	9.872          	0.155
MS.376         	9.852          	0.274
MS.377         	9.832          	0.153
MS.378         	9.812          	0.27
MS.379         	9.792          	0.181
MS.380         	9.775          	0.155
MS.381         	9.755          	0.264
MS.382         	9.735          	0.161
MS.383         	9.715          	0.145
MS.384         	9.695          	0.153
MS.385         	9.677          	0.145
MS.386         	9.657          	0.244
MS.387         	9.637          	0.125
MS.388         	9.62           	0.151
MS.389         	9.6            	0.155
MS.390         	9.58           	0.139
MS.391         	9.562          	0.147
MS.392         	9.542          	0.105
MS.393         	9.523          	0.147
MS.394         	9.505          	0.165
MS.395         	9.485          	0.153
MS.396         	9.465          	0.109
MS.397         	9.448          	0.149
MS.398         	9.427          	0.131
MS.399         	9.41           	0.111
MS.400         	9.39           	0.111
MS.401         	9.372          	0.119
MS.402         	9.352          	0.115
MS.403         	9.335          	0.121
MS.404         	9.315          	0.115
MS.405         	9.297          	0.119
MS.406         	9.28           	0.131
MS.407         	9.26           	0.121
MS.408         	9.242          	0.155
MS.409         	9.222          	0.111
MS.410         	9.205          	0.113
MS.411         	9.188          	0.113
MS.412         	9.167          	0.121
MS.413         	9.15           	0.115
MS.414         	9.132          	0.095
MS.415         	9.113          	0.093
MS.416         	9.095          	0.097
MS.417         	9.077          	0.103
MS.418         	9.057          	0.095
MS.419         	9.04           	0.117
MS.420         	9.023          	0.105
MS.421         	9.005          	0.089
MS.422         	8.988          	0.115
MS.423         	8.967          	0.097
MS.424         	8.95           	0.125
MS.425         	8.932          	0.093
MS.426         	8.915          	0.091
MS.427         	8.898          	0.103
MS.428         	8.88           	0.097
MS.429         	8.863          	0.073
MS.430         	8.845          	0.087
MS.431         	8.825          	0.095
MS.432         	8.807          	0.085
MS.433         	8.79           	0.097
MS.434         	8.773          	0.097
MS.435         	8.755          	0.083
MS.436         	8.738          	0.095
MS.437         	8.72           	0.077
MS.438         	8.702          	0.085
MS.439         	8.685          	0.085
MS.440         	8.67           	0.099
MS.441         	8.653          	0.028
MS.442         	8.635          	0.079
MS.443         	8.617          	0.097
MS.444         	8.6            	0.087
MS.445         	8.582          	0.089
MS.446         	8.565          	0.062
MS.447         	8.547          	0.089
MS.448         	8.53           	0.083
MS.449         	8.515          	0.02
MS.450         	8.497          	0.022
MS.451         	8.48           	0.101
MS.452         	8.462          	0.038
MS.453         	8.448          	0.026
MS.454         	8.43           	0.018
MS.455         	8.412          	0.022
MS.456         	8.395          	0.022
MS.457         	8.38           	0.02
MS.458         	8.363          	0.018
MS.459         	8.345          	0.052
MS.460         	8.33           	0.052
MS.461         	8.312          	0.000
MS.462         	8.295          	0.016
MS.463         	8.28           	0.008
MS.464         	8.262          	-0.002
MS.465         	8.245          	-0.006
MS.466         	8.23           	-0.006
MS.467         	8.212          	0.000
MS.468         	8.198          	-0.004
MS.469         	8.18           	0.026
MS.470         	8.165          	-0.004
MS.471         	8.148          	-0.002
MS.472         	8.132          	-0.004
MS.473         	8.115          	0.000
MS.474         	8.1            	0.000
MS.475         	8.082          	-0.002
MS.476         	8.068          	-0.002
MS.477         	8.05           	0.002
MS.478         	8.035          	0.002
MS.479         	8.017          	0.002
MS.480         	8.002          	0.002
MS.481         	7.987          	0.004
MS.482         	7.97           	0.004
MS.483         	7.955          	0.006
MS.484         	7.938          	-0.004
MS.485         	7.922          	0.000
MS.486         	7.907          	-0.006
MS.487         	7.89           	0.000
MS.488         	7.875          	-0.002
MS.489         	7.86           	-0.002
MS.490         	7.845          	-0.002
MS.491         	7.827          	-0.004
MS.492         	7.812          	0.002
MS.493         	7.797          	-0.006
MS.494         	7.782          	0.006
MS.495         	7.765          	0.000
MS.496         	7.75           	0.000
MS.497         	7.735          	-0.004
MS.498         	7.72           	-0.006
MS.499         	7.705          	-0.026
MS.500         	7.688          	0.004
