File:              	C:\Qtrac\Data\Daniel M Sørensen\MScan multicentre study\Data from centres\Oxford\Processed data\ATC01214H.QZD
Name:              	UK.OXF.NC.3.2
Protocol:          	MSCAN-R2
Date:              	14/12/20
Start time:        	14:17:00
Age:               	45
Sex:               	F
Temperature:       	35.5
S/R sites:         	ADM
NC/disease:        	NC
Operator:          	AT
Comments:          	Ulnar N ADM 2nd
M-SCAN DATA (6.8-1.6m)
Scanpts: 67, 74, 540, 562
Stim. (mA)     	Amp. (mV)
MS.1           	20             	4.707
MS.2           	20             	4.705
MS.3           	20             	4.753
MS.4           	20             	4.747
MS.5           	20             	4.482
MS.6           	20             	4.906
MS.7           	20             	4.87
MS.8           	20             	4.675
MS.9           	20             	4.643
MS.10          	20             	4.85
MS.11          	20             	4.786
MS.12          	20             	4.699
MS.13          	20             	4.733
MS.14          	20             	4.701
MS.15          	20             	4.701
MS.16          	20             	4.743
MS.17          	20             	4.659
MS.18          	20             	4.645
MS.19          	20             	4.733
MS.20          	20             	4.729
MS.21          	20             	4.669
MS.22          	20             	4.685
MS.23          	20             	4.711
MS.24          	19.92          	4.701
MS.25          	19.88          	4.719
MS.26          	19.84          	4.711
MS.27          	19.8           	4.699
MS.28          	19.762         	4.725
MS.29          	19.722         	4.711
MS.30          	19.682         	4.713
MS.31          	19.642         	4.689
MS.32          	19.605         	4.705
MS.33          	19.565         	4.719
MS.34          	19.525         	4.747
MS.35          	19.487         	4.782
MS.36          	19.448         	4.633
MS.37          	19.41          	4.741
MS.38          	19.37          	4.745
MS.39          	19.333         	4.711
MS.40          	19.292         	4.349
MS.41          	19.255         	4.941
MS.42          	19.215         	4.745
MS.43          	19.177         	4.606
MS.44          	19.14          	4.625
MS.45          	19.1           	4.625
MS.46          	19.062         	4.637
MS.47          	19.025         	4.669
MS.48          	18.987         	4.653
MS.49          	18.948         	4.641
MS.50          	18.91          	4.641
MS.51          	18.872         	4.635
MS.52          	18.835         	4.691
MS.53          	18.797         	4.185
MS.54          	18.76          	4.858
MS.55          	18.722         	4.78
MS.56          	18.685         	4.612
MS.57          	18.647         	4.596
MS.58          	18.61          	4.602
MS.59          	18.573         	4.598
MS.60          	18.535         	4.641
MS.61          	18.5           	4.635
MS.62          	18.462         	4.653
MS.63          	18.425         	4.62
MS.64          	18.387         	4.56
MS.65          	18.352         	4.633
MS.66          	18.315         	4.681
MS.67          	18.278         	4.635
MS.68          	18.243         	4.637
MS.69          	18.205         	4.635
MS.70          	18.17          	4.679
MS.71          	18.132         	4.627
MS.72          	18.097         	4.6
MS.73          	18.06          	4.625
MS.74          	18.025         	4.677
MS.75          	17.987         	4.633
MS.76          	17.952         	4.643
MS.77          	17.917         	4.61
MS.78          	17.88          	4.653
MS.79          	17.845         	4.691
MS.80          	17.81          	4.572
MS.81          	17.775         	4.586
MS.82          	17.737         	4.588
MS.83          	17.702         	4.641
MS.84          	17.667         	4.618
MS.85          	17.632         	4.566
MS.86          	17.597         	4.633
MS.87          	17.562         	4.546
MS.88          	17.528         	4.54
MS.89          	17.493         	4.51
MS.90          	17.458         	4.512
MS.91          	17.422         	4.52
MS.92          	17.387         	4.55
MS.93          	17.352         	4.558
MS.94          	17.317         	4.51
MS.95          	17.282         	4.546
MS.96          	17.247         	4.522
MS.97          	17.215         	4.548
MS.98          	17.18          	4.544
MS.99          	17.145         	4.55
MS.100         	17.11          	4.54
MS.101         	17.077         	4.548
MS.102         	17.042         	4.532
MS.103         	17.01          	4.538
MS.104         	16.975         	4.576
MS.105         	16.94          	4.465
MS.106         	16.907         	4.484
MS.107         	16.872         	4.518
MS.108         	16.84          	4.534
MS.109         	16.805         	4.546
MS.110         	16.772         	4.5
MS.111         	16.74          	4.5
MS.112         	16.705         	4.526
MS.113         	16.672         	4.508
MS.114         	16.637         	4.504
MS.115         	16.605         	4.508
MS.116         	16.573         	4.528
MS.117         	16.54          	4.526
MS.118         	16.505         	4.496
MS.119         	16.472         	4.488
MS.120         	16.44          	4.518
MS.121         	16.407         	4.514
MS.122         	16.375         	4.516
MS.123         	16.342         	4.492
MS.124         	16.31          	4.506
MS.125         	16.278         	4.512
MS.126         	16.245         	4.524
MS.127         	16.212         	4.51
MS.128         	16.18          	4.554
MS.129         	16.147         	4.347
MS.130         	16.115         	4.429
MS.131         	16.083         	4.479
MS.132         	16.05          	4.532
MS.133         	16.017         	4.107
MS.134         	15.985         	4.627
MS.135         	15.955         	4.606
MS.136         	15.922         	4.411
MS.137         	15.89          	4.443
MS.138         	15.86          	4.469
MS.139         	15.827         	4.419
MS.140         	15.795         	4.328
MS.141         	15.765         	4.359
MS.142         	15.733         	4.363
MS.143         	15.7           	4.415
MS.144         	15.67          	4.383
MS.145         	15.637         	4.395
MS.146         	15.608         	4.377
MS.147         	15.575         	4.443
MS.148         	15.545         	4.343
MS.149         	15.515         	4.411
MS.150         	15.483         	4.357
MS.151         	15.452         	4.351
MS.152         	15.42          	4.385
MS.153         	15.39          	4.359
MS.154         	15.36          	4.308
MS.155         	15.327         	4.322
MS.156         	15.297         	4.387
MS.157         	15.267         	4.339
MS.158         	15.237         	4.345
MS.159         	15.207         	4.336
MS.160         	15.175         	4.345
MS.161         	15.145         	4.304
MS.162         	15.115         	4.308
MS.163         	15.085         	4.339
MS.164         	15.055         	4.343
MS.165         	15.025         	4.343
MS.166         	14.995         	4.306
MS.167         	14.965         	4.339
MS.168         	14.935         	4.341
MS.169         	14.905         	4.32
MS.170         	14.875         	4.32
MS.171         	14.845         	4.347
MS.172         	14.818         	4.288
MS.173         	14.787         	4.33
MS.174         	14.757         	4.29
MS.175         	14.727         	4.314
MS.176         	14.697         	4.312
MS.177         	14.67          	4.298
MS.178         	14.64          	4.282
MS.179         	14.61          	4.272
MS.180         	14.58          	4.296
MS.181         	14.552         	4.302
MS.182         	14.523         	4.258
MS.183         	14.495         	4.282
MS.184         	14.465         	4.23
MS.185         	14.435         	4.266
MS.186         	14.407         	4.212
MS.187         	14.377         	4.206
MS.188         	14.35          	4.195
MS.189         	14.32          	4.21
MS.190         	14.292         	4.179
MS.191         	14.265         	4.173
MS.192         	14.235         	4.173
MS.193         	14.207         	4.226
MS.194         	14.177         	4.157
MS.195         	14.15          	4.163
MS.196         	14.122         	4.155
MS.197         	14.092         	4.161
MS.198         	14.065         	4.097
MS.199         	14.037         	4.163
MS.200         	14.01          	4.012
MS.201         	13.983         	3.996
MS.202         	13.952         	4.149
MS.203         	13.925         	4.097
MS.204         	13.898         	4.016
MS.205         	13.87          	3.938
MS.206         	13.842         	4.002
MS.207         	13.815         	3.992
MS.208         	13.787         	3.998
MS.209         	13.76          	3.988
MS.210         	13.733         	4.046
MS.211         	13.705         	4.042
MS.212         	13.677         	4.016
MS.213         	13.65          	4.059
MS.214         	13.622         	3.996
MS.215         	13.595         	3.996
MS.216         	13.568         	3.936
MS.217         	13.54          	3.946
MS.218         	13.515         	3.918
MS.219         	13.487         	3.942
MS.220         	13.46          	3.914
MS.221         	13.432         	3.914
MS.222         	13.407         	3.932
MS.223         	13.38          	3.966
MS.224         	13.352         	3.893
MS.225         	13.325         	3.831
MS.226         	13.3           	3.891
MS.227         	13.273         	3.936
MS.228         	13.247         	3.92
MS.229         	13.22          	3.845
MS.230         	13.193         	3.754
MS.231         	13.167         	3.869
MS.232         	13.14          	3.805
MS.233         	13.115         	3.855
MS.234         	13.087         	3.764
MS.235         	13.062         	3.771
MS.236         	13.035         	3.825
MS.237         	13.01          	3.714
MS.238         	12.985         	3.718
MS.239         	12.957         	3.75
MS.240         	12.932         	3.74
MS.241         	12.907         	3.742
MS.242         	12.88          	3.726
MS.243         	12.855         	3.72
MS.244         	12.83          	3.722
MS.245         	12.802         	3.656
MS.246         	12.778         	3.579
MS.247         	12.752         	3.623
MS.248         	12.727         	3.718
MS.249         	12.702         	3.623
MS.250         	12.675         	3.706
MS.251         	12.65          	3.652
MS.252         	12.625         	3.615
MS.253         	12.6           	3.571
MS.254         	12.575         	3.585
MS.255         	12.55          	3.523
MS.256         	12.525         	3.529
MS.257         	12.5           	3.615
MS.258         	12.475         	3.609
MS.259         	12.45          	3.573
MS.260         	12.425         	3.511
MS.261         	12.4           	3.579
MS.262         	12.375         	3.523
MS.263         	12.35          	3.539
MS.264         	12.325         	3.523
MS.265         	12.302         	3.48
MS.266         	12.278         	3.436
MS.267         	12.252         	3.511
MS.268         	12.227         	3.438
MS.269         	12.202         	3.396
MS.270         	12.18          	3.42
MS.271         	12.155         	3.368
MS.272         	12.13          	3.408
MS.273         	12.108         	3.372
MS.274         	12.082         	3.253
MS.275         	12.057         	3.327
MS.276         	12.035         	3.321
MS.277         	12.01          	3.307
MS.278         	11.985         	3.283
MS.279         	11.962         	3.285
MS.280         	11.938         	3.257
MS.281         	11.915         	3.162
MS.282         	11.89          	3.192
MS.283         	11.867         	3.166
MS.284         	11.842         	3.035
MS.285         	11.82          	2.991
MS.286         	11.795         	3.08
MS.287         	11.773         	3.136
MS.288         	11.747         	3.086
MS.289         	11.725         	3.07
MS.290         	11.702         	3.017
MS.291         	11.677         	3.017
MS.292         	11.655         	3.035
MS.293         	11.632         	2.91
MS.294         	11.608         	3.06
MS.295         	11.585         	2.981
MS.296         	11.562         	2.868
MS.297         	11.54          	2.953
MS.298         	11.515         	2.904
MS.299         	11.492         	2.961
MS.300         	11.47          	2.86
MS.301         	11.447         	2.874
MS.302         	11.425         	2.862
MS.303         	11.403         	2.979
MS.304         	11.377         	2.866
MS.305         	11.355         	2.941
MS.306         	11.332         	2.782
MS.307         	11.31          	2.838
MS.308         	11.287         	2.868
MS.309         	11.265         	2.832
MS.310         	11.242         	2.713
MS.311         	11.22          	2.8
MS.312         	11.197         	2.78
MS.313         	11.175         	2.868
MS.314         	11.153         	2.759
MS.315         	11.13          	2.725
MS.316         	11.108         	2.838
MS.317         	11.087         	2.739
MS.318         	11.065         	2.641
MS.319         	11.042         	2.57
MS.320         	11.02          	2.582
MS.321         	10.997         	2.707
MS.322         	10.975         	2.661
MS.323         	10.955         	2.637
MS.324         	10.932         	2.677
MS.325         	10.91          	2.667
MS.326         	10.887         	2.586
MS.327         	10.867         	2.655
MS.328         	10.845         	2.612
MS.329         	10.823         	2.59
MS.330         	10.802         	2.592
MS.331         	10.78          	2.554
MS.332         	10.76          	2.552
MS.333         	10.738         	2.59
MS.334         	10.715         	2.633
MS.335         	10.695         	2.592
MS.336         	10.672         	2.427
MS.337         	10.653         	2.492
MS.338         	10.63          	2.419
MS.339         	10.61          	2.387
MS.340         	10.587         	2.383
MS.341         	10.568         	2.508
MS.342         	10.545         	2.425
MS.343         	10.525         	2.338
MS.344         	10.502         	2.435
MS.345         	10.483         	2.338
MS.346         	10.462         	2.393
MS.347         	10.44          	2.471
MS.348         	10.42          	2.502
MS.349         	10.4           	2.403
MS.350         	10.377         	2.34
MS.351         	10.358         	2.359
MS.352         	10.337         	2.296
MS.353         	10.318         	2.197
MS.354         	10.295         	2.097
MS.355         	10.275         	1.913
MS.356         	10.255         	2.32
MS.357         	10.235         	2.099
MS.358         	10.212         	1.71
MS.359         	10.193         	2.089
MS.360         	10.172         	1.936
MS.361         	10.153         	1.839
MS.362         	10.132         	1.768
MS.363         	10.113         	1.551
MS.364         	10.092         	1.821
MS.365         	10.073         	1.656
MS.366         	10.052         	1.843
MS.367         	10.032         	1.611
MS.368         	10.012         	1.65
MS.369         	9.992          	1.472
MS.370         	9.972          	1.462
MS.371         	9.952          	1.66
MS.372         	9.932          	1.221
MS.373         	9.912          	1.396
MS.374         	9.892          	1.033
MS.375         	9.872          	1.335
MS.376         	9.852          	1.311
MS.377         	9.832          	1.148
MS.378         	9.812          	1.211
MS.379         	9.792          	0.971
MS.380         	9.775          	1.134
MS.381         	9.755          	1.184
MS.382         	9.735          	1.11
MS.383         	9.715          	1.156
MS.384         	9.695          	0.888
MS.385         	9.677          	1.082
MS.386         	9.657          	0.89
MS.387         	9.637          	1.09
MS.388         	9.62           	1.148
MS.389         	9.6            	0.9
MS.390         	9.58           	1.035
MS.391         	9.562          	0.868
MS.392         	9.542          	0.753
MS.393         	9.523          	1.031
MS.394         	9.505          	0.779
MS.395         	9.485          	1.043
MS.396         	9.465          	0.751
MS.397         	9.448          	0.687
MS.398         	9.427          	0.616
MS.399         	9.41           	0.745
MS.400         	9.39           	0.786
MS.401         	9.372          	0.781
MS.402         	9.352          	0.61
MS.403         	9.335          	0.588
MS.404         	9.315          	0.606
MS.405         	9.297          	0.532
MS.406         	9.28           	0.612
MS.407         	9.26           	0.58
MS.408         	9.242          	0.677
MS.409         	9.222          	0.506
MS.410         	9.205          	0.514
MS.411         	9.188          	0.528
MS.412         	9.167          	0.542
MS.413         	9.15           	0.54
MS.414         	9.132          	0.489
MS.415         	9.113          	0.495
MS.416         	9.095          	0.395
MS.417         	9.077          	0.459
MS.418         	9.057          	0.435
MS.419         	9.04           	0.389
MS.420         	9.023          	0.479
MS.421         	9.005          	0.423
MS.422         	8.988          	0.439
MS.423         	8.967          	0.421
MS.424         	8.95           	0.375
MS.425         	8.932          	0.417
MS.426         	8.915          	0.433
MS.427         	8.898          	0.373
MS.428         	8.88           	0.328
MS.429         	8.863          	0.312
MS.430         	8.845          	0.387
MS.431         	8.825          	0.332
MS.432         	8.807          	0.306
MS.433         	8.79           	0.377
MS.434         	8.773          	0.399
MS.435         	8.755          	0.276
MS.436         	8.738          	0.324
MS.437         	8.72           	0.35
MS.438         	8.702          	0.357
MS.439         	8.685          	0.314
MS.440         	8.67           	0.332
MS.441         	8.653          	0.324
MS.442         	8.635          	0.314
MS.443         	8.617          	0.266
MS.444         	8.6            	0.26
MS.445         	8.582          	0.278
MS.446         	8.565          	0.177
MS.447         	8.547          	0.23
MS.448         	8.53           	0.197
MS.449         	8.515          	0.228
MS.450         	8.497          	0.181
MS.451         	8.48           	0.119
MS.452         	8.462          	0.141
MS.453         	8.448          	0.189
MS.454         	8.43           	0.177
MS.455         	8.412          	0.183
MS.456         	8.395          	0.133
MS.457         	8.38           	0.091
MS.458         	8.363          	0.085
MS.459         	8.345          	0.024
MS.460         	8.33           	0.173
MS.461         	8.312          	0.105
MS.462         	8.295          	0.07
MS.463         	8.28           	0.052
MS.464         	8.262          	0.066
MS.465         	8.245          	0.03
MS.466         	8.23           	0.095
MS.467         	8.212          	0.026
MS.468         	8.198          	0.056
MS.469         	8.18           	0.107
MS.470         	8.165          	0.089
MS.471         	8.148          	0.034
MS.472         	8.132          	0.083
MS.473         	8.115          	-0.012
MS.474         	8.1            	0.01
MS.475         	8.082          	0.034
MS.476         	8.068          	0.008
MS.477         	8.05           	0.046
MS.478         	8.035          	0.002
MS.479         	8.017          	0.004
MS.480         	8.002          	0.000
MS.481         	7.987          	0.002
MS.482         	7.97           	0.008
MS.483         	7.955          	0.002
MS.484         	7.938          	0.002
MS.485         	7.922          	0.008
MS.486         	7.907          	0.028
MS.487         	7.89           	0.004
MS.488         	7.875          	0.004
MS.489         	7.86           	0.006
MS.490         	7.845          	0.000
MS.491         	7.827          	0.008
MS.492         	7.812          	0.006
MS.493         	7.797          	0.004
MS.494         	7.782          	0.028
MS.495         	7.765          	-0.006
MS.496         	7.75           	0.006
MS.497         	7.735          	0.002
MS.498         	7.72           	0.002
MS.499         	7.705          	0.002
MS.500         	7.688          	0.004
MS.501         	7.672          	0.000
