File:              	C:\Qtrac\Data\Daniel M Sørensen\MScan multicentre study\Data from centres\Aarhus\Processed data\DMSB91212B.QZD
Name:              	DK.AAR.NC.5.2
Protocol:          	MSCAN-R2
Date:              	12/12/19
Start time:        	09:25:46
Age:               	57
Sex:               	f
Temperature:       	33,4
S/R sites:         	ADM
NC/disease:        	Control
Operator:          	DS
Comments:
M-SCAN DATA (9.7-2.1m)
Scanpts: 17, 25, 603, 616
Stim. (mA)     	Amp. (mV)
MS.1           	28.5           	10.754
MS.2           	28.5           	10.766
MS.3           	28.5           	10.723
MS.4           	28.5           	10.766
MS.5           	28.5           	10.788
MS.6           	28.5           	10.808
MS.7           	28.5           	10.76
MS.8           	28.5           	10.778
MS.9           	28.5           	10.802
MS.10          	28.5           	10.826
MS.11          	28.5           	10.818
MS.12          	28.5           	10.824
MS.13          	28.5           	10.824
MS.14          	28.5           	10.816
MS.15          	28.5           	10.814
MS.16          	28.5           	10.838
MS.17          	28.5           	10.818
MS.18          	28.5           	10.846
MS.19          	28.5           	10.844
MS.20          	28.5           	10.854
MS.21          	28.5           	10.862
MS.22          	28.5           	10.822
MS.23          	28.5           	10.828
MS.24          	28.385         	10.814
MS.25          	28.33          	10.792
MS.26          	28.272         	10.836
MS.27          	28.217         	10.848
MS.28          	28.16          	10.852
MS.29          	28.102         	10.887
MS.30          	28.047         	10.87
MS.31          	27.993         	10.852
MS.32          	27.935         	10.981
MS.33          	27.88          	10.899
MS.34          	27.825         	10.858
MS.35          	27.767         	10.83
MS.36          	27.712         	10.854
MS.37          	27.657         	10.85
MS.38          	27.602         	10.83
MS.39          	27.547         	10.834
MS.40          	27.493         	10.822
MS.41          	27.438         	10.854
MS.42          	27.382         	10.846
MS.43          	27.327         	10.8
MS.44          	27.272         	10.83
MS.45          	27.217         	10.878
MS.46          	27.165         	10.826
MS.47          	27.11          	10.792
MS.48          	27.055         	10.806
MS.49          	27.002         	10.818
MS.50          	26.948         	10.832
MS.51          	26.895         	10.834
MS.52          	26.84          	10.826
MS.53          	26.787         	10.772
MS.54          	26.733         	10.772
MS.55          	26.68          	10.774
MS.56          	26.627         	10.782
MS.57          	26.573         	10.782
MS.58          	26.52          	10.774
MS.59          	26.467         	10.76
MS.60          	26.415         	10.76
MS.61          	26.362         	10.762
MS.62          	26.307         	10.778
MS.63          	26.255         	10.792
MS.64          	26.202         	10.792
MS.65          	26.153         	10.802
MS.66          	26.1           	10.812
MS.67          	26.047         	10.798
MS.68          	25.995         	10.824
MS.69          	25.942         	10.796
MS.70          	25.89          	10.78
MS.71          	25.84          	10.812
MS.72          	25.787         	10.786
MS.73          	25.735         	10.778
MS.74          	25.685         	10.762
MS.75          	25.632         	10.764
MS.76          	25.582         	10.79
MS.77          	25.53          	10.727
MS.78          	25.48          	10.729
MS.79          	25.43          	10.737
MS.80          	25.377         	10.737
MS.81          	25.327         	10.705
MS.82          	25.278         	10.79
MS.83          	25.227         	10.689
MS.84          	25.175         	10.713
MS.85          	25.125         	10.713
MS.86          	25.075         	10.772
MS.87          	25.025         	10.697
MS.88          	24.975         	10.701
MS.89          	24.925         	10.705
MS.90          	24.875         	10.699
MS.91          	24.825         	10.687
MS.92          	24.778         	10.693
MS.93          	24.727         	10.659
MS.94          	24.677         	10.685
MS.95          	24.627         	10.693
MS.96          	24.58          	10.653
MS.97          	24.53          	10.657
MS.98          	24.48          	10.679
MS.99          	24.432         	10.651
MS.100         	24.382         	10.617
MS.101         	24.335         	10.633
MS.102         	24.285         	10.633
MS.103         	24.237         	10.633
MS.104         	24.19          	10.653
MS.105         	24.14          	10.629
MS.106         	24.092         	10.605
MS.107         	24.045         	10.635
MS.108         	23.997         	10.617
MS.109         	23.948         	10.599
MS.110         	23.9           	10.59
MS.111         	23.852         	10.603
MS.112         	23.805         	10.58
MS.113         	23.757         	10.58
MS.114         	23.71          	10.611
MS.115         	23.663         	10.548
MS.116         	23.615         	10.558
MS.117         	23.567         	10.558
MS.118         	23.52          	10.542
MS.119         	23.475         	10.556
MS.120         	23.427         	10.52
MS.121         	23.38          	10.55
MS.122         	23.332         	10.536
MS.123         	23.288         	10.538
MS.124         	23.24          	10.568
MS.125         	23.195         	10.552
MS.126         	23.147         	10.532
MS.127         	23.102         	10.518
MS.128         	23.055         	10.558
MS.129         	23.01          	10.54
MS.130         	22.962         	10.544
MS.131         	22.917         	10.564
MS.132         	22.872         	10.54
MS.133         	22.825         	10.504
MS.134         	22.78          	10.532
MS.135         	22.735         	10.524
MS.136         	22.69          	10.526
MS.137         	22.645         	10.512
MS.138         	22.6           	10.482
MS.139         	22.552         	10.482
MS.140         	22.507         	10.496
MS.141         	22.462         	10.411
MS.142         	22.42          	10.449
MS.143         	22.375         	10.484
MS.144         	22.33          	10.46
MS.145         	22.285         	10.48
MS.146         	22.24          	10.439
MS.147         	22.195         	10.381
MS.148         	22.153         	10.413
MS.149         	22.108         	10.474
MS.150         	22.062         	10.456
MS.151         	22.02          	10.395
MS.152         	21.975         	10.435
MS.153         	21.93          	10.365
MS.154         	21.887         	10.365
MS.155         	21.842         	10.369
MS.156         	21.8           	10.325
MS.157         	21.755         	10.329
MS.158         	21.712         	10.359
MS.159         	21.67          	10.323
MS.160         	21.625         	10.395
MS.161         	21.583         	10.163
MS.162         	21.54          	10.216
MS.163         	21.497         	10.202
MS.164         	21.455         	10.113
MS.165         	21.41          	10.196
MS.166         	21.368         	10.337
MS.167         	21.325         	10.167
MS.168         	21.282         	9.926
MS.169         	21.24          	10.006
MS.170         	21.198         	9.998
MS.171         	21.155         	9.996
MS.172         	21.112         	10.012
MS.173         	21.07          	9.867
MS.174         	21.03          	9.916
MS.175         	20.987         	9.875
MS.176         	20.945         	10.016
MS.177         	20.903         	9.849
MS.178         	20.862         	9.863
MS.179         	20.82          	9.871
MS.180         	20.778         	9.763
MS.181         	20.737         	9.799
MS.182         	20.695         	9.738
MS.183         	20.655         	9.757
MS.184         	20.612         	9.873
MS.185         	20.573         	9.922
MS.186         	20.53          	9.678
MS.187         	20.49          	9.807
MS.188         	20.448         	9.809
MS.189         	20.407         	9.694
MS.190         	20.368         	9.837
MS.191         	20.325         	9.732
MS.192         	20.285         	9.755
MS.193         	20.245         	9.527
MS.194         	20.205         	9.66
MS.195         	20.165         	9.557
MS.196         	20.122         	9.513
MS.197         	20.083         	9.471
MS.198         	20.042         	9.477
MS.199         	20.002         	9.315
MS.200         	19.962         	9.376
MS.201         	19.922         	9.483
MS.202         	19.882         	9.348
MS.203         	19.845         	8.85
MS.204         	19.805         	9.34
MS.205         	19.765         	8.997
MS.206         	19.725         	9.273
MS.207         	19.685         	9.289
MS.208         	19.647         	9.213
MS.209         	19.608         	9.297
MS.210         	19.567         	8.995
MS.211         	19.53          	9.229
MS.212         	19.49          	8.858
MS.213         	19.45          	8.884
MS.214         	19.413         	9.17
MS.215         	19.372         	9.138
MS.216         	19.335         	8.729
MS.217         	19.295         	8.816
MS.218         	19.257         	8.631
MS.219         	19.22          	9.285
MS.220         	19.18          	9.011
MS.221         	19.142         	9.118
MS.222         	19.105         	8.52
MS.223         	19.065         	8.552
MS.224         	19.028         	8.617
MS.225         	18.99          	8.304
MS.226         	18.952         	8.335
MS.227         	18.915         	8.615
MS.228         	18.875         	8.304
MS.229         	18.837         	8.435
MS.230         	18.8           	8.153
MS.231         	18.762         	8.314
MS.232         	18.725         	7.682
MS.233         	18.688         	8.045
MS.234         	18.65          	7.952
MS.235         	18.612         	7.889
MS.236         	18.577         	7.9
MS.237         	18.54          	7.761
MS.238         	18.503         	7.581
MS.239         	18.465         	7.448
MS.240         	18.427         	7.203
MS.241         	18.392         	7.821
MS.242         	18.355         	7.543
MS.243         	18.317         	7.15
MS.244         	18.282         	7.489
MS.245         	18.245         	7.158
MS.246         	18.208         	7.06
MS.247         	18.172         	7.559
MS.248         	18.135         	7.011
MS.249         	18.1           	6.82
MS.250         	18.062         	7.029
MS.251         	18.028         	6.957
MS.252         	17.993         	6.737
MS.253         	17.955         	6.923
MS.254         	17.92          	6.727
MS.255         	17.885         	6.32
MS.256         	17.847         	6.768
MS.257         	17.812         	6.544
MS.258         	17.778         	6.27
MS.259         	17.743         	6.25
MS.260         	17.705         	6.236
MS.261         	17.67          	6.03
MS.262         	17.635         	5.942
MS.263         	17.6           	5.823
MS.264         	17.565         	6.278
MS.265         	17.53          	6.012
MS.266         	17.495         	5.829
MS.267         	17.46          	5.656
MS.268         	17.425         	5.571
MS.269         	17.39          	5.547
MS.270         	17.355         	5.193
MS.271         	17.32          	5.327
MS.272         	17.285         	5.013
MS.273         	17.253         	5.384
MS.274         	17.217         	4.828
MS.275         	17.182         	4.673
MS.276         	17.147         	4.745
MS.277         	17.115         	4.751
MS.278         	17.08          	4.443
MS.279         	17.045         	4.639
MS.280         	17.012         	4.437
MS.281         	16.977         	4.874
MS.282         	16.945         	4.383
MS.283         	16.91          	4.353
MS.284         	16.875         	4.421
MS.285         	16.842         	4.498
MS.286         	16.81          	4.339
MS.287         	16.775         	4.411
MS.288         	16.743         	4.042
MS.289         	16.708         	4.173
MS.290         	16.675         	4.258
MS.291         	16.642         	4.071
MS.292         	16.608         	4.059
MS.293         	16.575         	4.014
MS.294         	16.542         	3.97
MS.295         	16.51          	3.678
MS.296         	16.475         	3.853
MS.297         	16.442         	3.636
MS.298         	16.41          	3.557
MS.299         	16.378         	3.593
MS.300         	16.345         	3.678
MS.301         	16.312         	3.378
MS.302         	16.28          	3.736
MS.303         	16.247         	3.269
MS.304         	16.215         	3.438
MS.305         	16.182         	3.412
MS.306         	16.15          	3.333
MS.307         	16.118         	3.333
MS.308         	16.085         	3.239
MS.309         	16.052         	3.519
MS.310         	16.02          	3.217
MS.311         	15.99          	3.267
MS.312         	15.957         	3.247
MS.313         	15.925         	3.277
MS.314         	15.892         	3.172
MS.315         	15.862         	3.088
MS.316         	15.83          	3.237
MS.317         	15.797         	2.981
MS.318         	15.767         	2.89
MS.319         	15.735         	2.6
MS.320         	15.705         	2.657
MS.321         	15.672         	2.751
MS.322         	15.64          	2.56
MS.323         	15.61          	2.574
MS.324         	15.577         	2.558
MS.325         	15.547         	2.437
MS.326         	15.517         	2.445
MS.327         	15.485         	2.463
MS.328         	15.455         	2.453
MS.329         	15.422         	2.167
MS.330         	15.392         	2.119
MS.331         	15.362         	2.089
MS.332         	15.332         	2.052
MS.333         	15.3           	2.119
MS.334         	15.27          	1.946
MS.335         	15.24          	1.791
MS.336         	15.21          	1.962
MS.337         	15.18          	1.635
MS.338         	15.148         	1.744
MS.339         	15.117         	1.807
MS.340         	15.087         	1.64
MS.341         	15.057         	1.658
MS.342         	15.027         	1.829
MS.343         	14.997         	1.654
MS.344         	14.967         	1.583
MS.345         	14.938         	1.847
MS.346         	14.907         	1.583
MS.347         	14.877         	1.569
MS.348         	14.847         	1.41
MS.349         	14.82          	1.265
MS.350         	14.79          	1.247
MS.351         	14.76          	1.462
MS.352         	14.73          	1.301
MS.353         	14.7           	1.291
MS.354         	14.672         	1.213
MS.355         	14.642         	1.253
MS.356         	14.612         	1.202
MS.357         	14.582         	1.07
MS.358         	14.555         	1.068
MS.359         	14.525         	1.194
MS.360         	14.497         	1.124
MS.361         	14.467         	0.981
MS.362         	14.438         	1.18
MS.363         	14.41          	1.301
MS.364         	14.38          	1.07
MS.365         	14.352         	1.154
MS.366         	14.322         	1.13
MS.367         	14.295         	1.074
MS.368         	14.267         	1.084
MS.369         	14.237         	0.977
MS.370         	14.21          	0.916
MS.371         	14.18          	0.945
MS.372         	14.153         	0.955
MS.373         	14.125         	0.979
MS.374         	14.095         	0.965
MS.375         	14.068         	0.804
MS.376         	14.04          	0.943
MS.377         	14.012         	0.745
MS.378         	13.985         	0.773
MS.379         	13.955         	0.882
MS.380         	13.927         	0.749
MS.381         	13.9           	0.695
MS.382         	13.872         	0.719
MS.383         	13.845         	0.858
MS.384         	13.818         	0.713
MS.385         	13.79          	0.753
MS.386         	13.762         	0.737
MS.387         	13.735         	0.653
MS.388         	13.707         	0.622
MS.389         	13.68          	0.673
MS.390         	13.653         	0.582
MS.391         	13.625         	0.584
MS.392         	13.597         	0.514
MS.393         	13.57          	0.578
MS.394         	13.542         	0.481
MS.395         	13.517         	0.395
MS.396         	13.49          	0.641
MS.397         	13.462         	0.485
MS.398         	13.435         	0.52
MS.399         	13.407         	0.572
MS.400         	13.382         	0.401
MS.401         	13.355         	0.514
MS.402         	13.327         	0.463
MS.403         	13.302         	0.371
MS.404         	13.275         	0.423
MS.405         	13.247         	0.407
MS.406         	13.222         	0.373
MS.407         	13.195         	0.371
MS.408         	13.17          	0.375
MS.409         	13.142         	0.352
MS.410         	13.117         	0.334
MS.411         	13.09          	0.334
MS.412         	13.065         	0.296
MS.413         	13.037         	0.32
MS.414         	13.012         	0.286
MS.415         	12.987         	0.359
MS.416         	12.96          	0.268
MS.417         	12.935         	0.314
MS.418         	12.907         	0.264
MS.419         	12.882         	0.282
MS.420         	12.858         	0.306
MS.421         	12.832         	0.352
MS.422         	12.805         	0.264
MS.423         	12.78          	0.26
MS.424         	12.755         	0.28
MS.425         	12.73          	0.256
MS.426         	12.705         	0.252
MS.427         	12.677         	0.214
MS.428         	12.653         	0.254
MS.429         	12.627         	0.256
MS.430         	12.602         	0.201
MS.431         	12.577         	0.252
MS.432         	12.552         	0.3
MS.433         	12.528         	0.246
MS.434         	12.502         	0.228
MS.435         	12.477         	0.211
MS.436         	12.452         	0.218
MS.437         	12.427         	0.244
MS.438         	12.403         	0.27
MS.439         	12.377         	0.195
MS.440         	12.352         	0.252
MS.441         	12.327         	0.292
MS.442         	12.302         	0.236
MS.443         	12.28          	0.203
MS.444         	12.255         	0.234
MS.445         	12.23          	0.191
MS.446         	12.205         	0.203
MS.447         	12.182         	0.201
MS.448         	12.157         	0.232
MS.449         	12.132         	0.224
MS.450         	12.108         	0.23
MS.451         	12.085         	0.238
MS.452         	12.06          	0.218
MS.453         	12.035         	0.209
MS.454         	12.012         	0.159
MS.455         	11.988         	0.199
MS.456         	11.965         	0.205
MS.457         	11.94          	0.165
MS.458         	11.915         	0.163
MS.459         	11.892         	0.171
MS.460         	11.867         	0.165
MS.461         	11.845         	0.147
MS.462         	11.822         	0.201
MS.463         	11.797         	0.165
MS.464         	11.775         	0.197
MS.465         	11.75          	0.149
MS.466         	11.727         	0.159
MS.467         	11.702         	0.163
MS.468         	11.68          	0.159
MS.469         	11.657         	0.173
MS.470         	11.632         	0.163
MS.471         	11.61          	0.163
MS.472         	11.587         	0.153
MS.473         	11.565         	0.201
MS.474         	11.54          	0.163
MS.475         	11.517         	0.159
MS.476         	11.495         	0.163
MS.477         	11.472         	0.165
MS.478         	11.45          	0.161
MS.479         	11.425         	0.163
MS.480         	11.403         	0.163
MS.481         	11.38          	0.153
MS.482         	11.358         	0.165
MS.483         	11.335         	0.167
MS.484         	11.312         	0.163
MS.485         	11.29          	0.165
MS.486         	11.267         	0.165
MS.487         	11.245         	0.165
MS.488         	11.222         	0.165
MS.489         	11.2           	0.157
MS.490         	11.177         	0.165
MS.491         	11.155         	0.149
MS.492         	11.132         	0.163
MS.493         	11.11          	0.171
MS.494         	11.087         	0.161
MS.495         	11.068         	0.165
MS.496         	11.045         	0.149
MS.497         	11.023         	0.169
