File:              	C:\Qtrac\Data\Daniel M Sørensen\MScan multicentre study\Data from centres\Ankara\Processed data\FBC10122B.QZD
Name:              	TR.ANK.NC.5.2
Protocol:          	MSCAN-R2
Date:              	22/1/21
Start time:        	15:29:28
Age:               	33
Sex:               	f
Temperature:
S/R sites:         	ADM
NC/disease:        	NC
Operator:          	eb
Comments:
M-SCAN DATA (7.9-1.2m)
Scanpts: 15, 23, 538, 552
Stim. (mA)     	Amp. (mV)
MS.1           	18             	11.912
MS.2           	18             	11.913
MS.3           	18             	11.914
MS.4           	18             	11.924
MS.5           	18             	11.934
MS.6           	18             	11.921
MS.7           	18             	11.915
MS.8           	18             	11.868
MS.9           	18             	11.879
MS.10          	18             	11.898
MS.11          	18             	11.93
MS.12          	18             	11.923
MS.13          	18             	11.924
MS.14          	18             	11.915
MS.15          	18             	11.93
MS.16          	18             	11.924
MS.17          	18             	11.92
MS.18          	18             	11.92
MS.19          	18             	11.924
MS.20          	18             	11.918
MS.21          	18             	11.912
MS.22          	18             	11.913
MS.23          	18             	11.93
MS.24          	17.965         	11.884
MS.25          	17.927         	11.906
MS.26          	17.892         	11.919
MS.27          	17.858         	11.906
MS.28          	17.82          	11.895
MS.29          	17.785         	11.899
MS.30          	17.75          	11.888
MS.31          	17.715         	11.91
MS.32          	17.68          	11.906
MS.33          	17.642         	11.898
MS.34          	17.608         	11.929
MS.35          	17.573         	11.919
MS.36          	17.538         	11.907
MS.37          	17.503         	11.907
MS.38          	17.467         	11.913
MS.39          	17.432         	11.921
MS.40          	17.397         	11.914
MS.41          	17.362         	11.909
MS.42          	17.33          	11.915
MS.43          	17.295         	11.908
MS.44          	17.26          	11.915
MS.45          	17.225         	11.908
MS.46          	17.19          	11.906
MS.47          	17.157         	11.902
MS.48          	17.122         	11.896
MS.49          	17.087         	11.902
MS.50          	17.055         	11.912
MS.51          	17.02          	11.915
MS.52          	16.985         	11.897
MS.53          	16.952         	11.877
MS.54          	16.917         	11.871
MS.55          	16.885         	11.875
MS.56          	16.85          	11.902
MS.57          	16.817         	11.868
MS.58          	16.782         	11.874
MS.59          	16.75          	11.893
MS.60          	16.715         	11.907
MS.61          	16.682         	11.871
MS.62          	16.65          	11.801
MS.63          	16.615         	11.675
MS.64          	16.583         	11.748
MS.65          	16.55          	11.566
MS.66          	16.517         	11.383
MS.67          	16.483         	11.696
MS.68          	16.45          	11.517
MS.69          	16.417         	11.378
MS.70          	16.385         	11.442
MS.71          	16.352         	11.567
MS.72          	16.32          	11.205
MS.73          	16.288         	11.244
MS.74          	16.255         	11.116
MS.75          	16.222         	10.953
MS.76          	16.19          	10.988
MS.77          	16.157         	10.8
MS.78          	16.125         	11.052
MS.79          	16.092         	10.931
MS.80          	16.06          	10.829
MS.81          	16.028         	10.865
MS.82          	15.997         	10.426
MS.83          	15.965         	10.383
MS.84          	15.932         	10.07
MS.85          	15.9           	10.365
MS.86          	15.87          	10.2
MS.87          	15.837         	10.01
MS.88          	15.805         	10.131
MS.89          	15.775         	9.944
MS.90          	15.742         	10.221
MS.91          	15.71          	9.875
MS.92          	15.68          	9.7
MS.93          	15.648         	9.752
MS.94          	15.617         	9.794
MS.95          	15.585         	9.639
MS.96          	15.555         	9.64
MS.97          	15.525         	9.456
MS.98          	15.492         	9.332
MS.99          	15.462         	9.288
MS.100         	15.43          	9.578
MS.101         	15.4           	9.236
MS.102         	15.37          	9.1
MS.103         	15.337         	8.94
MS.104         	15.307         	8.995
MS.105         	15.277         	8.989
MS.106         	15.247         	8.893
MS.107         	15.217         	8.928
MS.108         	15.185         	8.993
MS.109         	15.155         	8.923
MS.110         	15.125         	8.591
MS.111         	15.095         	8.641
MS.112         	15.065         	8.361
MS.113         	15.035         	8.319
MS.114         	15.005         	8.444
MS.115         	14.975         	8.652
MS.116         	14.945         	8.503
MS.117         	14.915         	8.323
MS.118         	14.885         	7.959
MS.119         	14.855         	8.372
MS.120         	14.825         	8.24
MS.121         	14.795         	7.942
MS.122         	14.767         	8.119
MS.123         	14.737         	8.168
MS.124         	14.707         	7.864
MS.125         	14.677         	7.583
MS.126         	14.65          	7.974
MS.127         	14.62          	7.804
MS.128         	14.59          	7.71
MS.129         	14.562         	7.554
MS.130         	14.532         	7.255
MS.131         	14.502         	7.192
MS.132         	14.475         	7.516
MS.133         	14.445         	6.931
MS.134         	14.417         	7.007
MS.135         	14.387         	7.036
MS.136         	14.36          	7.087
MS.137         	14.33          	6.833
MS.138         	14.302         	6.971
MS.139         	14.273         	6.713
MS.140         	14.245         	6.807
MS.141         	14.215         	6.927
MS.142         	14.188         	7.109
MS.143         	14.16          	6.431
MS.144         	14.13          	6.387
MS.145         	14.102         	6.633
MS.146         	14.075         	6.362
MS.147         	14.047         	6.479
MS.148         	14.017         	6.379
MS.149         	13.99          	6.439
MS.150         	13.962         	6.152
MS.151         	13.935         	6.278
MS.152         	13.907         	6.127
MS.153         	13.88          	5.978
MS.154         	13.85          	6.133
MS.155         	13.822         	6.074
MS.156         	13.795         	5.757
MS.157         	13.767         	6.157
MS.158         	13.74          	5.106
MS.159         	13.712         	5.118
MS.160         	13.685         	5.747
MS.161         	13.657         	5.135
MS.162         	13.632         	5.503
MS.163         	13.605         	4.94
MS.164         	13.577         	5.269
MS.165         	13.55          	5.06
MS.166         	13.523         	5.028
MS.167         	13.495         	4.951
MS.168         	13.467         	5.02
MS.169         	13.443         	4.827
MS.170         	13.415         	4.901
MS.171         	13.387         	4.761
MS.172         	13.362         	4.716
MS.173         	13.335         	4.677
MS.174         	13.307         	4.583
MS.175         	13.282         	4.827
MS.176         	13.255         	4.575
MS.177         	13.227         	4.397
MS.178         	13.202         	4.581
MS.179         	13.175         	4.38
MS.180         	13.15          	4.194
MS.181         	13.122         	4.193
MS.182         	13.097         	4.205
MS.183         	13.07          	4.165
MS.184         	13.045         	4.214
MS.185         	13.017         	4.156
MS.186         	12.992         	3.885
MS.187         	12.967         	3.998
MS.188         	12.94          	3.995
MS.189         	12.915         	3.608
MS.190         	12.89          	3.517
MS.191         	12.862         	3.993
MS.192         	12.837         	3.879
MS.193         	12.812         	3.518
MS.194         	12.787         	3.641
MS.195         	12.76          	3.187
MS.196         	12.735         	3.655
MS.197         	12.71          	3.126
MS.198         	12.685         	3.192
MS.199         	12.66          	3.092
MS.200         	12.635         	2.935
MS.201         	12.608         	3.007
MS.202         	12.582         	2.944
MS.203         	12.557         	3.04
MS.204         	12.532         	2.842
MS.205         	12.507         	2.828
MS.206         	12.483         	2.809
MS.207         	12.457         	2.683
MS.208         	12.432         	2.71
MS.209         	12.407         	2.499
MS.210         	12.382         	2.635
MS.211         	12.36          	2.593
MS.212         	12.335         	2.697
MS.213         	12.31          	2.651
MS.214         	12.285         	2.727
MS.215         	12.26          	2.421
MS.216         	12.235         	2.505
MS.217         	12.212         	2.452
MS.218         	12.188         	2.404
MS.219         	12.162         	2.396
MS.220         	12.137         	2.297
MS.221         	12.115         	2.521
MS.222         	12.09          	2.531
MS.223         	12.065         	2.245
MS.224         	12.042         	2.449
MS.225         	12.017         	2.41
MS.226         	11.992         	2.236
MS.227         	11.97          	2.311
MS.228         	11.945         	2.115
MS.229         	11.922         	2.278
MS.230         	11.898         	2.222
MS.231         	11.875         	2.156
MS.232         	11.85          	2.222
MS.233         	11.827         	2.053
MS.234         	11.802         	2.059
MS.235         	11.78          	2.004
MS.236         	11.755         	2.156
MS.237         	11.733         	1.982
MS.238         	11.71          	1.844
MS.239         	11.685         	1.976
MS.240         	11.662         	2.068
MS.241         	11.64          	1.991
MS.242         	11.615         	1.908
MS.243         	11.592         	1.801
MS.244         	11.57          	1.846
MS.245         	11.547         	1.774
MS.246         	11.523         	1.858
MS.247         	11.5           	1.825
MS.248         	11.477         	1.655
MS.249         	11.455         	1.761
MS.250         	11.432         	1.663
MS.251         	11.407         	1.687
MS.252         	11.385         	1.613
MS.253         	11.363         	1.586
MS.254         	11.34          	1.609
MS.255         	11.318         	1.587
MS.256         	11.295         	1.653
MS.257         	11.273         	1.583
MS.258         	11.25          	1.6
MS.259         	11.227         	1.638
MS.260         	11.205         	1.307
MS.261         	11.182         	1.517
MS.262         	11.16          	1.412
MS.263         	11.137         	1.377
MS.264         	11.115         	1.27
MS.265         	11.092         	1.406
MS.266         	11.073         	1.378
MS.267         	11.05          	1.316
MS.268         	11.028         	1.433
MS.269         	11.005         	1.195
MS.270         	10.983         	1.213
MS.271         	10.962         	1.226
MS.272         	10.94          	1.007
MS.273         	10.917         	0.999
MS.274         	10.895         	1.06
MS.275         	10.875         	1.049
MS.276         	10.852         	1.329
MS.277         	10.83          	1.107
MS.278         	10.81          	1.094
MS.279         	10.787         	1.141
MS.280         	10.765         	1.075
MS.281         	10.745         	1.107
MS.282         	10.722         	0.983
MS.283         	10.702         	0.98
MS.284         	10.68          	0.95
MS.285         	10.657         	0.961
MS.286         	10.637         	0.931
MS.287         	10.615         	0.981
MS.288         	10.595         	1.007
MS.289         	10.573         	0.89
MS.290         	10.552         	0.853
MS.291         	10.532         	0.975
MS.292         	10.51          	0.874
MS.293         	10.49          	0.968
MS.294         	10.467         	0.762
MS.295         	10.448         	0.898
MS.296         	10.427         	0.898
MS.297         	10.405         	0.93
MS.298         	10.385         	0.708
MS.299         	10.365         	0.757
MS.300         	10.342         	0.702
MS.301         	10.323         	0.682
MS.302         	10.302         	0.742
MS.303         	10.282         	0.684
MS.304         	10.26          	0.724
MS.305         	10.24          	0.684
MS.306         	10.22          	0.707
MS.307         	10.2           	0.652
MS.308         	10.18          	0.58
MS.309         	10.16          	0.752
MS.310         	10.14          	0.626
MS.311         	10.117         	0.671
MS.312         	10.097         	0.543
MS.313         	10.077         	0.565
MS.314         	10.057         	0.551
MS.315         	10.037         	0.627
MS.316         	10.017         	0.659
MS.317         	9.997          	0.599
MS.318         	9.977          	0.603
MS.319         	9.957          	0.529
MS.320         	9.938          	0.496
MS.321         	9.917          	0.549
MS.322         	9.898          	0.53
MS.323         	9.877          	0.571
MS.324         	9.86           	0.535
MS.325         	9.84           	0.547
MS.326         	9.82           	0.521
MS.327         	9.8            	0.521
MS.328         	9.78           	0.499
MS.329         	9.76           	0.524
MS.330         	9.742          	0.612
MS.331         	9.722          	0.511
MS.332         	9.702          	0.479
MS.333         	9.682          	0.414
MS.334         	9.662          	0.337
MS.335         	9.645          	0.431
MS.336         	9.625          	0.457
MS.337         	9.605          	0.492
MS.338         	9.587          	0.359
MS.339         	9.568          	0.46
MS.340         	9.547          	0.479
MS.341         	9.53           	0.458
MS.342         	9.51           	0.35
MS.343         	9.492          	0.35
MS.344         	9.472          	0.521
MS.345         	9.452          	0.299
MS.346         	9.435          	0.45
MS.347         	9.415          	0.321
MS.348         	9.398          	0.364
MS.349         	9.377          	0.409
MS.350         	9.36           	0.376
MS.351         	9.34           	0.278
MS.352         	9.323          	0.245
MS.353         	9.302          	0.32
MS.354         	9.285          	0.31
MS.355         	9.265          	0.314
MS.356         	9.247          	0.408
MS.357         	9.23           	0.302
MS.358         	9.21           	0.303
MS.359         	9.193          	0.286
MS.360         	9.175          	0.321
MS.361         	9.155          	0.275
MS.362         	9.137          	0.267
MS.363         	9.12           	0.26
MS.364         	9.1            	0.365
MS.365         	9.082          	0.2
MS.366         	9.065          	0.232
MS.367         	9.047          	0.187
MS.368         	9.028          	0.258
MS.369         	9.01           	0.176
MS.370         	8.992          	0.156
MS.371         	8.975          	0.2
MS.372         	8.957          	0.189
MS.373         	8.938          	0.151
MS.374         	8.92           	0.167
MS.375         	8.903          	0.144
MS.376         	8.885          	0.159
MS.377         	8.867          	0.156
MS.378         	8.85           	0.167
MS.379         	8.832          	0.134
MS.380         	8.815          	0.177
MS.381         	8.797          	0.135
MS.382         	8.78           	0.135
MS.383         	8.762          	0.115
MS.384         	8.745          	0.135
MS.385         	8.727          	0.112
MS.386         	8.71           	0.201
MS.387         	8.693          	0.145
MS.388         	8.675          	0.109
MS.389         	8.658          	0.132
MS.390         	8.64           	0.132
MS.391         	8.622          	0.125
MS.392         	8.605          	0.099
MS.393         	8.587          	0.157
MS.394         	8.57           	0.111
MS.395         	8.555          	0.094
MS.396         	8.537          	0.098
MS.397         	8.52           	0.096
MS.398         	8.502          	0.096
MS.399         	8.485          	0.131
MS.400         	8.467          	0.126
MS.401         	8.452          	0.098
MS.402         	8.435          	0.096
MS.403         	8.417          	0.099
MS.404         	8.4            	0.098
MS.405         	8.385          	0.111
MS.406         	8.367          	0.1
MS.407         	8.35           	0.101
MS.408         	8.335          	0.099
MS.409         	8.318          	0.099
MS.410         	8.3            	0.099
MS.411         	8.285          	0.104
MS.412         	8.267          	0.103
MS.413         	8.252          	0.106
MS.414         	8.235          	0.115
MS.415         	8.217          	0.104
MS.416         	8.202          	0.114
MS.417         	8.185          	0.103
MS.418         	8.17           	0.104
MS.419         	8.153          	0.104
MS.420         	8.137          	0.1
MS.421         	8.12           	0.103
MS.422         	8.105          	0.099
MS.423         	8.087          	0.104
MS.424         	8.073          	0.104
MS.425         	8.055          	0.104
MS.426         	8.04           	0.101
MS.427         	8.023          	0.103
MS.428         	8.007          	0.103
MS.429         	7.992          	0.098
MS.430         	7.975          	0.104
MS.431         	7.96           	0.1
MS.432         	7.942          	0.1
MS.433         	7.927          	0.105
MS.434         	7.912          	0.1
MS.435         	7.895          	0.103
MS.436         	7.88           	0.106
MS.437         	7.865          	0.105
MS.438         	7.85           	0.104
MS.439         	7.832          	0.105
MS.440         	7.817          	0.1
MS.441         	7.802          	0.101
MS.442         	7.787          	0.103
MS.443         	7.77           	0.098
MS.444         	7.755          	0.103
MS.445         	7.74           	0.084
MS.446         	7.725          	0.084
MS.447         	7.71           	0.079
MS.448         	7.692          	0.098
MS.449         	7.677          	0.087
MS.450         	7.662          	0.078
MS.451         	7.648          	0.081
MS.452         	7.632          	0.088
MS.453         	7.617          	0.087
MS.454         	7.602          	0.088
MS.455         	7.587          	0.083
MS.456         	7.572          	0.083
MS.457         	7.555          	0.084
MS.458         	7.54           	0.084
MS.459         	7.525          	0.078
MS.460         	7.51           	0.095
MS.461         	7.495          	0.071
MS.462         	7.48           	0.076
MS.463         	7.465          	0.074
MS.464         	7.45           	0.078
MS.465         	7.438          	0.076
MS.466         	7.422          	0.074
MS.467         	7.407          	0.085
MS.468         	7.392          	0.073
MS.469         	7.378          	0.074
MS.470         	7.362          	0.072
MS.471         	7.347          	0.072
MS.472         	7.332          	0.07
MS.473         	7.317          	0.073
MS.474         	7.302          	0.072
MS.475         	7.29           	0.074
MS.476         	7.275          	0.07
MS.477         	7.26           	0.072
MS.478         	7.245          	0.072
MS.479         	7.23           	0.071
MS.480         	7.217          	0.072
MS.481         	7.202          	0.074
MS.482         	7.188          	0.072
MS.483         	7.172          	0.073
MS.484         	7.16           	0.071
MS.485         	7.145          	0.071
MS.486         	7.13           	0.072
MS.487         	7.115          	0.063
MS.488         	7.102          	0.071
MS.489         	7.087          	0.072
MS.490         	7.072          	0.072
MS.491         	7.06           	0.072
MS.492         	7.045          	0.07
MS.493         	7.032          	0.071
MS.494         	7.017          	0.072
MS.495         	7.003          	0.072
MS.496         	6.99           	0.07
MS.497         	6.975          	0.073
MS.498         	6.962          	0.049
MS.499         	6.947          	0.063
