File:              	C:\Qtrac\Data\Daniel M Sørensen\MScan multicentre study\Data from centres\Ankara\Processed data\HBC10122B.QZD
Name:              	TR.ANK.NC.7.2
Protocol:          	MSCAN-R2
Date:              	22/1/21
Start time:        	19:24:01
Age:               	33
Sex:               	M
Temperature:
S/R sites:         	ADM
NC/disease:        	NC
Operator:          	HA
Comments:
M-SCAN DATA (6.3-2.9m)
Scanpts: 3, 6, 360, 381
Stim. (mA)     	Amp. (mV)
MS.1           	40.5           	10.819
MS.2           	40.5           	10.913
MS.3           	40.5           	10.84
MS.4           	40.5           	10.814
MS.5           	40.5           	10.989
MS.6           	40.5           	10.985
MS.7           	40.5           	10.962
MS.8           	40.5           	10.798
MS.9           	40.5           	10.809
MS.10          	40.5           	10.735
MS.11          	40.5           	11.001
MS.12          	40.5           	10.895
MS.13          	40.5           	10.793
MS.14          	40.5           	10.863
MS.15          	40.5           	10.98
MS.16          	40.5           	10.841
MS.17          	40.5           	11.005
MS.18          	40.5           	10.614
MS.19          	40.5           	10.941
MS.20          	40.5           	10.946
MS.21          	40.5           	10.997
MS.22          	40.5           	11.022
MS.23          	40.5           	11.095
MS.24          	40.337         	10.869
MS.25          	40.257         	10.865
MS.26          	40.177         	10.942
MS.27          	40.097         	11.068
MS.28          	40.017         	10.92
MS.29          	39.938         	10.826
MS.30          	39.857         	10.52
MS.31          	39.778         	10.845
MS.32          	39.697         	10.867
MS.33          	39.618         	10.492
MS.34          	39.54          	10.811
MS.35          	39.46          	10.669
MS.36          	39.382         	10.45
MS.37          	39.302         	10.254
MS.38          	39.225         	10.522
MS.39          	39.145         	10.66
MS.40          	39.067         	10.143
MS.41          	38.99          	10.548
MS.42          	38.912         	10.403
MS.43          	38.835         	10.363
MS.44          	38.757         	10.439
MS.45          	38.68          	10.505
MS.46          	38.603         	10.236
MS.47          	38.525         	10.168
MS.48          	38.447         	9.913
MS.49          	38.37          	9.852
MS.50          	38.295         	10.068
MS.51          	38.217         	10.11
MS.52          	38.142         	9.653
MS.53          	38.065         	9.525
MS.54          	37.99          	9.531
MS.55          	37.912         	9.242
MS.56          	37.837         	9.473
MS.57          	37.763         	9.261
MS.58          	37.688         	9.102
MS.59          	37.61          	9.045
MS.60          	37.535         	8.889
MS.61          	37.46          	9.193
MS.62          	37.385         	9.043
MS.63          	37.312         	9.037
MS.64          	37.237         	9.097
MS.65          	37.162         	8.928
MS.66          	37.087         	8.872
MS.67          	37.015         	9.427
MS.68          	36.94          	8.95
MS.69          	36.868         	8.936
MS.70          	36.792         	9.022
MS.71          	36.72          	8.679
MS.72          	36.645         	8.838
MS.73          	36.572         	8.59
MS.74          	36.5           	8.607
MS.75          	36.427         	8.702
MS.76          	36.355         	8.531
MS.77          	36.28          	8.271
MS.78          	36.208         	8.704
MS.79          	36.138         	8.33
MS.80          	36.065         	8.481
MS.81          	35.993         	8.25
MS.82          	35.92          	8.079
MS.83          	35.847         	8.252
MS.84          	35.778         	8.413
MS.85          	35.705         	8.091
MS.86          	35.635         	8.149
MS.87          	35.562         	8.336
MS.88          	35.493         	8.127
MS.89          	35.42          	8.027
MS.90          	35.35          	7.997
MS.91          	35.28          	7.946
MS.92          	35.21          	7.819
MS.93          	35.138         	7.83
MS.94          	35.068         	7.788
MS.95          	34.997         	7.815
MS.96          	34.927         	7.396
MS.97          	34.857         	7.343
MS.98          	34.79          	6.948
MS.99          	34.72          	7.192
MS.100         	34.65          	6.663
MS.101         	34.58          	7.158
MS.102         	34.513         	7.168
MS.103         	34.443         	7.133
MS.104         	34.375         	6.641
MS.105         	34.305         	6.414
MS.106         	34.237         	6.917
MS.107         	34.167         	6.854
MS.108         	34.1           	6.456
MS.109         	34.032         	6.304
MS.110         	33.965         	6.641
MS.111         	33.895         	6.312
MS.112         	33.827         	6.075
MS.113         	33.76          	6.033
MS.114         	33.693         	6.156
MS.115         	33.625         	5.814
MS.116         	33.56          	5.573
MS.117         	33.493         	5.604
MS.118         	33.425         	6.168
MS.119         	33.357         	5.538
MS.120         	33.292         	5.956
MS.121         	33.225         	5.601
MS.122         	33.157         	5.935
MS.123         	33.092         	5.466
MS.124         	33.025         	5.142
MS.125         	32.96          	5.479
MS.126         	32.895         	5.231
MS.127         	32.827         	5.574
MS.128         	32.763         	5.308
MS.129         	32.697         	5.226
MS.130         	32.632         	4.821
MS.131         	32.568         	5.138
MS.132         	32.502         	4.733
MS.133         	32.438         	4.705
MS.134         	32.372         	5.159
MS.135         	32.307         	4.786
MS.136         	32.243         	4.602
MS.137         	32.177         	4.612
MS.138         	32.115         	4.841
MS.139         	32.05          	4.415
MS.140         	31.985         	4.469
MS.141         	31.922         	4.63
MS.142         	31.858         	4.315
MS.143         	31.795         	4.275
MS.144         	31.73          	3.99
MS.145         	31.667         	4.12
MS.146         	31.605         	4.37
MS.147         	31.542         	3.89
MS.148         	31.477         	3.855
MS.149         	31.415         	3.672
MS.150         	31.352         	3.746
MS.151         	31.29          	3.837
MS.152         	31.227         	3.795
MS.153         	31.165         	3.604
MS.154         	31.102         	3.409
MS.155         	31.04          	3.309
MS.156         	30.977         	3.328
MS.157         	30.917         	2.937
MS.158         	30.855         	2.864
MS.159         	30.792         	2.654
MS.160         	30.733         	3.011
MS.161         	30.67          	2.942
MS.162         	30.61          	2.585
MS.163         	30.547         	3.143
MS.164         	30.487         	2.587
MS.165         	30.425         	3.051
MS.166         	30.365         	2.273
MS.167         	30.305         	2.911
MS.168         	30.245         	2.95
MS.169         	30.182         	2.642
MS.170         	30.122         	2.518
MS.171         	30.062         	2.067
MS.172         	30.002         	2.684
MS.173         	29.942         	2.439
MS.174         	29.882         	2.156
MS.175         	29.823         	2.341
MS.176         	29.765         	1.97
MS.177         	29.705         	2.231
MS.178         	29.645         	2.091
MS.179         	29.585         	2.118
MS.180         	29.528         	1.793
MS.181         	29.467         	1.689
MS.182         	29.41          	1.851
MS.183         	29.35          	1.857
MS.184         	29.292         	1.785
MS.185         	29.233         	1.741
MS.186         	29.175         	1.76
MS.187         	29.117         	1.912
MS.188         	29.057         	1.708
MS.189         	29             	1.637
MS.190         	28.942         	1.743
MS.191         	28.885         	1.619
MS.192         	28.827         	1.609
MS.193         	28.77          	1.429
MS.194         	28.712         	1.669
MS.195         	28.655         	1.72
MS.196         	28.597         	1.104
MS.197         	28.54          	1.541
MS.198         	28.483         	1.571
MS.199         	28.425         	1.359
MS.200         	28.37          	1.03
MS.201         	28.312         	1.349
MS.202         	28.255         	1.262
MS.203         	28.2           	1.442
MS.204         	28.142         	0.978
MS.205         	28.087         	0.779
MS.206         	28.03          	1.022
MS.207         	27.975         	0.854
MS.208         	27.92          	1.155
MS.209         	27.862         	0.698
MS.210         	27.807         	0.999
MS.211         	27.752         	0.692
MS.212         	27.698         	0.573
MS.213         	27.64          	0.77
MS.214         	27.585         	0.604
MS.215         	27.53          	0.706
MS.216         	27.475         	0.902
MS.217         	27.42          	0.801
MS.218         	27.365         	0.637
MS.219         	27.31          	0.488
MS.220         	27.257         	0.675
MS.221         	27.202         	0.474
MS.222         	27.147         	0.414
MS.223         	27.092         	0.332
MS.224         	27.04          	0.326
MS.225         	26.985         	0.496
MS.226         	26.932         	0.475
MS.227         	26.877         	0.33
MS.228         	26.825         	0.428
MS.229         	26.77          	0.33
MS.230         	26.717         	0.352
MS.231         	26.662         	0.432
MS.232         	26.61          	0.32
MS.233         	26.557         	0.203
MS.234         	26.505         	0.397
MS.235         	26.45          	0.338
MS.236         	26.397         	0.237
MS.237         	26.345         	0.223
MS.238         	26.292         	0.217
MS.239         	26.24          	0.21
MS.240         	26.188         	0.178
MS.241         	26.135         	0.208
MS.242         	26.082         	0.193
MS.243         	26.032         	0.17
MS.244         	25.98          	0.204
MS.245         	25.927         	0.171
MS.246         	25.875         	0.182
MS.247         	25.825         	0.182
MS.248         	25.772         	0.21
MS.249         	25.72          	0.143
MS.250         	25.67          	0.16
MS.251         	25.618         	0.19
MS.252         	25.567         	0.157
MS.253         	25.515         	0.16
MS.254         	25.465         	0.17
MS.255         	25.415         	0.151
MS.256         	25.362         	0.14
MS.257         	25.312         	0.134
MS.258         	25.262         	0.128
MS.259         	25.212         	0.12
MS.260         	25.16          	0.151
MS.261         	25.11          	0.15
MS.262         	25.06          	0.166
MS.263         	25.01          	0.138
MS.264         	24.96          	0.173
MS.265         	24.91          	0.155
MS.266         	24.86          	0.1
MS.267         	24.812         	0.146
MS.268         	24.762         	0.148
MS.269         	24.712         	0.149
MS.270         	24.663         	0.145
MS.271         	24.612         	0.162
MS.272         	24.565         	0.127
MS.273         	24.515         	0.121
MS.274         	24.467         	0.132
MS.275         	24.417         	0.099
MS.276         	24.368         	0.109
MS.277         	24.32          	0.132
MS.278         	24.272         	0.134
MS.279         	24.222         	0.109
MS.280         	24.175         	0.104
MS.281         	24.125         	0.14
MS.282         	24.077         	0.111
MS.283         	24.03          	0.101
MS.284         	23.983         	0.101
MS.285         	23.935         	0.126
MS.286         	23.885         	0.104
MS.287         	23.837         	0.095
MS.288         	23.79          	0.085
MS.289         	23.743         	0.105
MS.290         	23.695         	0.115
MS.291         	23.647         	0.085
MS.292         	23.6           	0.09
MS.293         	23.555         	0.081
MS.294         	23.507         	0.092
MS.295         	23.46          	0.089
MS.296         	23.413         	0.085
MS.297         	23.368         	0.09
MS.298         	23.32          	0.094
MS.299         	23.272         	0.084
MS.300         	23.227         	0.079
MS.301         	23.18          	0.059
MS.302         	23.135         	0.074
MS.303         	23.087         	0.083
MS.304         	23.042         	0.068
MS.305         	22.995         	0.09
MS.306         	22.95          	0.078
MS.307         	22.903         	0.099
MS.308         	22.858         	0.084
MS.309         	22.812         	0.061
MS.310         	22.767         	0.056
MS.311         	22.72          	0.06
MS.312         	22.675         	0.046
MS.313         	22.63          	0.065
MS.314         	22.585         	0.063
MS.315         	22.54          	0.052
MS.316         	22.495         	0.048
MS.317         	22.45          	0.057
MS.318         	22.405         	0.05
MS.319         	22.36          	0.048
MS.320         	22.315         	0.052
MS.321         	22.272         	0.048
MS.322         	22.227         	0.054
MS.323         	22.182         	0.051
MS.324         	22.137         	0.044
MS.325         	22.095         	0.046
MS.326         	22.05          	0.049
MS.327         	22.005         	0.039
MS.328         	21.962         	0.042
MS.329         	21.917         	0.056
MS.330         	21.875         	0.031
MS.331         	21.83          	0.048
MS.332         	21.788         	0.04
MS.333         	21.743         	0.049
MS.334         	21.7           	0.057
MS.335         	21.657         	0.042
MS.336         	21.612         	0.02
MS.337         	21.57          	0.017
MS.338         	21.528         	0.012
MS.339         	21.485         	0.042
MS.340         	21.44          	0.017
MS.341         	21.397         	0.035
MS.342         	21.355         	0.022
MS.343         	21.312         	0.015
MS.344         	21.27          	0.001
MS.345         	21.227         	0.007
MS.346         	21.185         	-0.005
MS.347         	21.142         	0.015
MS.348         	21.1           	0.016
MS.349         	21.057         	0.017
MS.350         	21.017         	0.001
MS.351         	20.975         	-0.009
MS.352         	20.932         	0.017
MS.353         	20.89          	0.004
MS.354         	20.85          	-0.017
MS.355         	20.807         	0.004
MS.356         	20.765         	-0.012
MS.357         	20.725         	-0.005
MS.358         	20.682         	0.021
MS.359         	20.642         	-0.015
MS.360         	20.6           	-0.013
MS.361         	20.56          	-0.012
MS.362         	20.517         	-0.004
MS.363         	20.477         	-0.016
MS.364         	20.435         	-0.016
MS.365         	20.395         	-0.013
MS.366         	20.355         	-0.013
MS.367         	20.315         	-0.011
MS.368         	20.272         	-0.013
MS.369         	20.233         	-0.012
MS.370         	20.192         	-0.015
MS.371         	20.153         	-0.013
MS.372         	20.112         	-0.015
MS.373         	20.073         	-0.01
MS.374         	20.032         	-0.011
MS.375         	19.993         	-0.011
MS.376         	19.952         	-0.012
MS.377         	19.913         	-0.012
MS.378         	19.872         	-0.012
MS.379         	19.833         	-0.011
MS.380         	19.792         	-0.013
MS.381         	19.752         	-0.011
DERIVED EXCITABILITY VARIABLES
Program = QTracP 3/4/2020
Threshold method = 6 (optimised for CAP, using data for present condition only)
SR method = 1 (using actual data values)
6.                 	0.000               	Peak response\(mV)
17.                	33                  	Age (years)
18.                	1                   	Sex (M=1, F=2)

EXTRA VARIABLES

MScPeak(mV) = 10.9
MScS5(mA) = 27.28
MScS50(mA) = 32.93
MScS95(mA) = 39.08
MScNSteps = 2
MScSteps(%) = 6.3
MScStepMax(%) = 3.6
MScD50 = 41
MScSlope = 6.31
MSFPeakAmp(mV) = 10.9
MSFNUnits = 114
MSFMeanUnitAmp(uV) = 95.8
MSFHuntTime(m) = 1.53
MSFError(%) = 4.05
MSFNLarge = 32.88
MSFMedianAmp(%) = 0.695
MSFMedianAmp(mV) = 0.0759
MSFHalfAmpAmp(%) = 1.02
MSFHalfAmpAmp(mV) = 0.111
MSFLargestAmp(%) = 2.49
MSFLargestAmp(mV) = 0.272
MSFMeanRS(%) = 2
MSFOpts = 10106121
MScDuration(min) = 3.4
MSFTraces = 379
MSFSizeLimit(uV) = 27.3
MSFLimitType = 1
MSFSmallestAmp(uV) = 29

EXTRA WAVEFORMS


!MScan Model
!114
	1	21.13	0.41	1.6
	2	22.81	0.34	2
	3	23.95	0.49	2
	4	26	0.65	2
	5	26.19	0.27	2
	6	26.34	0.3	2
	7	26.49	0.35	2
	8	26.89	0.91	2
	9	27.1	0.96	2
	10	27.38	1.11	2
	11	27.68	1.6	2
	12	27.89	1.21	2
	13	28.01	0.82	2
	14	28.13	0.97	2
	15	28.32	1.2	2
	16	28.36	1.17	2
	17	28.51	1.45	2
	18	28.7	1.26	2
	19	29.12	0.87	2
	20	29.28	0.63	2
	21	29.38	0.53	2
	22	29.49	0.78	2
	23	29.59	0.65	2
	24	29.68	0.54	2
	25	29.77	0.87	2
	26	29.92	1.6	2
	27	30.21	2.38	2
	28	30.6	2.2	2
	29	30.75	1.38	2
	30	30.79	0.35	2
	31	30.83	0.28	2
	32	30.87	0.28	2
	33	30.92	0.28	2
	34	30.96	0.57	2
	35	31	0.58	2
	36	31.04	0.58	2
	37	31.08	0.61	2
	38	31.13	0.61	2
	39	31.17	0.6	2
	40	31.22	0.58	2
	41	31.26	0.57	2
	42	31.3	0.55	2
	43	31.35	0.51	2
	44	31.41	0.72	2
	45	31.47	0.87	2
	46	31.54	0.84	2
	47	31.6	0.68	2
	48	31.66	0.67	2
	49	31.75	0.93	2
	50	31.84	0.88	2
	51	31.93	0.81	2
	52	32.03	0.96	2
	53	32.15	1.13	2
	54	32.27	1	2
	55	32.41	1.06	2
	56	32.54	1.08	2
	57	32.67	1.08	2
	58	32.79	1.14	2
	59	32.9	1.23	2
	60	33.15	2.3	2
	61	33.43	2.08	2
	62	33.64	1.8	2
	63	33.72	0.6	2
	64	33.79	0.6	2
	65	33.87	0.59	2
	66	33.95	0.88	2
	67	34.14	2.34	2
	68	34.33	1.75	2
	69	34.46	1.15	2
	70	34.58	1.88	2
	71	34.68	1.02	2
	72	34.74	0.61	2
	73	34.8	0.53	2
	74	34.86	0.56	2
	75	34.92	0.73	2
	76	34.98	0.73	2
	77	35.04	0.66	2
	78	35.09	0.63	2
	79	35.14	0.63	2
	80	35.19	0.55	2
	81	35.24	0.56	2
	82	35.29	0.53	2
	83	35.35	0.43	2
	84	35.48	0.96	2
	85	35.61	0.84	2
	86	35.79	0.98	2
	87	36.06	1.24	2
	88	36.16	0.41	2
	89	36.25	0.4	2
	90	36.34	0.55	2
	91	36.43	0.65	2
	92	36.58	1.02	2
	93	36.73	0.71	2
	94	37.34	2.49	2
	95	37.63	1.53	2
	96	37.69	0.27	2.2
	97	37.75	0.44	2
	98	37.81	0.58	2
	99	37.87	0.59	2
	100	37.92	0.54	2
	101	37.97	0.43	2
	102	38.01	0.43	2
	103	38.06	0.43	2
	104	38.1	0.47	2
	105	38.14	0.48	2
	106	38.19	0.49	2
	107	38.23	0.48	2
	108	38.28	0.47	2
	109	38.39	1.16	2
	110	38.54	1.45	2
	111	38.79	1.54	2
	112	39.3	1.94	2
	113	39.58	1.15	2
	114	39.79	0.78	2

