File:              	C:\Qtrac\Data\Daniel M Sørensen\MScan multicentre study\Data from centres\Ankara\Processed data\HBC10114B.QZD
Name:              	TR.ANK.NC.7.1
Protocol:          	MSCAN-R2
Date:              	14/1/21
Start time:        	19:00:23
Age:               	35
Sex:               	M
Temperature:
S/R sites:         	ADM
NC/disease:        	NC
Operator:          	HA
Comments:
M-SCAN DATA (4.7-1.2m)
Scanpts: 20, 25, 328, 339
Stim. (mA)     	Amp. (mV)
MS.1           	31.5           	9.074
MS.2           	31.5           	9.215
MS.3           	31.5           	9.17
MS.4           	31.5           	9.215
MS.5           	31.5           	9.076
MS.6           	31.5           	9.247
MS.7           	31.5           	9.058
MS.8           	31.5           	9.122
MS.9           	31.5           	9.031
MS.10          	31.5           	9.281
MS.11          	31.5           	9.025
MS.12          	31.5           	9.34
MS.13          	31.5           	9.086
MS.14          	31.5           	9.251
MS.15          	31.5           	9.257
MS.16          	31.5           	9.297
MS.17          	31.5           	9.106
MS.18          	31.5           	9.233
MS.19          	31.5           	9.261
MS.20          	31.5           	9.277
MS.21          	31.5           	9.227
MS.22          	31.5           	9.245
MS.23          	31.5           	9.271
MS.24          	31.438         	9.185
MS.25          	31.375         	9.199
MS.26          	31.312         	9.291
MS.27          	31.25          	9.299
MS.28          	31.188         	9.199
MS.29          	31.125         	9.09
MS.30          	31.062         	9.068
MS.31          	31             	9.152
MS.32          	30.938         	9.134
MS.33          	30.877         	8.921
MS.34          	30.815         	8.973
MS.35          	30.752         	8.76
MS.36          	30.692         	8.733
MS.37          	30.63          	8.872
MS.38          	30.57          	8.482
MS.39          	30.507         	8.973
MS.40          	30.448         	8.669
MS.41          	30.385         	8.312
MS.42          	30.325         	8.272
MS.43          	30.265         	8.75
MS.44          	30.205         	8.278
MS.45          	30.145         	8.373
MS.46          	30.085         	8.419
MS.47          	30.022         	8.129
MS.48          	29.962         	8.538
MS.49          	29.905         	8.202
MS.50          	29.845         	8.095
MS.51          	29.785         	8.212
MS.52          	29.725         	8.182
MS.53          	29.665         	8.222
MS.54          	29.608         	8.478
MS.55          	29.547         	8.087
MS.56          	29.487         	8.095
MS.57          	29.43          	8.077
MS.58          	29.37          	7.908
MS.59          	29.312         	8.22
MS.60          	29.252         	8.125
MS.61          	29.195         	8.006
MS.62          	29.137         	7.873
MS.63          	29.077         	8.075
MS.64          	29.02          	8.123
MS.65          	28.962         	8.057
MS.66          	28.905         	7.728
MS.67          	28.847         	8.041
MS.68          	28.79          	7.704
MS.69          	28.733         	7.718
MS.70          	28.675         	7.809
MS.71          	28.618         	7.678
MS.72          	28.56          	7.575
MS.73          	28.502         	7.724
MS.74          	28.445         	7.742
MS.75          	28.387         	7.654
MS.76          	28.332         	7.575
MS.77          	28.275         	7.08
MS.78          	28.22          	7.541
MS.79          	28.162         	7.485
MS.80          	28.105         	7.132
MS.81          	28.05          	7.336
MS.82          	27.995         	6.997
MS.83          	27.938         	7.354
MS.84          	27.882         	6.669
MS.85          	27.827         	6.615
MS.86          	27.77          	6.669
MS.87          	27.715         	7.078
MS.88          	27.66          	6.822
MS.89          	27.605         	6.602
MS.90          	27.55          	7.003
MS.91          	27.495         	6.429
MS.92          	27.44          	6.465
MS.93          	27.385         	7.078
MS.94          	27.33          	6.8
MS.95          	27.275         	6.248
MS.96          	27.22          	6.768
MS.97          	27.167         	6.28
MS.98          	27.112         	6.308
MS.99          	27.057         	6.115
MS.100         	27.005         	5.861
MS.101         	26.95          	5.734
MS.102         	26.897         	5.974
MS.103         	26.842         	5.912
MS.104         	26.79          	5.7
MS.105         	26.735         	5.795
MS.106         	26.682         	6.214
MS.107         	26.627         	6.103
MS.108         	26.575         	5.66
MS.109         	26.522         	6.018
MS.110         	26.47          	5.479
MS.111         	26.417         	5.489
MS.112         	26.362         	5.182
MS.113         	26.31          	5.374
MS.114         	26.257         	5.378
MS.115         	26.205         	5.1
MS.116         	26.153         	5.545
MS.117         	26.102         	5.281
MS.118         	26.05          	5.029
MS.119         	25.997         	5.043
MS.120         	25.945         	5.017
MS.121         	25.892         	4.955
MS.122         	25.842         	4.486
MS.123         	25.79          	4.991
MS.124         	25.737         	4.931
MS.125         	25.688         	4.544
MS.126         	25.635         	4.238
MS.127         	25.585         	4.653
MS.128         	25.532         	4.383
MS.129         	25.483         	4.198
MS.130         	25.432         	4.288
MS.131         	25.38          	4.433
MS.132         	25.33          	4.304
MS.133         	25.28          	4.336
MS.134         	25.23          	4.403
MS.135         	25.177         	4.343
MS.136         	25.127         	4.212
MS.137         	25.077         	4.073
MS.138         	25.028         	4.312
MS.139         	24.977         	4.014
MS.140         	24.927         	3.857
MS.141         	24.877         	4.139
MS.142         	24.827         	3.549
MS.143         	24.78          	4.252
MS.144         	24.73          	3.603
MS.145         	24.68          	3.877
MS.146         	24.63          	3.438
MS.147         	24.582         	2.86
MS.148         	24.532         	3.46
MS.149         	24.483         	3.309
MS.150         	24.435         	2.937
MS.151         	24.385         	3.227
MS.152         	24.337         	3.102
MS.153         	24.288         	2.908
MS.154         	24.24          	2.691
MS.155         	24.19          	2.995
MS.156         	24.142         	2.739
MS.157         	24.095         	2.898
MS.158         	24.047         	2.874
MS.159         	23.997         	2.902
MS.160         	23.95          	2.671
MS.161         	23.903         	2.564
MS.162         	23.855         	2.594
MS.163         	23.807         	2.524
MS.164         	23.76          	2.804
MS.165         	23.712         	2.504
MS.166         	23.665         	2.56
MS.167         	23.618         	2.5
MS.168         	23.57          	2.52
MS.169         	23.522         	2.33
MS.170         	23.475         	2.097
MS.171         	23.43          	2.296
MS.172         	23.382         	2.236
MS.173         	23.335         	2.079
MS.174         	23.29          	2.322
MS.175         	23.243         	2.21
MS.176         	23.195         	2.034
MS.177         	23.15          	1.845
MS.178         	23.102         	1.958
MS.179         	23.057         	1.881
MS.180         	23.012         	2.048
MS.181         	22.965         	2.252
MS.182         	22.92          	2.224
MS.183         	22.872         	1.901
MS.184         	22.827         	1.863
MS.185         	22.782         	1.99
MS.186         	22.737         	1.821
MS.187         	22.692         	1.805
MS.188         	22.645         	1.642
MS.189         	22.6           	1.68
MS.190         	22.555         	1.601
MS.191         	22.51          	1.672
MS.192         	22.465         	1.785
MS.193         	22.42          	1.742
MS.194         	22.375         	1.44
MS.195         	22.332         	1.44
MS.196         	22.288         	1.613
MS.197         	22.243         	1.368
MS.198         	22.198         	1.259
MS.199         	22.153         	1.688
MS.200         	22.11          	1.398
MS.201         	22.065         	1.517
MS.202         	22.02          	1.16
MS.203         	21.977         	1.172
MS.204         	21.932         	1.486
MS.205         	21.89          	1.559
MS.206         	21.845         	1.313
MS.207         	21.802         	1.352
MS.208         	21.757         	1.462
MS.209         	21.715         	1.146
MS.210         	21.672         	1.476
MS.211         	21.627         	1.001
MS.212         	21.585         	0.971
MS.213         	21.542         	0.872
MS.214         	21.497         	0.993
MS.215         	21.455         	0.904
MS.216         	21.413         	0.743
MS.217         	21.37          	1.031
MS.218         	21.327         	0.912
MS.219         	21.285         	0.653
MS.220         	21.243         	0.387
MS.221         	21.2           	0.572
MS.222         	21.157         	0.689
MS.223         	21.115         	0.636
MS.224         	21.073         	0.641
MS.225         	21.03          	0.524
MS.226         	20.99          	0.689
MS.227         	20.948         	0.522
MS.228         	20.905         	0.526
MS.229         	20.862         	0.626
MS.230         	20.823         	0.592
MS.231         	20.78          	0.387
MS.232         	20.737         	0.638
MS.233         	20.698         	0.413
MS.234         	20.655         	0.616
MS.235         	20.615         	0.324
MS.236         	20.573         	0.328
MS.237         	20.532         	0.181
MS.238         	20.49          	0.193
MS.239         	20.45          	0.183
MS.240         	20.41          	0.369
MS.241         	20.368         	0.187
MS.242         	20.327         	0.387
MS.243         	20.288         	0.191
MS.244         	20.247         	0.181
MS.245         	20.205         	0.189
MS.246         	20.165         	0.332
MS.247         	20.125         	0.175
MS.248         	20.085         	0.258
MS.249         	20.045         	0.181
MS.250         	20.005         	0.187
MS.251         	19.965         	0.183
MS.252         	19.925         	0.173
MS.253         	19.885         	0.189
MS.254         	19.845         	0.193
MS.255         	19.805         	0.177
MS.256         	19.767         	0.177
MS.257         	19.727         	0.177
MS.258         	19.688         	0.163
MS.259         	19.647         	0.062
MS.260         	19.61          	0.073
MS.261         	19.57          	0.185
MS.262         	19.53          	0.185
MS.263         	19.493         	0.081
MS.264         	19.452         	0.056
MS.265         	19.415         	0.06
MS.266         	19.375         	0.169
MS.267         	19.337         	0.081
MS.268         	19.297         	0.073
MS.269         	19.26          	0.054
MS.270         	19.22          	0.062
MS.271         	19.182         	0.058
MS.272         	19.145         	0.056
MS.273         	19.105         	0.058
MS.274         	19.067         	0.064
MS.275         	19.03          	0.064
MS.276         	18.993         	0.062
MS.277         	18.952         	0.062
MS.278         	18.915         	0.056
MS.279         	18.877         	0.062
MS.280         	18.84          	0.058
MS.281         	18.802         	0.064
MS.282         	18.765         	0.052
MS.283         	18.727         	0.058
MS.284         	18.69          	0.054
MS.285         	18.653         	0.062
MS.286         	18.615         	0.056
MS.287         	18.577         	0.056
MS.288         	18.54          	0.062
MS.289         	18.505         	0.058
MS.290         	18.467         	0.062
MS.291         	18.43          	0.06
MS.292         	18.392         	-0.022
MS.293         	18.358         	0.06
MS.294         	18.32          	0.064
MS.295         	18.282         	0.056
MS.296         	18.247         	0.062
MS.297         	18.21          	-0.024
MS.298         	18.175         	0.058
MS.299         	18.137         	0.056
MS.300         	18.102         	0.066
MS.301         	18.065         	0.06
MS.302         	18.03          	0.062
MS.303         	17.993         	0.06
MS.304         	17.958         	-0.018
MS.305         	17.922         	0.062
MS.306         	17.885         	0.066
MS.307         	17.85          	0.066
MS.308         	17.815         	-0.022
MS.309         	17.778         	0.062
MS.310         	17.743         	0.062
MS.311         	17.708         	-0.02
MS.312         	17.672         	-0.02
MS.313         	17.637         	-0.018
MS.314         	17.602         	-0.02
MS.315         	17.567         	-0.02
MS.316         	17.532         	-0.02
MS.317         	17.497         	-0.016
MS.318         	17.462         	0.07
MS.319         	17.427         	-0.016
MS.320         	17.392         	-0.02
MS.321         	17.358         	-0.018
MS.322         	17.323         	-0.02
MS.323         	17.288         	-0.016
MS.324         	17.253         	-0.016
MS.325         	17.217         	-0.018
MS.326         	17.185         	-0.014
MS.327         	17.15          	-0.018
MS.328         	17.115         	-0.012
MS.329         	17.083         	-0.014
MS.330         	17.047         	-0.014
MS.331         	17.012         	-0.014
MS.332         	16.98          	-0.012
MS.333         	16.945         	-0.012
MS.334         	16.913         	-0.014
MS.335         	16.878         	-0.014
MS.336         	16.845         	-0.014
MS.337         	16.81          	-0.008
MS.338         	16.778         	-0.016
MS.339         	16.743         	-0.01
MS.340         	16.71          	-0.014
MS.341         	16.677         	-0.01
MS.342         	16.642         	-0.008
MS.343         	16.61          	-0.012
MS.344         	16.577         	-0.012
MS.345         	16.542         	-0.006
MS.346         	16.51          	-0.014
MS.347         	16.477         	-0.008
MS.348         	16.445         	-0.012
MS.349         	16.413         	-0.006
MS.350         	16.38          	-0.008
MS.351         	16.345         	-0.008
MS.352         	16.312         	-0.01
MS.353         	16.28          	-0.01
MS.354         	16.247         	-0.008
MS.355         	16.215         	-0.008
MS.356         	16.182         	-0.006
MS.357         	16.15          	-0.008
MS.358         	16.12          	-0.008
MS.359         	16.087         	-0.006
MS.360         	16.055         	-0.008
MS.361         	16.022         	-0.008
MS.362         	15.99          	-0.012
MS.363         	15.957         	-0.006
MS.364         	15.927         	-0.006
MS.365         	15.895         	-0.006
MS.366         	15.862         	-0.004
MS.367         	15.832         	-0.004
MS.368         	15.8           	-0.006
MS.369         	15.767         	-0.006
MS.370         	15.737         	-0.008
MS.371         	15.705         	-0.006
MS.372         	15.672         	-0.006
MS.373         	15.642         	-0.006
MS.374         	15.61          	-0.008
MS.375         	15.58          	-0.008
MS.376         	15.55          	-0.008
MS.377         	15.517         	-0.006
MS.378         	15.487         	-0.008
MS.379         	15.455         	-0.01
MS.380         	15.425         	-0.004
MS.381         	15.395         	-0.008
MS.382         	15.362         	0.000
MS.383         	15.332         	0.000
MS.384         	15.302         	-0.004
MS.385         	15.273         	0.000
MS.386         	15.24          	-0.002
MS.387         	15.21          	-0.004
MS.388         	15.18          	-0.01
MS.389         	15.15          	-0.002
MS.390         	15.12          	0.000
MS.391         	15.09          	-0.002
MS.392         	15.06          	-0.006
MS.393         	15.03          	-0.002
DERIVED EXCITABILITY VARIABLES
Program = QTracP 3/4/2020
Threshold method = 6 (optimised for CAP, using data for present condition only)
SR method = 1 (using actual data values)
6.                 	0.000               	Peak response\(mV)
17.                	35                  	Age (years)
18.                	1                   	Sex (M=1, F=2)

EXTRA VARIABLES

MScPeak(mV) = 9.19
MScS5(mA) = 20.87
MScS50(mA) = 25.71
MScS95(mA) = 30.43
MScNSteps = 3
MScSteps(%) = 8
MScStepMax(%) = 3
MScD50 = 42
MScSlope = 6.07
MSFPeakAmp(mV) = 9.25
MSFNUnits = 73
MSFMeanUnitAmp(uV) = 126.7
MSFHuntTime(m) = 1.55
MSFError(%) = 9.2
MSFNLarge = 21.53
MSFMedianAmp(%) = 1.15
MSFMedianAmp(mV) = 0.106
MSFHalfAmpAmp(%) = 1.6
MSFHalfAmpAmp(mV) = 0.148
MSFLargestAmp(%) = 5.93
MSFLargestAmp(mV) = 0.549
MSFMeanRS(%) = 2
MSFOpts = 10106121
MScDuration(min) = 3.5
MSFTraces = 320
MSFSizeLimit(uV) = 25.3
MSFLimitType = 3
MSFSmallestAmp(uV) = 26

EXTRA WAVEFORMS


!MScan Model
!73
	1	17.7	0.28	2
	2	18.74	0.5	2
	3	19.52	0.62	2
	4	19.77	0.68	2
	5	20.33	0.93	2
	6	20.47	0.48	2
	7	20.6	0.95	2
	8	20.71	0.36	2
	9	21.14	2.57	2
	10	21.25	0.74	2
	11	21.34	0.78	2
	12	21.43	1.02	2
	13	21.5	0.93	2
	14	21.57	1.02	2
	15	21.74	1.67	2
	16	22.11	2.05	2
	17	22.33	1.4	2
	18	22.48	1.09	2
	19	22.6	0.99	2
	20	22.72	1.15	2
	21	22.93	1.34	2
	22	23.16	1.51	2
	23	23.31	0.73	2
	24	23.38	0.75	2
	25	23.48	1.07	2
	26	23.58	0.87	2
	27	23.65	0.61	2
	28	23.73	0.68	2
	29	23.8	0.74	2
	30	23.89	0.91	2
	31	24.05	1.22	2
	32	24.2	1.42	2
	33	24.35	1.81	2
	34	24.44	1.11	2
	35	24.54	1.7	2
	36	24.62	1.6	2
	37	24.71	1.25	2
	38	24.8	1.21	2
	39	25.06	5.93	2
	40	25.45	1.15	2.2
	41	25.57	2.26	2
	42	25.65	0.69	1.6
	43	25.73	0.7	2
	44	25.81	1.2	2
	45	25.91	1.69	2
	46	26.04	1.62	2
	47	26.16	1.37	2
	48	26.28	2.13	2
	49	26.44	2.11	2
	50	26.75	3.01	2
	51	26.95	2.25	2
	52	27.06	0.83	2
	53	27.25	3.02	2
	54	27.46	1.26	2
	55	27.6	3.69	2
	56	27.8	1.69	2
	57	27.97	1.98	2
	58	28.08	1.13	2
	59	28.18	0.95	2
	60	28.31	1.79	2
	61	28.45	1.33	2
	62	28.77	1.44	2
	63	29.1	1.6	2
	64	29.8	2.98	2
	65	30.15	1.49	2
	66	30.35	1.6	2
	67	30.47	0.95	2
	68	30.59	1.13	2
	69	30.7	1.1	2
	70	30.81	1.12	2
	71	30.93	0.85	2
	72	31.03	0.75	2
	73	31.14	0.44	2

