File:              	C:\Qtrac\Data\Daniel M Sørensen\MScan multicentre study\Data from centres\Roskilde\Folders with NC-examinations\ROS_N6b\MBC00429B.QZD
Name:              	DK.ROS.NC.6.2
Protocol:          	MSCAN-R2
Date:              	29/4/20
Start time:        	14:54:40
Age:               	72
Sex:               	F
Temperature:       	38.8
S/R sites:         	Ulnar Wr-ADM
NC/disease:        	NC
Operator:          	MB
Comments:
M-SCAN DATA (9.2-1.3m)
Scanpts: 99, 102, 767, 795
Stim. (mA)     	Amp. (mV)
MS.1           	16.5           	8.953
MS.2           	16.5           	8.963
MS.3           	16.5           	8.963
MS.4           	16.5           	8.985
MS.5           	16.5           	8.983
MS.6           	16.5           	8.975
MS.7           	16.5           	8.971
MS.8           	16.5           	8.955
MS.9           	16.5           	8.997
MS.10          	16.5           	8.999
MS.11          	16.5           	8.967
MS.12          	16.5           	8.975
MS.13          	16.5           	8.979
MS.14          	16.5           	9.001
MS.15          	16.5           	9.001
MS.16          	16.5           	9.001
MS.17          	16.5           	8.987
MS.18          	16.5           	8.991
MS.19          	16.5           	9.005
MS.20          	16.5           	9.005
MS.21          	16.5           	9.001
MS.22          	16.5           	9.009
MS.23          	16.5           	9.019
MS.24          	16.435         	9.011
MS.25          	16.4           	9.013
MS.26          	16.368         	9.031
MS.27          	16.335         	9.031
MS.28          	16.302         	9.023
MS.29          	16.27          	9.031
MS.30          	16.237         	9.017
MS.31          	16.205         	9.029
MS.32          	16.172         	9.031
MS.33          	16.14          	9.025
MS.34          	16.108         	9.04
MS.35          	16.077         	9.042
MS.36          	16.045         	9.034
MS.37          	16.012         	9.042
MS.38          	15.98          	9.034
MS.39          	15.947         	9.062
MS.40          	15.917         	9.036
MS.41          	15.885         	9.038
MS.42          	15.852         	9.031
MS.43          	15.822         	9.068
MS.44          	15.79          	9.029
MS.45          	15.757         	9.054
MS.46          	15.727         	9.058
MS.47          	15.695         	9.04
MS.48          	15.665         	9.056
MS.49          	15.632         	9.066
MS.50          	15.602         	9.056
MS.51          	15.57          	9.052
MS.52          	15.54          	9.066
MS.53          	15.507         	9.07
MS.54          	15.477         	9.052
MS.55          	15.445         	9.058
MS.56          	15.415         	9.062
MS.57          	15.385         	9.058
MS.58          	15.352         	9.064
MS.59          	15.322         	9.06
MS.60          	15.292         	9.058
MS.61          	15.262         	9.072
MS.62          	15.233         	9.06
MS.63          	15.2           	9.05
MS.64          	15.17          	9.07
MS.65          	15.14          	9.048
MS.66          	15.11          	9.062
MS.67          	15.08          	9.088
MS.68          	15.05          	9.062
MS.69          	15.02          	9.072
MS.70          	14.99          	9.062
MS.71          	14.96          	9.086
MS.72          	14.93          	9.066
MS.73          	14.9           	9.07
MS.74          	14.87          	9.07
MS.75          	14.84          	9.082
MS.76          	14.81          	9.096
MS.77          	14.78          	9.096
MS.78          	14.752         	9.048
MS.79          	14.722         	9.102
MS.80          	14.693         	9.072
MS.81          	14.662         	9.084
MS.82          	14.635         	9.08
MS.83          	14.605         	9.108
MS.84          	14.575         	9.09
MS.85          	14.547         	9.062
MS.86          	14.517         	9.072
MS.87          	14.487         	9.056
MS.88          	14.46          	9.066
MS.89          	14.43          	9.074
MS.90          	14.403         	9.082
MS.91          	14.372         	9.07
MS.92          	14.345         	9.068
MS.93          	14.315         	9.082
MS.94          	14.287         	9.08
MS.95          	14.257         	9.08
MS.96          	14.23          	9.1
MS.97          	14.202         	9.096
MS.98          	14.172         	9.1
MS.99          	14.145         	9.076
MS.100         	14.117         	9.098
MS.101         	14.087         	9.098
MS.102         	14.06          	9.09
MS.103         	14.032         	9.084
MS.104         	14.005         	9.084
MS.105         	13.975         	9.054
MS.106         	13.947         	9.08
MS.107         	13.92          	9.092
MS.108         	13.892         	9.09
MS.109         	13.865         	9.108
MS.110         	13.837         	9.106
MS.111         	13.81          	9.031
MS.112         	13.782         	9.056
MS.113         	13.755         	9.088
MS.114         	13.727         	8.993
MS.115         	13.7           	9.104
MS.116         	13.672         	9.112
MS.117         	13.645         	9.011
MS.118         	13.617         	9.124
MS.119         	13.59          	9.023
MS.120         	13.562         	9.112
MS.121         	13.535         	9.048
MS.122         	13.51          	9.003
MS.123         	13.483         	9.034
MS.124         	13.455         	9.046
MS.125         	13.427         	9.082
MS.126         	13.403         	8.965
MS.127         	13.375         	9.12
MS.128         	13.347         	9.015
MS.129         	13.32          	9.06
MS.130         	13.295         	8.822
MS.131         	13.267         	8.627
MS.132         	13.242         	8.969
MS.133         	13.215         	8.802
MS.134         	13.188         	8.752
MS.135         	13.162         	8.536
MS.136         	13.135         	8.816
MS.137         	13.11          	8.683
MS.138         	13.082         	8.747
MS.139         	13.057         	8.677
MS.140         	13.032         	8.437
MS.141         	13.005         	8.78
MS.142         	12.98          	8.478
MS.143         	12.952         	8.51
MS.144         	12.927         	8.476
MS.145         	12.903         	8.518
MS.146         	12.875         	8.486
MS.147         	12.85          	8.522
MS.148         	12.825         	8.691
MS.149         	12.8           	8.464
MS.150         	12.773         	8.421
MS.151         	12.747         	8.478
MS.152         	12.722         	8.484
MS.153         	12.697         	8.5
MS.154         	12.672         	8.423
MS.155         	12.645         	8.383
MS.156         	12.62          	8.466
MS.157         	12.595         	8.341
MS.158         	12.57          	8.419
MS.159         	12.545         	8.256
MS.160         	12.52          	8.286
MS.161         	12.495         	8.258
MS.162         	12.47          	8.335
MS.163         	12.445         	8.379
MS.164         	12.42          	8.304
MS.165         	12.395         	8.367
MS.166         	12.37          	8.27
MS.167         	12.347         	8.32
MS.168         	12.322         	8.234
MS.169         	12.297         	8.264
MS.170         	12.273         	8.272
MS.171         	12.247         	8.31
MS.172         	12.222         	8.256
MS.173         	12.2           	8.282
MS.174         	12.175         	8.252
MS.175         	12.15          	8.292
MS.176         	12.125         	8.208
MS.177         	12.102         	8.226
MS.178         	12.077         	8.167
MS.179         	12.052         	8.236
MS.180         	12.03          	8.222
MS.181         	12.005         	8.139
MS.182         	11.983         	8.214
MS.183         	11.957         	8.171
MS.184         	11.932         	8.125
MS.185         	11.91          	8.135
MS.186         	11.885         	8.121
MS.187         	11.863         	8.103
MS.188         	11.837         	8.216
MS.189         	11.815         	8.111
MS.190         	11.79          	8.109
MS.191         	11.767         	8.155
MS.192         	11.745         	8.055
MS.193         	11.72          	8.047
MS.194         	11.697         	8.053
MS.195         	11.675         	8.087
MS.196         	11.65          	8.085
MS.197         	11.627         	8.063
MS.198         	11.605         	7.948
MS.199         	11.58          	8.016
MS.200         	11.557         	7.934
MS.201         	11.535         	7.984
MS.202         	11.512         	7.896
MS.203         	11.488         	7.92
MS.204         	11.465         	7.849
MS.205         	11.443         	7.93
MS.206         	11.42          	7.803
MS.207         	11.398         	7.817
MS.208         	11.375         	7.728
MS.209         	11.352         	7.622
MS.210         	11.33          	7.716
MS.211         	11.307         	7.69
MS.212         	11.282         	7.781
MS.213         	11.26          	7.644
MS.214         	11.238         	7.664
MS.215         	11.215         	7.609
MS.216         	11.195         	7.591
MS.217         	11.172         	7.597
MS.218         	11.15          	7.654
MS.219         	11.127         	7.529
MS.220         	11.105         	7.529
MS.221         	11.082         	7.394
MS.222         	11.06          	7.336
MS.223         	11.037         	7.418
MS.224         	11.015         	7.414
MS.225         	10.995         	7.569
MS.226         	10.972         	7.39
MS.227         	10.95          	7.43
MS.228         	10.927         	7.309
MS.229         	10.907         	7.444
MS.230         	10.885         	7.354
MS.231         	10.863         	7.424
MS.232         	10.84          	7.251
MS.233         	10.82          	7.346
MS.234         	10.797         	7.291
MS.235         	10.778         	7.182
MS.236         	10.755         	7.283
MS.237         	10.733         	7.279
MS.238         	10.712         	7.334
MS.239         	10.69          	7.219
MS.240         	10.67          	7.356
MS.241         	10.648         	7.064
MS.242         	10.627         	7.027
MS.243         	10.605         	7.209
MS.244         	10.585         	7.279
MS.245         	10.562         	6.979
MS.246         	10.542         	7.253
MS.247         	10.52          	6.878
MS.248         	10.5           	6.999
MS.249         	10.48          	7.054
MS.250         	10.457         	6.868
MS.251         	10.438         	6.88
MS.252         	10.415         	6.701
MS.253         	10.395         	6.725
MS.254         	10.375         	6.751
MS.255         	10.355         	6.88
MS.256         	10.332         	6.629
MS.257         	10.312         	6.707
MS.258         	10.292         	6.506
MS.259         	10.273         	6.713
MS.260         	10.25          	6.484
MS.261         	10.23          	6.576
MS.262         	10.21          	6.469
MS.263         	10.19          	6.492
MS.264         	10.17          	6.506
MS.265         	10.15          	6.383
MS.266         	10.127         	6.355
MS.267         	10.108         	6.463
MS.268         	10.087         	6.351
MS.269         	10.068         	6.264
MS.270         	10.047         	6.423
MS.271         	10.028         	6.042
MS.272         	10.007         	6.32
MS.273         	9.988          	6.308
MS.274         	9.967          	6.292
MS.275         	9.948          	6.242
MS.276         	9.927          	6.272
MS.277         	9.907          	6.198
MS.278         	9.887          	6.171
MS.279         	9.867          	6.159
MS.280         	9.85           	6.006
MS.281         	9.83           	6.232
MS.282         	9.81           	6.216
MS.283         	9.79           	5.825
MS.284         	9.77           	6.107
MS.285         	9.75           	6.143
MS.286         	9.733          	5.75
MS.287         	9.712          	5.765
MS.288         	9.693          	5.97
MS.289         	9.672          	6.131
MS.290         	9.655          	5.986
MS.291         	9.635          	5.736
MS.292         	9.615          	5.613
MS.293         	9.595          	5.781
MS.294         	9.577          	5.76
MS.295         	9.557          	5.829
MS.296         	9.537          	5.676
MS.297         	9.52           	5.684
MS.298         	9.5            	5.517
MS.299         	9.483          	5.505
MS.300         	9.462          	5.559
MS.301         	9.445          	5.448
MS.302         	9.425          	5.557
MS.303         	9.405          	5.483
MS.304         	9.387          	5.686
MS.305         	9.367          	5.428
MS.306         	9.35           	5.46
MS.307         	9.33           	5.462
MS.308         	9.312          	5.507
MS.309         	9.295          	5.233
MS.310         	9.275          	5.483
MS.311         	9.257          	5.338
MS.312         	9.238          	5.418
MS.313         	9.22           	5.346
MS.314         	9.202          	5.299
MS.315         	9.182          	5.342
MS.316         	9.165          	5.172
MS.317         	9.148          	5.37
MS.318         	9.127          	5.257
MS.319         	9.11           	5.344
MS.320         	9.092          	5.188
MS.321         	9.073          	5.231
MS.322         	9.055          	4.931
MS.323         	9.037          	5.112
MS.324         	9.02           	4.975
MS.325         	9              	5.094
MS.326         	8.983          	5.023
MS.327         	8.965          	5.132
MS.328         	8.948          	4.826
MS.329         	8.93           	5.243
MS.330         	8.912          	4.933
MS.331         	8.895          	4.876
MS.332         	8.875          	4.741
MS.333         	8.858          	4.645
MS.334         	8.84           	4.737
MS.335         	8.823          	4.677
MS.336         	8.805          	4.568
MS.337         	8.787          	4.683
MS.338         	8.77           	4.681
MS.339         	8.752          	4.651
MS.340         	8.735          	4.51
MS.341         	8.717          	4.439
MS.342         	8.7            	4.586
MS.343         	8.682          	4.165
MS.344         	8.665          	4.363
MS.345         	8.648          	4.411
MS.346         	8.63           	4.2
MS.347         	8.613          	4.276
MS.348         	8.597          	4.038
MS.349         	8.58           	4.25
MS.350         	8.562          	3.984
MS.351         	8.545          	4.165
MS.352         	8.528          	4.042
MS.353         	8.51           	3.982
MS.354         	8.495          	4.044
MS.355         	8.477          	3.855
MS.356         	8.46           	3.827
MS.357         	8.443          	3.684
MS.358         	8.427          	3.978
MS.359         	8.41           	3.464
MS.360         	8.392          	3.416
MS.361         	8.375          	3.333
MS.362         	8.36           	3.454
MS.363         	8.342          	3.267
MS.364         	8.325          	3.501
MS.365         	8.31           	3.051
MS.366         	8.292          	3.487
MS.367         	8.275          	3.335
MS.368         	8.26           	3.305
MS.369         	8.242          	3.217
MS.370         	8.227          	3.126
MS.371         	8.21           	2.971
MS.372         	8.193          	2.776
MS.373         	8.177          	3.297
MS.374         	8.16           	2.747
MS.375         	8.145          	2.701
MS.376         	8.127          	2.673
MS.377         	8.113          	2.802
MS.378         	8.095          	2.661
MS.379         	8.08           	2.594
MS.380         	8.062          	2.679
MS.381         	8.047          	2.796
MS.382         	8.033          	2.614
MS.383         	8.015          	2.542
MS.384         	8              	2.574
MS.385         	7.982          	2.586
MS.386         	7.967          	2.465
MS.387         	7.952          	2.445
MS.388         	7.935          	2.254
MS.389         	7.92           	2.423
MS.390         	7.905          	2.393
MS.391         	7.887          	2.179
MS.392         	7.872          	2.437
MS.393         	7.857          	2.085
MS.394         	7.84           	2.298
MS.395         	7.825          	2.113
MS.396         	7.81           	2.262
MS.397         	7.795          	1.851
MS.398         	7.777          	2.107
MS.399         	7.762          	1.926
MS.400         	7.747          	1.893
MS.401         	7.732          	2.187
MS.402         	7.717          	1.716
MS.403         	7.7            	1.887
MS.404         	7.685          	1.642
MS.405         	7.67           	1.887
MS.406         	7.655          	1.668
MS.407         	7.64           	1.684
MS.408         	7.625          	1.482
MS.409         	7.61           	1.76
MS.410         	7.595          	1.456
MS.411         	7.58           	1.762
MS.412         	7.562          	1.291
MS.413         	7.547          	1.319
MS.414         	7.532          	1.319
MS.415         	7.517          	1.327
MS.416         	7.503          	1.211
MS.417         	7.487          	1.031
MS.418         	7.472          	1.184
MS.419         	7.457          	1.023
MS.420         	7.442          	1.112
MS.421         	7.427          	1.088
MS.422         	7.415          	1.231
MS.423         	7.4            	0.977
MS.424         	7.385          	0.939
MS.425         	7.37           	0.9
MS.426         	7.355          	1.07
MS.427         	7.34           	1.14
MS.428         	7.325          	0.916
MS.429         	7.31           	0.777
MS.430         	7.295          	0.804
MS.431         	7.282          	0.779
MS.432         	7.267          	0.757
MS.433         	7.253          	0.979
MS.434         	7.237          	0.866
MS.435         	7.222          	0.729
MS.436         	7.21           	0.862
MS.437         	7.195          	0.773
MS.438         	7.18           	0.524
MS.439         	7.165          	0.781
MS.440         	7.152          	0.693
MS.441         	7.137          	0.612
MS.442         	7.122          	0.532
MS.443         	7.11           	0.653
MS.444         	7.095          	0.514
MS.445         	7.08           	0.493
MS.446         	7.067          	0.51
MS.447         	7.052          	0.352
MS.448         	7.037          	0.407
MS.449         	7.025          	0.298
MS.450         	7.01           	0.298
MS.451         	6.995          	0.354
MS.452         	6.983          	0.427
MS.453         	6.967          	0.417
MS.454         	6.955          	0.302
MS.455         	6.94           	0.334
MS.456         	6.927          	0.328
MS.457         	6.912          	0.296
MS.458         	6.9            	0.29
MS.459         	6.885          	0.304
MS.460         	6.872          	0.308
MS.461         	6.858          	0.296
MS.462         	6.845          	0.264
MS.463         	6.83           	0.203
MS.464         	6.817          	0.207
MS.465         	6.802          	0.274
MS.466         	6.79           	0.266
MS.467         	6.775          	0.197
MS.468         	6.762          	0.199
MS.469         	6.747          	0.201
MS.470         	6.735          	0.199
MS.471         	6.722          	0.189
MS.472         	6.707          	0.264
MS.473         	6.695          	0.201
MS.474         	6.682          	0.201
MS.475         	6.668          	0.183
MS.476         	6.655          	0.209
MS.477         	6.642          	0.185
MS.478         	6.628          	0.216
MS.479         	6.615          	0.187
MS.480         	6.602          	0.211
MS.481         	6.587          	0.218
MS.482         	6.575          	0.187
MS.483         	6.562          	0.175
MS.484         	6.55           	0.179
MS.485         	6.535          	0.185
MS.486         	6.523          	0.214
MS.487         	6.51           	0.175
MS.488         	6.497          	0.181
MS.489         	6.485          	0.189
MS.490         	6.47           	0.197
MS.491         	6.457          	0.203
MS.492         	6.445          	0.207
MS.493         	6.432          	0.171
MS.494         	6.42           	0.179
MS.495         	6.407          	0.181
MS.496         	6.395          	0.167
MS.497         	6.38           	0.193
MS.498         	6.367          	0.181
MS.499         	6.355          	0.117
MS.500         	6.342          	0.107
