File:              	C:\Qtrac\Data\Daniel M Sørensen\MScan multicentre study\Data from centres\Roskilde\Folders with NC-examinations\ROS_N6a\MBC00420B.QZD
Name:              	DK.ROS.NC.6.1
Protocol:          	MSCAN-R2
Date:              	20/4/20
Start time:        	13:26:52
Age:               	72
Sex:               	f
Temperature:       	36.4
S/R sites:         	Ulnar Wr-ADM
NC/disease:        	NC
Operator:          	MB
Comments:
M-SCAN DATA (10-1.3m)
Scanpts: 29, 40, 776, 815
Stim. (mA)     	Amp. (mV)
MS.1           	22.5           	8.766
MS.2           	22.5           	8.762
MS.3           	22.5           	8.778
MS.4           	22.5           	8.766
MS.5           	22.5           	8.758
MS.6           	22.5           	8.784
MS.7           	22.5           	8.754
MS.8           	22.5           	8.792
MS.9           	22.5           	8.784
MS.10          	22.5           	8.792
MS.11          	22.5           	8.8
MS.12          	22.5           	8.82
MS.13          	22.5           	8.808
MS.14          	22.5           	8.796
MS.15          	22.5           	8.802
MS.16          	22.5           	8.804
MS.17          	22.5           	8.802
MS.18          	22.5           	8.796
MS.19          	22.5           	8.812
MS.20          	22.5           	8.79
MS.21          	22.5           	8.754
MS.22          	22.5           	8.788
MS.23          	22.5           	8.822
MS.24          	22.41          	8.772
MS.25          	22.365         	8.764
MS.26          	22.32          	8.798
MS.27          	22.275         	8.776
MS.28          	22.233         	8.786
MS.29          	22.188         	8.786
MS.30          	22.142         	8.796
MS.31          	22.097         	8.786
MS.32          	22.055         	8.782
MS.33          	22.01          	8.794
MS.34          	21.967         	8.804
MS.35          	21.922         	8.802
MS.36          	21.877         	8.784
MS.37          	21.835         	8.806
MS.38          	21.792         	8.794
MS.39          	21.747         	8.782
MS.40          	21.705         	8.79
MS.41          	21.66          	8.786
MS.42          	21.618         	8.798
MS.43          	21.575         	8.782
MS.44          	21.532         	8.78
MS.45          	21.487         	8.782
MS.46          	21.445         	8.782
MS.47          	21.403         	8.786
MS.48          	21.36          	8.77
MS.49          	21.317         	8.782
MS.50          	21.275         	8.78
MS.51          	21.233         	8.78
MS.52          	21.19          	8.776
MS.53          	21.147         	8.778
MS.54          	21.105         	8.77
MS.55          	21.062         	8.78
MS.56          	21.02          	8.784
MS.57          	20.98          	8.774
MS.58          	20.938         	8.776
MS.59          	20.895         	8.77
MS.60          	20.852         	8.75
MS.61          	20.812         	8.747
MS.62          	20.77          	8.77
MS.63          	20.727         	8.752
MS.64          	20.688         	8.745
MS.65          	20.645         	8.729
MS.66          	20.605         	8.721
MS.67          	20.562         	8.719
MS.68          	20.522         	8.699
MS.69          	20.483         	8.739
MS.70          	20.44          	8.758
MS.71          	20.4           	8.721
MS.72          	20.36          	8.737
MS.73          	20.317         	8.754
MS.74          	20.278         	8.739
MS.75          	20.237         	8.727
MS.76          	20.198         	8.741
MS.77          	20.155         	8.719
MS.78          	20.115         	8.721
MS.79          	20.075         	8.705
MS.80          	20.035         	8.721
MS.81          	19.995         	8.685
MS.82          	19.955         	8.721
MS.83          	19.915         	8.699
MS.84          	19.875         	8.689
MS.85          	19.837         	8.719
MS.86          	19.797         	8.639
MS.87          	19.757         	8.671
MS.88          	19.717         	8.631
MS.89          	19.677         	8.695
MS.90          	19.64          	8.667
MS.91          	19.6           	8.645
MS.92          	19.56          	8.627
MS.93          	19.522         	8.602
MS.94          	19.483         	8.607
MS.95          	19.442         	8.643
MS.96          	19.405         	8.564
MS.97          	19.365         	8.639
MS.98          	19.327         	8.55
MS.99          	19.288         	8.586
MS.100         	19.25          	8.528
MS.101         	19.212         	8.596
MS.102         	19.172         	8.627
MS.103         	19.135         	8.604
MS.104         	19.097         	8.592
MS.105         	19.057         	8.558
MS.106         	19.02          	8.596
MS.107         	18.983         	8.56
MS.108         	18.945         	8.582
MS.109         	18.907         	8.552
MS.110         	18.87          	8.532
MS.111         	18.83          	8.6
MS.112         	18.792         	8.574
MS.113         	18.755         	8.522
MS.114         	18.717         	8.566
MS.115         	18.68          	8.512
MS.116         	18.645         	8.59
MS.117         	18.608         	8.536
MS.118         	18.57          	8.524
MS.119         	18.532         	8.474
MS.120         	18.495         	8.588
MS.121         	18.458         	8.514
MS.122         	18.422         	8.607
MS.123         	18.385         	8.51
MS.124         	18.347         	8.522
MS.125         	18.31          	8.542
MS.126         	18.275         	8.461
MS.127         	18.237         	8.474
MS.128         	18.202         	8.453
MS.129         	18.165         	8.449
MS.130         	18.13          	8.409
MS.131         	18.092         	8.472
MS.132         	18.057         	8.474
MS.133         	18.02          	8.498
MS.134         	17.985         	8.468
MS.135         	17.948         	8.443
MS.136         	17.913         	8.48
MS.137         	17.878         	8.361
MS.138         	17.84          	8.371
MS.139         	17.805         	8.329
MS.140         	17.77          	8.359
MS.141         	17.735         	8.353
MS.142         	17.7           	8.395
MS.143         	17.663         	8.258
MS.144         	17.628         	8.403
MS.145         	17.592         	8.329
MS.146         	17.557         	8.341
MS.147         	17.522         	8.343
MS.148         	17.487         	8.276
MS.149         	17.452         	8.294
MS.150         	17.417         	8.276
MS.151         	17.382         	8.264
MS.152         	17.347         	8.29
MS.153         	17.315         	8.323
MS.154         	17.28          	8.214
MS.155         	17.245         	8.288
MS.156         	17.21          	8.077
MS.157         	17.175         	8.266
MS.158         	17.142         	8.258
MS.159         	17.108         	8.02
MS.160         	17.073         	8.081
MS.161         	17.04          	8.089
MS.162         	17.005         	8.224
MS.163         	16.97          	8.119
MS.164         	16.938         	8.097
MS.165         	16.903         	8.041
MS.166         	16.87          	7.984
MS.167         	16.835         	7.99
MS.168         	16.802         	7.99
MS.169         	16.767         	8.043
MS.170         	16.735         	7.976
MS.171         	16.702         	7.896
MS.172         	16.667         	7.811
MS.173         	16.635         	7.851
MS.174         	16.602         	7.789
MS.175         	16.567         	7.616
MS.176         	16.535         	7.869
MS.177         	16.503         	7.561
MS.178         	16.47          	7.746
MS.179         	16.438         	7.471
MS.180         	16.405         	7.567
MS.181         	16.37          	7.563
MS.182         	16.337         	7.597
MS.183         	16.305         	7.424
MS.184         	16.272         	7.577
MS.185         	16.24          	7.416
MS.186         	16.208         	7.328
MS.187         	16.175         	7.384
MS.188         	16.142         	7.412
MS.189         	16.11          	7.464
MS.190         	16.08          	7.378
MS.191         	16.047         	7.406
MS.192         	16.015         	7.307
MS.193         	15.983         	7.305
MS.194         	15.95          	7.315
MS.195         	15.92          	7.275
MS.196         	15.887         	7.207
MS.197         	15.855         	7.062
MS.198         	15.822         	7.187
MS.199         	15.792         	7.182
MS.200         	15.76          	7.271
MS.201         	15.73          	7.098
MS.202         	15.697         	6.901
MS.203         	15.667         	6.975
MS.204         	15.635         	6.88
MS.205         	15.602         	6.711
MS.206         	15.572         	6.82
MS.207         	15.542         	6.892
MS.208         	15.51          	6.683
MS.209         	15.48          	6.796
MS.210         	15.447         	6.639
MS.211         	15.417         	6.739
MS.212         	15.387         	6.576
MS.213         	15.355         	6.623
MS.214         	15.325         	6.584
MS.215         	15.295         	6.602
MS.216         	15.265         	6.731
MS.217         	15.233         	6.562
MS.218         	15.202         	6.554
MS.219         	15.172         	6.532
MS.220         	15.142         	6.496
MS.221         	15.112         	6.443
MS.222         	15.082         	6.459
MS.223         	15.052         	6.578
MS.224         	15.023         	6.488
MS.225         	14.992         	6.457
MS.226         	14.962         	6.413
MS.227         	14.932         	6.49
MS.228         	14.902         	6.371
MS.229         	14.872         	6.359
MS.230         	14.842         	6.48
MS.231         	14.812         	6.359
MS.232         	14.782         	6.484
MS.233         	14.755         	6.304
MS.234         	14.725         	6.409
MS.235         	14.695         	6.369
MS.236         	14.665         	6.312
MS.237         	14.637         	6.407
MS.238         	14.608         	6.139
MS.239         	14.577         	6.292
MS.240         	14.55          	6.276
MS.241         	14.52          	6.202
MS.242         	14.49          	6.262
MS.243         	14.462         	6.149
MS.244         	14.432         	6.262
MS.245         	14.405         	6.085
MS.246         	14.375         	6.049
MS.247         	14.347         	6.161
MS.248         	14.318         	6.044
MS.249         	14.29          	5.833
MS.250         	14.26          	6.006
MS.251         	14.233         	5.867
MS.252         	14.205         	5.851
MS.253         	14.175         	5.954
MS.254         	14.148         	5.932
MS.255         	14.12          	5.632
MS.256         	14.09          	5.893
MS.257         	14.062         	5.559
MS.258         	14.035         	5.696
MS.259         	14.007         	5.543
MS.260         	13.977         	5.521
MS.261         	13.95          	5.474
MS.262         	13.922         	5.638
MS.263         	13.895         	5.229
MS.264         	13.867         	5.481
MS.265         	13.84          	5.45
MS.266         	13.812         	5.448
MS.267         	13.785         	5.378
MS.268         	13.757         	5.493
MS.269         	13.73          	5.392
MS.270         	13.702         	5.317
MS.271         	13.675         	5.193
MS.272         	13.648         	5.164
MS.273         	13.62          	5.136
MS.274         	13.592         	5.07
MS.275         	13.565         	5.237
MS.276         	13.537         	5.138
MS.277         	13.51          	5.289
MS.278         	13.485         	5.1
MS.279         	13.457         	4.79
MS.280         	13.43          	4.937
MS.281         	13.403         	4.653
MS.282         	13.377         	4.876
MS.283         	13.35          	4.816
MS.284         	13.322         	4.935
MS.285         	13.297         	4.671
MS.286         	13.27          	4.703
MS.287         	13.242         	4.679
MS.288         	13.217         	4.536
MS.289         	13.19          	4.498
MS.290         	13.165         	4.419
MS.291         	13.137         	4.54
MS.292         	13.112         	4.528
MS.293         	13.085         	4.524
MS.294         	13.06          	4.435
MS.295         	13.032         	4.306
MS.296         	13.007         	4.441
MS.297         	12.983         	4.32
MS.298         	12.955         	4.218
MS.299         	12.93          	4.046
MS.300         	12.903         	4.139
MS.301         	12.877         	4.099
MS.302         	12.852         	4.151
MS.303         	12.827         	4.161
MS.304         	12.8           	4.147
MS.305         	12.775         	4.187
MS.306         	12.75          	3.841
MS.307         	12.725         	4.087
MS.308         	12.7           	3.885
MS.309         	12.672         	3.93
MS.310         	12.648         	3.722
MS.311         	12.622         	3.746
MS.312         	12.597         	3.74
MS.313         	12.572         	3.67
MS.314         	12.547         	3.565
MS.315         	12.523         	3.491
MS.316         	12.497         	3.507
MS.317         	12.472         	3.339
MS.318         	12.447         	3.593
MS.319         	12.422         	3.317
MS.320         	12.398         	3.392
MS.321         	12.372         	3.339
MS.322         	12.347         	3.221
MS.323         	12.322         	3.36
MS.324         	12.3           	3.11
MS.325         	12.275         	3.239
MS.326         	12.25          	3.184
MS.327         	12.225         	3.142
MS.328         	12.2           	3.039
MS.329         	12.177         	2.808
MS.330         	12.153         	2.993
MS.331         	12.127         	2.979
MS.332         	12.102         	3.14
MS.333         	12.08          	3.031
MS.334         	12.055         	2.846
MS.335         	12.032         	2.598
MS.336         	12.007         	2.536
MS.337         	11.983         	2.735
MS.338         	11.96          	2.788
MS.339         	11.935         	2.6
MS.340         	11.912         	2.538
MS.341         	11.887         	2.55
MS.342         	11.865         	2.516
MS.343         	11.84          	2.5
MS.344         	11.818         	2.616
MS.345         	11.792         	2.232
MS.346         	11.77          	2.421
MS.347         	11.745         	2.302
MS.348         	11.722         	2.411
MS.349         	11.7           	2.234
MS.350         	11.675         	2.369
MS.351         	11.653         	2.276
MS.352         	11.63          	2.117
MS.353         	11.605         	2.169
MS.354         	11.582         	2.139
MS.355         	11.56          	2.067
MS.356         	11.537         	2.071
MS.357         	11.512         	2.195
MS.358         	11.49          	2.135
MS.359         	11.467         	2.002
MS.360         	11.445         	1.926
MS.361         	11.422         	2.016
MS.362         	11.4           	2.065
MS.363         	11.375         	2.062
MS.364         	11.352         	1.948
MS.365         	11.33          	1.915
MS.366         	11.307         	2.026
MS.367         	11.285         	1.843
MS.368         	11.262         	1.823
MS.369         	11.24          	1.915
MS.370         	11.217         	1.728
MS.371         	11.195         	1.865
MS.372         	11.172         	1.817
MS.373         	11.15          	1.726
MS.374         	11.127         	1.736
MS.375         	11.108         	1.617
MS.376         	11.085         	1.704
MS.377         	11.062         	1.569
MS.378         	11.04          	1.706
MS.379         	11.017         	1.64
MS.380         	10.995         	1.65
MS.381         	10.975         	1.676
MS.382         	10.952         	1.599
MS.383         	10.93          	1.529
MS.384         	10.907         	1.658
MS.385         	10.887         	1.615
MS.386         	10.865         	1.571
MS.387         	10.842         	1.517
MS.388         	10.82          	1.539
MS.389         	10.8           	1.402
MS.390         	10.778         	1.549
MS.391         	10.757         	1.561
MS.392         	10.735         	1.543
MS.393         	10.712         	1.416
MS.394         	10.693         	1.438
MS.395         	10.67          	1.327
MS.396         	10.65          	1.247
MS.397         	10.627         	1.305
MS.398         	10.608         	1.202
MS.399         	10.585         	1.19
MS.400         	10.565         	1.283
MS.401         	10.542         	1.136
MS.402         	10.523         	1.15
MS.403         	10.502         	0.963
MS.404         	10.48          	1.074
MS.405         	10.46          	1.068
MS.406         	10.438         	0.937
MS.407         	10.417         	0.981
MS.408         	10.398         	0.898
MS.409         	10.375         	0.987
MS.410         	10.355         	0.961
MS.411         	10.335         	0.947
MS.412         	10.315         	0.951
MS.413         	10.292         	1.162
MS.414         	10.273         	0.872
MS.415         	10.252         	0.937
MS.416         	10.233         	0.975
MS.417         	10.212         	0.874
MS.418         	10.19          	1.013
MS.419         	10.17          	0.848
MS.420         	10.15          	0.848
MS.421         	10.13          	0.951
MS.422         	10.11          	0.937
MS.423         	10.09          	0.874
MS.424         	10.07          	0.8
MS.425         	10.05          	0.858
MS.426         	10.03          	0.747
MS.427         	10.01          	0.896
MS.428         	9.99           	0.927
MS.429         	9.97           	0.924
MS.430         	9.95           	0.91
MS.431         	9.93           	0.794
MS.432         	9.91           	0.812
MS.433         	9.89           	0.866
MS.434         	9.87           	0.788
MS.435         	9.85           	0.761
MS.436         	9.83           	0.725
MS.437         	9.81           	0.767
MS.438         	9.792          	0.796
MS.439         	9.773          	0.759
MS.440         	9.752          	0.775
MS.441         	9.733          	0.749
MS.442         	9.712          	0.737
MS.443         	9.695          	0.806
MS.444         	9.675          	0.753
MS.445         	9.655          	0.804
MS.446         	9.635          	0.775
MS.447         	9.617          	0.737
MS.448         	9.597          	0.759
MS.449         	9.577          	0.747
MS.450         	9.56           	0.771
MS.451         	9.54           	0.747
MS.452         	9.52           	0.681
MS.453         	9.502          	0.727
MS.454         	9.483          	0.735
MS.455         	9.465          	0.54
MS.456         	9.445          	0.673
MS.457         	9.427          	0.59
MS.458         	9.407          	0.626
MS.459         	9.387          	0.614
MS.460         	9.37           	0.574
MS.461         	9.352          	0.554
MS.462         	9.332          	0.512
MS.463         	9.315          	0.528
MS.464         	9.295          	0.431
MS.465         	9.278          	0.497
MS.466         	9.257          	0.451
MS.467         	9.24           	0.465
MS.468         	9.222          	0.516
MS.469         	9.202          	0.457
MS.470         	9.185          	0.425
MS.471         	9.165          	0.445
MS.472         	9.148          	0.441
MS.473         	9.13           	0.401
MS.474         	9.113          	0.514
MS.475         	9.092          	0.427
MS.476         	9.075          	0.439
MS.477         	9.057          	0.427
MS.478         	9.037          	0.419
MS.479         	9.02           	0.417
MS.480         	9.002          	0.397
MS.481         	8.985          	0.427
MS.482         	8.967          	0.342
MS.483         	8.948          	0.395
MS.484         	8.93           	0.373
MS.485         	8.912          	0.399
MS.486         	8.895          	0.419
MS.487         	8.877          	0.417
MS.488         	8.86           	0.389
MS.489         	8.842          	0.352
MS.490         	8.825          	0.365
MS.491         	8.807          	0.367
MS.492         	8.79           	0.387
MS.493         	8.773          	0.354
MS.494         	8.755          	0.365
MS.495         	8.738          	0.336
MS.496         	8.72           	0.371
MS.497         	8.702          	0.361
MS.498         	8.685          	0.332
MS.499         	8.667          	0.338
MS.500         	8.65           	0.32
