File:              	C:\Qtrac\Data\Daniel M Sørensen\MScan multicentre study\Data from centres\Roskilde\Folders with NC-examinations\ROS_N1a\MBC00226C.QZD
Name:              	DK.ROS.NC.1.1
Protocol:          	MSCAN-R2
Date:              	26/2/20
Start time:        	15:17:38
Age:               	62
Sex:               	f
Temperature:       	35.0
S/R sites:         	Ulnar Wr-ADM
NC/disease:        	NC
Operator:          	MB
Comments:
M-SCAN DATA (10.2-1.6m)
Scanpts: 62, 72, 847, 875
Stim. (mA)     	Amp. (mV)
MS.1           	29.5           	9.191
MS.2           	29.5           	9.181
MS.3           	29.5           	9.164
MS.4           	29.5           	9.164
MS.5           	29.5           	9.16
MS.6           	29.5           	9.13
MS.7           	29.5           	9.142
MS.8           	29.5           	9.17
MS.9           	29.5           	9.15
MS.10          	29.5           	9.177
MS.11          	29.5           	9.156
MS.12          	29.5           	9.162
MS.13          	29.5           	9.146
MS.14          	29.5           	9.122
MS.15          	29.5           	9.16
MS.16          	29.5           	9.16
MS.17          	29.5           	9.152
MS.18          	29.5           	9.148
MS.19          	29.5           	9.136
MS.20          	29.5           	9.154
MS.21          	29.5           	9.142
MS.22          	29.5           	9.134
MS.23          	29.5           	9.124
MS.24          	29.382         	9.124
MS.25          	29.323         	9.122
MS.26          	29.265         	9.122
MS.27          	29.207         	9.122
MS.28          	29.147         	9.102
MS.29          	29.09          	9.13
MS.30          	29.032         	9.132
MS.31          	28.972         	9.138
MS.32          	28.915         	9.15
MS.33          	28.858         	9.134
MS.34          	28.8           	9.118
MS.35          	28.743         	9.156
MS.36          	28.685         	9.12
MS.37          	28.627         	9.142
MS.38          	28.57          	9.174
MS.39          	28.512         	9.162
MS.40          	28.457         	9.14
MS.41          	28.4           	9.16
MS.42          	28.342         	9.16
MS.43          	28.287         	9.16
MS.44          	28.23          	9.138
MS.45          	28.172         	9.146
MS.46          	28.118         	9.162
MS.47          	28.06          	9.16
MS.48          	28.005         	9.168
MS.49          	27.95          	9.164
MS.50          	27.892         	9.15
MS.51          	27.837         	9.191
MS.52          	27.782         	9.164
MS.53          	27.727         	9.146
MS.54          	27.67          	9.152
MS.55          	27.615         	9.156
MS.56          	27.56          	9.168
MS.57          	27.505         	9.16
MS.58          	27.45          	9.172
MS.59          	27.395         	9.154
MS.60          	27.34          	9.181
MS.61          	27.287         	9.189
MS.62          	27.233         	9.195
MS.63          	27.177         	9.168
MS.64          	27.122         	9.195
MS.65          	27.07          	9.146
MS.66          	27.015         	9.166
MS.67          	26.96          	9.172
MS.68          	26.907         	9.142
MS.69          	26.852         	9.177
MS.70          	26.8           	9.158
MS.71          	26.745         	9.156
MS.72          	26.692         	9.179
MS.73          	26.64          	9.16
MS.74          	26.585         	9.154
MS.75          	26.532         	9.15
MS.76          	26.48          	9.17
MS.77          	26.427         	9.201
MS.78          	26.375         	9.174
MS.79          	26.323         	9.187
MS.80          	26.27          	9.191
MS.81          	26.217         	9.138
MS.82          	26.165         	9.156
MS.83          	26.112         	9.172
MS.84          	26.06          	9.16
MS.85          	26.007         	9.15
MS.86          	25.955         	9.172
MS.87          	25.903         	9.138
MS.88          	25.852         	9.14
MS.89          	25.8           	9.154
MS.90          	25.75          	9.152
MS.91          	25.698         	9.16
MS.92          	25.645         	9.132
MS.93          	25.595         	9.15
MS.94          	25.542         	9.15
MS.95          	25.493         	9.17
MS.96          	25.442         	9.162
MS.97          	25.39          	9.146
MS.98          	25.34          	9.158
MS.99          	25.29          	9.13
MS.100         	25.24          	9.13
MS.101         	25.188         	9.134
MS.102         	25.137         	9.126
MS.103         	25.087         	9.112
MS.104         	25.038         	9.12
MS.105         	24.987         	9.106
MS.106         	24.938         	9.14
MS.107         	24.887         	9.154
MS.108         	24.837         	9.124
MS.109         	24.788         	9.148
MS.110         	24.74          	9.136
MS.111         	24.69          	9.146
MS.112         	24.64          	9.14
MS.113         	24.59          	9.164
MS.114         	24.542         	9.164
MS.115         	24.493         	9.187
MS.116         	24.445         	9.154
MS.117         	24.395         	9.14
MS.118         	24.347         	9.146
MS.119         	24.297         	9.14
MS.120         	24.25          	9.126
MS.121         	24.2           	9.148
MS.122         	24.153         	9.148
MS.123         	24.105         	9.132
MS.124         	24.055         	9.156
MS.125         	24.007         	9.162
MS.126         	23.96          	9.148
MS.127         	23.913         	9.156
MS.128         	23.865         	9.13
MS.129         	23.817         	9.102
MS.130         	23.77          	9.152
MS.131         	23.722         	9.144
MS.132         	23.675         	9.14
MS.133         	23.627         	9.134
MS.134         	23.58          	9.16
MS.135         	23.532         	9.148
MS.136         	23.485         	9.15
MS.137         	23.438         	9.17
MS.138         	23.392         	9.181
MS.139         	23.345         	9.177
MS.140         	23.297         	9.187
MS.141         	23.252         	9.203
MS.142         	23.205         	9.166
MS.143         	23.16          	9.168
MS.144         	23.112         	9.156
MS.145         	23.067         	9.181
MS.146         	23.02          	9.154
MS.147         	22.975         	9.162
MS.148         	22.927         	9.162
MS.149         	22.882         	9.168
MS.150         	22.837         	9.152
MS.151         	22.792         	9.152
MS.152         	22.745         	9.146
MS.153         	22.7           	9.12
MS.154         	22.655         	9.116
MS.155         	22.61          	9.144
MS.156         	22.565         	9.09
MS.157         	22.52          	9.1
MS.158         	22.475         	9.12
MS.159         	22.43          	9.052
MS.160         	22.385         	9.082
MS.161         	22.34          	9.048
MS.162         	22.295         	9.027
MS.163         	22.25          	9.08
MS.164         	22.207         	9.058
MS.165         	22.163         	9.086
MS.166         	22.118         	9.078
MS.167         	22.073         	9.062
MS.168         	22.03          	9.082
MS.169         	21.985         	9.07
MS.170         	21.942         	9.068
MS.171         	21.897         	9.044
MS.172         	21.855         	9.046
MS.173         	21.81          	9.07
MS.174         	21.767         	9.074
MS.175         	21.722         	9.07
MS.176         	21.68          	9.06
MS.177         	21.637         	9.044
MS.178         	21.592         	9.054
MS.179         	21.55          	9.054
MS.180         	21.507         	9.04
MS.181         	21.465         	9.06
MS.182         	21.422         	9.036
MS.183         	21.377         	9.074
MS.184         	21.335         	9.044
MS.185         	21.292         	9.06
MS.186         	21.25          	9.08
MS.187         	21.208         	9.046
MS.188         	21.165         	9.082
MS.189         	21.122         	9.048
MS.190         	21.083         	9.06
MS.191         	21.04          	9.062
MS.192         	20.997         	9.072
MS.193         	20.955         	9.072
MS.194         	20.913         	9.058
MS.195         	20.872         	9.078
MS.196         	20.83          	9.064
MS.197         	20.788         	9.058
MS.198         	20.747         	9.066
MS.199         	20.705         	9.07
MS.200         	20.665         	9.06
MS.201         	20.622         	9.056
MS.202         	20.583         	9.038
MS.203         	20.54          	9.052
MS.204         	20.5           	9.04
MS.205         	20.458         	9.036
MS.206         	20.417         	9.056
MS.207         	20.377         	9.064
MS.208         	20.335         	9.06
MS.209         	20.295         	9.058
MS.210         	20.255         	9.05
MS.211         	20.215         	9.046
MS.212         	20.175         	9.021
MS.213         	20.132         	9.021
MS.214         	20.092         	9.013
MS.215         	20.052         	9.013
MS.216         	20.012         	9.013
MS.217         	19.972         	9.017
MS.218         	19.932         	9.019
MS.219         	19.892         	9.025
MS.220         	19.852         	9.003
MS.221         	19.815         	9.025
MS.222         	19.775         	9.007
MS.223         	19.735         	8.979
MS.224         	19.695         	9.038
MS.225         	19.655         	9.005
MS.226         	19.618         	8.995
MS.227         	19.577         	9.003
MS.228         	19.538         	8.989
MS.229         	19.5           	9.017
MS.230         	19.46          	8.973
MS.231         	19.422         	9.003
MS.232         	19.382         	9.005
MS.233         	19.345         	8.995
MS.234         	19.305         	9.017
MS.235         	19.267         	9.003
MS.236         	19.227         	8.987
MS.237         	19.19          	8.987
MS.238         	19.153         	8.993
MS.239         	19.112         	9.015
MS.240         	19.075         	9.027
MS.241         	19.038         	9.013
MS.242         	19             	9.021
MS.243         	18.96          	9.005
MS.244         	18.922         	9.011
MS.245         	18.885         	9.019
MS.246         	18.847         	8.981
MS.247         	18.81          	9.001
MS.248         	18.772         	8.987
MS.249         	18.735         	9.007
MS.250         	18.698         	9.011
MS.251         	18.66          	9.023
MS.252         	18.622         	9.027
MS.253         	18.585         	9.003
MS.254         	18.547         	9.007
MS.255         	18.512         	9.021
MS.256         	18.475         	9.017
MS.257         	18.438         	9.013
MS.258         	18.4           	9.003
MS.259         	18.365         	9.007
MS.260         	18.327         	9.007
MS.261         	18.29          	9.005
MS.262         	18.255         	9.011
MS.263         	18.217         	8.995
MS.264         	18.18          	8.993
MS.265         	18.145         	9.062
MS.266         	18.108         	8.995
MS.267         	18.073         	9.003
MS.268         	18.038         	8.997
MS.269         	18             	9.003
MS.270         	17.965         	9.009
MS.271         	17.927         	8.985
MS.272         	17.892         	8.969
MS.273         	17.858         	9.005
MS.274         	17.82          	8.941
MS.275         	17.785         	8.937
MS.276         	17.75          	8.917
MS.277         	17.715         	8.923
MS.278         	17.68          	8.907
MS.279         	17.645         	8.909
MS.280         	17.608         	8.925
MS.281         	17.573         	8.891
MS.282         	17.538         	8.897
MS.283         	17.503         	8.893
MS.284         	17.467         	8.921
MS.285         	17.432         	8.937
MS.286         	17.397         	8.907
MS.287         	17.365         	8.931
MS.288         	17.33          	8.919
MS.289         	17.295         	8.913
MS.290         	17.26          	8.882
MS.291         	17.225         	8.897
MS.292         	17.19          	8.903
MS.293         	17.157         	8.917
MS.294         	17.122         	8.923
MS.295         	17.087         	8.876
MS.296         	17.055         	8.856
MS.297         	17.02          	8.866
MS.298         	16.985         	8.878
MS.299         	16.952         	8.85
MS.300         	16.917         	8.882
MS.301         	16.885         	8.872
MS.302         	16.85          	8.888
MS.303         	16.817         	8.888
MS.304         	16.782         	8.868
MS.305         	16.75          	8.856
MS.306         	16.717         	8.824
MS.307         	16.682         	8.868
MS.308         	16.65          	8.834
MS.309         	16.618         	8.836
MS.310         	16.583         	8.834
MS.311         	16.55          	8.832
MS.312         	16.517         	8.826
MS.313         	16.485         	8.856
MS.314         	16.45          	8.812
MS.315         	16.417         	8.796
MS.316         	16.385         	8.814
MS.317         	16.352         	8.711
MS.318         	16.32          	8.778
MS.319         	16.288         	8.768
MS.320         	16.255         	8.739
MS.321         	16.222         	8.737
MS.322         	16.19          	8.741
MS.323         	16.157         	8.669
MS.324         	16.125         	8.745
MS.325         	16.092         	8.617
MS.326         	16.06          	8.584
MS.327         	16.03          	8.602
MS.328         	15.997         	8.558
MS.329         	15.965         	8.625
MS.330         	15.932         	8.542
MS.331         	15.9           	8.538
MS.332         	15.87          	8.578
MS.333         	15.837         	8.494
MS.334         	15.805         	8.556
MS.335         	15.775         	8.47
MS.336         	15.742         	8.429
MS.337         	15.712         	8.464
MS.338         	15.68          	8.474
MS.339         	15.648         	8.48
MS.340         	15.617         	8.403
MS.341         	15.585         	8.377
MS.342         	15.555         	8.395
MS.343         	15.525         	8.429
MS.344         	15.492         	8.419
MS.345         	15.462         	8.381
MS.346         	15.43          	8.318
MS.347         	15.4           	8.306
MS.348         	15.37          	8.276
MS.349         	15.34          	8.369
MS.350         	15.307         	8.226
MS.351         	15.277         	8.302
MS.352         	15.247         	8.262
MS.353         	15.217         	8.308
MS.354         	15.185         	8.196
MS.355         	15.155         	8.22
MS.356         	15.125         	8.2
MS.357         	15.095         	8.24
MS.358         	15.065         	8.264
MS.359         	15.035         	8.184
MS.360         	15.005         	8.173
MS.361         	14.975         	8.208
MS.362         	14.945         	8.182
MS.363         	14.915         	8.175
MS.364         	14.885         	8.184
MS.365         	14.855         	8.133
MS.366         	14.825         	8.111
MS.367         	14.797         	8.171
MS.368         	14.767         	8.125
MS.369         	14.737         	8.131
MS.370         	14.707         	8.111
MS.371         	14.677         	8.139
MS.372         	14.65          	8.127
MS.373         	14.62          	8.163
MS.374         	14.59          	8.111
MS.375         	14.562         	8.085
MS.376         	14.532         	8.097
MS.377         	14.502         	8.155
MS.378         	14.475         	8.135
MS.379         	14.445         	8.127
MS.380         	14.417         	8.131
MS.381         	14.387         	8.153
MS.382         	14.36          	8.111
MS.383         	14.33          	8.085
MS.384         	14.302         	8.123
MS.385         	14.273         	8.049
MS.386         	14.245         	8.026
MS.387         	14.217         	8.067
MS.388         	14.188         	8.141
MS.389         	14.16          	8.135
MS.390         	14.13          	7.992
MS.391         	14.102         	8.073
MS.392         	14.075         	8.071
MS.393         	14.047         	8.036
MS.394         	14.017         	8.002
MS.395         	13.99          	7.944
MS.396         	13.962         	7.988
MS.397         	13.935         	7.952
MS.398         	13.907         	7.976
MS.399         	13.88          	8.081
MS.400         	13.852         	7.9
MS.401         	13.822         	7.964
MS.402         	13.795         	7.902
MS.403         	13.767         	7.863
MS.404         	13.74          	7.932
MS.405         	13.712         	7.877
MS.406         	13.685         	7.906
MS.407         	13.66          	7.867
MS.408         	13.632         	7.843
MS.409         	13.605         	7.98
MS.410         	13.577         	7.857
MS.411         	13.55          	7.855
MS.412         	13.523         	7.9
MS.413         	13.495         	7.853
MS.414         	13.47          	7.841
MS.415         	13.443         	7.845
MS.416         	13.415         	7.883
MS.417         	13.387         	7.855
MS.418         	13.362         	7.839
MS.419         	13.335         	7.839
MS.420         	13.307         	7.718
MS.421         	13.282         	7.799
MS.422         	13.255         	7.801
MS.423         	13.227         	7.781
MS.424         	13.202         	7.773
MS.425         	13.175         	7.686
MS.426         	13.15          	7.827
MS.427         	13.122         	7.746
MS.428         	13.097         	7.759
MS.429         	13.07          	7.656
MS.430         	13.045         	7.746
MS.431         	13.017         	7.686
MS.432         	12.992         	7.656
MS.433         	12.967         	7.722
MS.434         	12.94          	7.557
MS.435         	12.915         	7.597
MS.436         	12.89          	7.65
MS.437         	12.862         	7.654
MS.438         	12.837         	7.646
MS.439         	12.812         	7.591
MS.440         	12.787         	7.557
MS.441         	12.76          	7.605
MS.442         	12.735         	7.622
MS.443         	12.71          	7.632
MS.444         	12.685         	7.517
MS.445         	12.66          	7.509
MS.446         	12.635         	7.533
MS.447         	12.608         	7.489
MS.448         	12.582         	7.537
MS.449         	12.557         	7.436
MS.450         	12.532         	7.416
MS.451         	12.507         	7.475
MS.452         	12.483         	7.452
MS.453         	12.457         	7.336
MS.454         	12.432         	7.382
MS.455         	12.407         	7.44
MS.456         	12.385         	7.313
MS.457         	12.36          	7.342
MS.458         	12.335         	7.33
MS.459         	12.31          	7.402
MS.460         	12.285         	7.352
MS.461         	12.26          	7.283
MS.462         	12.235         	7.396
MS.463         	12.212         	7.438
MS.464         	12.188         	7.378
MS.465         	12.162         	7.356
MS.466         	12.137         	7.293
MS.467         	12.115         	7.362
MS.468         	12.09          	7.346
MS.469         	12.065         	7.33
MS.470         	12.042         	7.281
MS.471         	12.017         	7.275
MS.472         	11.995         	7.243
MS.473         	11.97          	7.146
MS.474         	11.945         	7.13
MS.475         	11.922         	7.199
MS.476         	11.898         	7.128
MS.477         	11.875         	7.197
MS.478         	11.85          	7.142
MS.479         	11.827         	7.08
MS.480         	11.802         	7.021
MS.481         	11.78          	6.907
MS.482         	11.757         	6.931
MS.483         	11.733         	7.18
MS.484         	11.71          	6.955
MS.485         	11.685         	6.971
MS.486         	11.662         	7.14
MS.487         	11.64          	6.911
MS.488         	11.615         	6.784
MS.489         	11.592         	6.894
MS.490         	11.57          	6.745
MS.491         	11.547         	6.778
MS.492         	11.523         	6.786
MS.493         	11.5           	6.955
MS.494         	11.477         	6.655
MS.495         	11.455         	6.665
MS.496         	11.432         	6.528
MS.497         	11.41          	6.58
MS.498         	11.385         	6.486
MS.499         	11.363         	6.474
MS.500         	11.34          	6.449
MS.501         	11.318         	6.482
