File:              	C:\Qtrac\Data\Daniel M Sørensen\MScan multicentre study\Data from centres\Roskilde\Folders with NC-examinations\ROS_N7b\MBC00505B.QZD
Name:              	DK.ROS.NC.7.2
Protocol:          	MSCAN-R2
Date:              	5/5/20
Start time:        	13:46:10
Age:               	66
Sex:               	m
Temperature:       	34.6
S/R sites:         	Ulnar Wr-ADM
NC/disease:        	NC
Operator:          	MB
Comments:
M-SCAN DATA (10.6-2.7m)
Scanpts: 8, 20, 652, 664
Stim. (mA)     	Amp. (mV)
MS.1           	37.5           	6.536
MS.2           	37.5           	6.455
MS.3           	37.5           	6.363
MS.4           	37.5           	6.469
MS.5           	37.5           	6.474
MS.6           	37.5           	6.453
MS.7           	37.5           	6.449
MS.8           	37.5           	6.552
MS.9           	37.5           	6.453
MS.10          	37.5           	6.441
MS.11          	37.5           	6.449
MS.12          	37.5           	6.401
MS.13          	37.5           	6.359
MS.14          	37.5           	6.306
MS.15          	37.5           	6.449
MS.16          	37.5           	6.512
MS.17          	37.5           	6.447
MS.18          	37.5           	6.316
MS.19          	37.5           	6.451
MS.20          	37.5           	6.453
MS.21          	37.5           	6.459
MS.22          	37.5           	6.498
MS.23          	37.5           	6.449
MS.24          	37.35          	6.333
MS.25          	37.275         	6.474
MS.26          	37.2           	6.294
MS.27          	37.127         	6.369
MS.28          	37.052         	6.137
MS.29          	36.978         	6.308
MS.30          	36.905         	6.328
MS.31          	36.83          	6.302
MS.32          	36.757         	6.451
MS.33          	36.685         	6.373
MS.34          	36.61          	6.316
MS.35          	36.537         	6.359
MS.36          	36.465         	6.322
MS.37          	36.392         	6.095
MS.38          	36.32          	6.143
MS.39          	36.247         	6.087
MS.40          	36.175         	6.097
MS.41          	36.103         	6.073
MS.42          	36.03          	6.091
MS.43          	35.958         	6.083
MS.44          	35.885         	6.055
MS.45          	35.815         	6.059
MS.46          	35.743         	6.141
MS.47          	35.67          	6.053
MS.48          	35.6           	6.137
MS.49          	35.528         	6.059
MS.50          	35.458         	6.03
MS.51          	35.388         	6.061
MS.52          	35.315         	5.93
MS.53          	35.245         	6.093
MS.54          	35.175         	6.081
MS.55          	35.105         	6.147
MS.56          	35.035         	6.057
MS.57          	34.965         	6.051
MS.58          	34.895         	5.942
MS.59          	34.825         	5.942
MS.60          	34.755         	6.139
MS.61          	34.685         	5.885
MS.62          	34.618         	5.779
MS.63          	34.548         	6.083
MS.64          	34.478         	5.92
MS.65          	34.41          	5.881
MS.66          	34.34          	6.042
MS.67          	34.272         	5.91
MS.68          	34.205         	5.841
MS.69          	34.135         	6.034
MS.70          	34.068         	6.03
MS.71          	34             	5.912
MS.72          	33.93          	5.924
MS.73          	33.862         	5.924
MS.74          	33.795         	5.839
MS.75          	33.728         	5.938
MS.76          	33.66          	5.847
MS.77          	33.592         	5.835
MS.78          	33.528         	5.853
MS.79          	33.46          	5.845
MS.80          	33.392         	5.841
MS.81          	33.325         	5.96
MS.82          	33.26          	5.855
MS.83          	33.193         	5.871
MS.84          	33.127         	5.857
MS.85          	33.06          	5.71
MS.86          	32.995         	5.817
MS.87          	32.927         	5.851
MS.88          	32.862         	5.7
MS.89          	32.798         	5.738
MS.90          	32.732         	5.573
MS.91          	32.665         	5.664
MS.92          	32.6           	5.851
MS.93          	32.535         	5.547
MS.94          	32.47          	5.579
MS.95          	32.405         	5.571
MS.96          	32.34          	5.374
MS.97          	32.278         	5.551
MS.98          	32.212         	5.579
MS.99          	32.147         	5.605
MS.100         	32.083         	5.479
MS.101         	32.02          	5.408
MS.102         	31.955         	5.481
MS.103         	31.892         	5.46
MS.104         	31.827         	5.541
MS.105         	31.765         	5.273
MS.106         	31.7           	5.273
MS.107         	31.637         	5.372
MS.108         	31.575         	5.291
MS.109         	31.51          	5.253
MS.110         	31.448         	5.207
MS.111         	31.385         	5.283
MS.112         	31.323         	5.182
MS.113         	31.26          	5.168
MS.114         	31.198         	5.118
MS.115         	31.135         	5.257
MS.116         	31.073         	5.17
MS.117         	31.01          	5.062
MS.118         	30.95          	4.921
MS.119         	30.887         	4.935
MS.120         	30.825         	5.037
MS.121         	30.762         	5.13
MS.122         	30.702         	5.047
MS.123         	30.64          	4.9
MS.124         	30.58          	4.761
MS.125         	30.517         	4.848
MS.126         	30.457         	4.844
MS.127         	30.397         	4.52
MS.128         	30.335         	4.808
MS.129         	30.275         	4.546
MS.130         	30.215         	4.6
MS.131         	30.155         	4.5
MS.132         	30.095         	4.322
MS.133         	30.035         	4.659
MS.134         	29.975         	4.397
MS.135         	29.915         	4.689
MS.136         	29.855         	4.381
MS.137         	29.795         	4.437
MS.138         	29.735         	4.389
MS.139         	29.675         	4.349
MS.140         	29.617         	4.371
MS.141         	29.557         	4.332
MS.142         	29.497         	4.367
MS.143         	29.44          	4.296
MS.144         	29.38          	4.216
MS.145         	29.323         	4.25
MS.146         	29.262         	4.204
MS.147         	29.205         	4.302
MS.148         	29.147         	4.22
MS.149         	29.087         	4.101
MS.150         	29.03          	4.123
MS.151         	28.972         	4.03
MS.152         	28.915         	4.234
MS.153         	28.858         	4.163
MS.154         	28.8           	4.085
MS.155         	28.743         	4.016
MS.156         	28.685         	4.127
MS.157         	28.627         	3.942
MS.158         	28.57          	3.863
MS.159         	28.512         	3.861
MS.160         	28.455         	3.984
MS.161         	28.397         	3.881
MS.162         	28.342         	3.674
MS.163         	28.285         	3.895
MS.164         	28.227         	3.779
MS.165         	28.172         	3.702
MS.166         	28.115         	3.472
MS.167         	28.06          	3.619
MS.168         	28.002         	3.533
MS.169         	27.948         	3.474
MS.170         	27.892         	3.567
MS.171         	27.835         	3.422
MS.172         	27.78          	3.547
MS.173         	27.725         	3.354
MS.174         	27.67          	3.269
MS.175         	27.615         	3.376
MS.176         	27.56          	3.358
MS.177         	27.505         	3.136
MS.178         	27.45          	3.142
MS.179         	27.395         	3.333
MS.180         	27.34          	3.118
MS.181         	27.285         	3.029
MS.182         	27.23          	3.15
MS.183         	27.175         	3.168
MS.184         	27.122         	3.027
MS.185         	27.067         	3.009
MS.186         	27.012         	3.078
MS.187         	26.96          	3.011
MS.188         	26.905         	2.935
MS.189         	26.852         	2.85
MS.190         	26.797         	2.947
MS.191         	26.745         	2.985
MS.192         	26.692         	2.953
MS.193         	26.637         	2.862
MS.194         	26.585         	2.773
MS.195         	26.532         	2.719
MS.196         	26.477         	2.681
MS.197         	26.425         	2.796
MS.198         	26.372         	2.834
MS.199         	26.32          	2.717
MS.200         	26.267         	2.661
MS.201         	26.215         	2.757
MS.202         	26.162         	2.804
MS.203         	26.11          	2.683
MS.204         	26.057         	2.719
MS.205         	26.005         	2.58
MS.206         	25.955         	2.685
MS.207         	25.903         	2.5
MS.208         	25.85          	2.336
MS.209         	25.8           	2.451
MS.210         	25.747         	2.449
MS.211         	25.695         	2.667
MS.212         	25.645         	2.477
MS.213         	25.592         	2.471
MS.214         	25.542         	2.369
MS.215         	25.493         	2.371
MS.216         	25.44          	2.377
MS.217         	25.39          	2.455
MS.218         	25.34          	2.409
MS.219         	25.288         	2.433
MS.220         	25.237         	2.298
MS.221         	25.188         	2.24
MS.222         	25.137         	2.336
MS.223         	25.087         	2.34
MS.224         	25.038         	2.203
MS.225         	24.987         	2.159
MS.226         	24.938         	2.173
MS.227         	24.887         	2.189
MS.228         	24.837         	2.29
MS.229         	24.788         	2.33
MS.230         	24.737         	2.234
MS.231         	24.688         	1.962
MS.232         	24.64          	2.002
MS.233         	24.59          	1.982
MS.234         	24.54          	2.183
MS.235         	24.493         	2.129
MS.236         	24.442         	1.968
MS.237         	24.395         	1.958
MS.238         	24.345         	2.002
MS.239         	24.297         	1.899
MS.240         	24.247         	2.077
MS.241         	24.2           	1.867
MS.242         	24.153         	1.857
MS.243         	24.102         	1.837
MS.244         	24.055         	1.909
MS.245         	24.007         	1.905
MS.246         	23.96          	1.75
MS.247         	23.91          	1.724
MS.248         	23.862         	1.77
MS.249         	23.815         	1.728
MS.250         	23.767         	1.678
MS.251         	23.72          	1.756
MS.252         	23.672         	1.766
MS.253         	23.625         	1.672
MS.254         	23.577         	1.646
MS.255         	23.532         	1.738
MS.256         	23.485         	1.861
MS.257         	23.438         	1.77
MS.258         	23.39          	1.706
MS.259         	23.345         	1.627
MS.260         	23.297         	1.676
MS.261         	23.25          	1.523
MS.262         	23.205         	1.537
MS.263         	23.157         	1.571
MS.264         	23.112         	1.448
MS.265         	23.065         	1.738
MS.266         	23.02          	1.523
MS.267         	22.972         	1.565
MS.268         	22.927         	1.448
MS.269         	22.882         	1.766
MS.270         	22.835         	1.432
MS.271         	22.79          	1.4
MS.272         	22.745         	1.347
MS.273         	22.7           	1.529
MS.274         	22.655         	1.597
MS.275         	22.608         	1.484
MS.276         	22.562         	1.521
MS.277         	22.517         	1.307
MS.278         	22.472         	1.394
MS.279         	22.427         	1.414
MS.280         	22.385         	1.525
MS.281         	22.34          	1.424
MS.282         	22.295         	1.412
MS.283         	22.25          	1.349
MS.284         	22.205         	1.229
MS.285         	22.16          	1.392
MS.286         	22.118         	1.372
MS.287         	22.073         	1.352
MS.288         	22.028         	1.313
MS.289         	21.985         	1.309
MS.290         	21.94          	1.285
MS.291         	21.897         	1.321
MS.292         	21.852         	1.368
MS.293         	21.81          	1.293
MS.294         	21.765         	1.315
MS.295         	21.722         	1.245
MS.296         	21.68          	1.283
MS.297         	21.635         	1.317
MS.298         	21.592         	1.19
MS.299         	21.55          	1.275
MS.300         	21.505         	1.293
MS.301         	21.462         	1.196
MS.302         	21.42          	1.358
MS.303         	21.377         	1.229
MS.304         	21.335         	1.223
MS.305         	21.292         	1.229
MS.306         	21.25          	1.204
MS.307         	21.208         	1.208
MS.308         	21.165         	1.166
MS.309         	21.122         	1.213
MS.310         	21.08          	1.196
MS.311         	21.038         	1.116
MS.312         	20.995         	1.198
MS.313         	20.955         	1.215
MS.314         	20.913         	1.12
MS.315         	20.87          	1.09
MS.316         	20.83          	1.094
MS.317         	20.788         	1.112
MS.318         	20.745         	1.088
MS.319         	20.705         	1.007
MS.320         	20.663         	1.074
MS.321         	20.622         	1.005
MS.322         	20.58          	1.029
MS.323         	20.54          	1.049
MS.324         	20.497         	0.914
MS.325         	20.458         	0.882
MS.326         	20.417         	0.824
MS.327         	20.375         	0.971
MS.328         	20.335         	0.84
MS.329         	20.295         	0.876
MS.330         	20.252         	0.848
MS.331         	20.212         	0.818
MS.332         	20.172         	0.874
MS.333         	20.132         	0.751
MS.334         	20.092         	0.792
MS.335         	20.052         	0.753
MS.336         	20.012         	0.828
MS.337         	19.972         	0.794
MS.338         	19.932         	0.842
MS.339         	19.892         	0.82
MS.340         	19.852         	0.709
MS.341         	19.812         	0.703
MS.342         	19.772         	0.701
MS.343         	19.735         	0.699
MS.344         	19.695         	0.689
MS.345         	19.655         	0.586
MS.346         	19.615         	0.643
MS.347         	19.577         	0.634
MS.348         	19.538         	0.653
MS.349         	19.497         	0.685
MS.350         	19.46          	0.614
MS.351         	19.42          	0.524
MS.352         	19.382         	0.612
MS.353         	19.342         	0.661
MS.354         	19.305         	0.618
MS.355         	19.265         	0.576
MS.356         	19.227         	0.57
MS.357         	19.19          	0.622
MS.358         	19.15          	0.518
MS.359         	19.112         	0.59
MS.360         	19.075         	0.61
MS.361         	19.035         	0.56
MS.362         	18.997         	0.562
MS.363         	18.96          	0.606
MS.364         	18.922         	0.516
MS.365         	18.885         	0.582
MS.366         	18.847         	0.508
MS.367         	18.81          	0.544
MS.368         	18.772         	0.532
MS.369         	18.735         	0.514
MS.370         	18.698         	0.52
MS.371         	18.66          	0.502
MS.372         	18.622         	0.506
MS.373         	18.585         	0.502
MS.374         	18.547         	0.512
MS.375         	18.51          	0.54
MS.376         	18.472         	0.512
MS.377         	18.438         	0.51
MS.378         	18.4           	0.487
MS.379         	18.362         	0.497
MS.380         	18.327         	0.441
MS.381         	18.29          	0.463
MS.382         	18.253         	0.441
MS.383         	18.217         	0.403
MS.384         	18.18          	0.425
MS.385         	18.145         	0.415
MS.386         	18.108         	0.489
MS.387         	18.073         	0.429
MS.388         	18.035         	0.381
MS.389         	18             	0.385
MS.390         	17.962         	0.375
MS.391         	17.927         	0.425
MS.392         	17.892         	0.365
MS.393         	17.855         	0.379
MS.394         	17.82          	0.369
MS.395         	17.785         	0.342
MS.396         	17.75          	0.357
MS.397         	17.712         	0.34
MS.398         	17.677         	0.312
MS.399         	17.642         	0.33
MS.400         	17.608         	0.363
MS.401         	17.573         	0.361
MS.402         	17.538         	0.354
MS.403         	17.503         	0.352
MS.404         	17.467         	0.344
MS.405         	17.432         	0.346
MS.406         	17.397         	0.363
MS.407         	17.362         	0.316
MS.408         	17.327         	0.336
MS.409         	17.292         	0.304
MS.410         	17.26          	0.346
MS.411         	17.225         	0.306
MS.412         	17.19          	0.304
MS.413         	17.155         	0.282
MS.414         	17.122         	0.318
MS.415         	17.087         	0.308
MS.416         	17.052         	0.288
MS.417         	17.02          	0.23
MS.418         	16.985         	0.266
MS.419         	16.95          	0.306
MS.420         	16.917         	0.228
MS.421         	16.882         	0.266
MS.422         	16.85          	0.282
MS.423         	16.815         	0.22
MS.424         	16.782         	0.224
MS.425         	16.75          	0.201
MS.426         	16.715         	0.207
MS.427         	16.682         	0.203
MS.428         	16.65          	0.248
MS.429         	16.615         	0.226
MS.430         	16.583         	0.258
MS.431         	16.55          	0.211
MS.432         	16.515         	0.187
MS.433         	16.483         	0.201
MS.434         	16.45          	0.218
MS.435         	16.417         	0.222
MS.436         	16.385         	0.197
MS.437         	16.352         	0.211
MS.438         	16.32          	0.209
MS.439         	16.288         	0.214
MS.440         	16.255         	0.203
MS.441         	16.222         	0.226
MS.442         	16.19          	0.191
MS.443         	16.157         	0.197
MS.444         	16.125         	0.209
MS.445         	16.092         	0.201
MS.446         	16.06          	0.205
MS.447         	16.028         	0.195
MS.448         	15.995         	0.195
MS.449         	15.965         	0.201
MS.450         	15.932         	0.205
MS.451         	15.9           	0.157
MS.452         	15.867         	0.157
MS.453         	15.837         	0.157
MS.454         	15.805         	0.187
MS.455         	15.773         	0.149
MS.456         	15.742         	0.157
MS.457         	15.71          	0.209
MS.458         	15.68          	0.145
MS.459         	15.648         	0.167
MS.460         	15.617         	0.209
MS.461         	15.585         	0.177
MS.462         	15.555         	0.143
MS.463         	15.523         	0.165
MS.464         	15.492         	0.159
MS.465         	15.46          	0.155
MS.466         	15.43          	0.151
MS.467         	15.4           	0.163
MS.468         	15.37          	0.155
MS.469         	15.337         	0.151
MS.470         	15.307         	0.155
MS.471         	15.277         	0.145
MS.472         	15.247         	0.151
MS.473         	15.215         	0.155
MS.474         	15.185         	0.141
MS.475         	15.155         	0.149
MS.476         	15.125         	0.143
MS.477         	15.095         	0.167
MS.478         	15.065         	0.149
MS.479         	15.035         	0.159
MS.480         	15.005         	0.161
MS.481         	14.975         	0.147
MS.482         	14.945         	0.155
MS.483         	14.915         	0.155
MS.484         	14.885         	0.147
MS.485         	14.855         	0.159
MS.486         	14.825         	0.145
MS.487         	14.795         	0.153
MS.488         	14.765         	0.135
MS.489         	14.737         	0.149
MS.490         	14.707         	0.147
MS.491         	14.677         	0.147
MS.492         	14.648         	0.155
MS.493         	14.62          	0.153
MS.494         	14.59          	0.153
MS.495         	14.56          	0.149
MS.496         	14.532         	0.151
MS.497         	14.502         	0.157
MS.498         	14.475         	0.149
MS.499         	14.445         	0.159
MS.500         	14.415         	0.151
