File:              	C:\Qtrac\Data\Daniel M Sørensen\MScan multicentre study\Data from centres\Toronto\Processed data\MSCC01126B.QZD
Name:              	CA.TOR.NC.3.2
Protocol:          	MSCAN-R2
Date:              	26/11/20
Start time:        	12:35:15
Age:               	25
Sex:               	M
Temperature:       	31.9
S/R sites:         	ADM
NC/disease:        	NC
Operator:          	LP
Comments:          	MFF60ON
M-SCAN DATA (4.8-1.1m)
Scanpts: 13, 20, 387, 408
Stim. (mA)     	Amp. (mV)
MS.1           	17             	11.358
MS.2           	17             	11.376
MS.3           	17             	11.455
MS.4           	17             	11.295
MS.5           	17             	11.312
MS.6           	17             	11.303
MS.7           	17             	11.408
MS.8           	17             	11.297
MS.9           	17             	11.283
MS.10          	17             	11.463
MS.11          	17             	11.471
MS.12          	17             	11.378
MS.13          	17             	11.33
MS.14          	17             	11.33
MS.15          	17             	11.307
MS.16          	17             	11.374
MS.17          	17             	11.392
MS.18          	17             	11.301
MS.19          	17             	11.328
MS.20          	17             	11.384
MS.21          	17             	11.328
MS.22          	17             	11.368
MS.23          	17             	11.334
MS.24          	16.932         	11.312
MS.25          	16.897         	11.281
MS.26          	16.865         	11.374
MS.27          	16.83          	11.324
MS.28          	16.797         	11.287
MS.29          	16.762         	11.334
MS.30          	16.73          	11.312
MS.31          	16.698         	11.247
MS.32          	16.663         	11.295
MS.33          	16.63          	11.205
MS.34          	16.597         	11.187
MS.35          	16.562         	11.205
MS.36          	16.53          	11.209
MS.37          	16.497         	11.171
MS.38          	16.465         	11.197
MS.39          	16.432         	11.138
MS.40          	16.4           	11.148
MS.41          	16.365         	11.195
MS.42          	16.333         	11.076
MS.43          	16.3           	11.116
MS.44          	16.267         	11.052
MS.45          	16.235         	11.05
MS.46          	16.202         	11.088
MS.47          	16.17          	11.08
MS.48          	16.137         	11.058
MS.49          	16.108         	10.866
MS.50          	16.075         	11.054
MS.51          	16.042         	11.08
MS.52          	16.01          	10.818
MS.53          	15.977         	10.967
MS.54          	15.945         	10.844
MS.55          	15.915         	10.699
MS.56          	15.882         	10.927
MS.57          	15.85          	10.808
MS.58          	15.82          	10.546
MS.59          	15.787         	10.737
MS.60          	15.755         	10.55
MS.61          	15.725         	10.472
MS.62          	15.693         	10.343
MS.63          	15.662         	10.359
MS.64          	15.63          	10.29
MS.65          	15.6           	10.423
MS.66          	15.568         	10.198
MS.67          	15.537         	10.325
MS.68          	15.505         	10.276
MS.69          	15.475         	10.276
MS.70          	15.445         	10.282
MS.71          	15.412         	10.051
MS.72          	15.382         	10.165
MS.73          	15.352         	10.022
MS.74          	15.32          	9.998
MS.75          	15.29          	9.99
MS.76          	15.26          	9.898
MS.77          	15.23          	9.91
MS.78          	15.197         	9.807
MS.79          	15.167         	9.753
MS.80          	15.137         	9.553
MS.81          	15.108         	9.616
MS.82          	15.077         	9.535
MS.83          	15.047         	9.364
MS.84          	15.017         	9.62
MS.85          	14.987         	9.398
MS.86          	14.957         	9.285
MS.87          	14.927         	9.193
MS.88          	14.898         	9.305
MS.89          	14.867         	9.432
MS.90          	14.837         	9.001
MS.91          	14.807         	9.098
MS.92          	14.78          	9.328
MS.93          	14.75          	9.072
MS.94          	14.72          	8.955
MS.95          	14.69          	8.663
MS.96          	14.662         	8.739
MS.97          	14.632         	8.655
MS.98          	14.602         	8.645
MS.99          	14.572         	8.568
MS.100         	14.545         	8.429
MS.101         	14.515         	8.516
MS.102         	14.487         	8.564
MS.103         	14.457         	8.443
MS.104         	14.427         	8.268
MS.105         	14.4           	8.006
MS.106         	14.37          	8.012
MS.107         	14.342         	7.992
MS.108         	14.312         	7.994
MS.109         	14.285         	7.924
MS.110         	14.257         	7.883
MS.111         	14.227         	7.422
MS.112         	14.2           	7.43
MS.113         	14.17          	7.519
MS.114         	14.142         	7.654
MS.115         	14.115         	7.63
MS.116         	14.087         	7.386
MS.117         	14.057         	7.283
MS.118         	14.03          	6.955
MS.119         	14.002         	7.18
MS.120         	13.975         	7.225
MS.121         	13.945         	7.029
MS.122         	13.917         	6.731
MS.123         	13.89          	6.88
MS.124         	13.862         	6.51
MS.125         	13.835         	6.439
MS.126         	13.807         	6.749
MS.127         	13.78          	6.58
MS.128         	13.752         	6.534
MS.129         	13.725         	6.427
MS.130         	13.697         	6.238
MS.131         	13.67          	6.204
MS.132         	13.642         	6.21
MS.133         	13.615         	6.107
MS.134         	13.587         	5.758
MS.135         	13.56          	6.008
MS.136         	13.535         	6.057
MS.137         	13.507         	5.406
MS.138         	13.48          	5.438
MS.139         	13.452         	5.644
MS.140         	13.425         	5.666
MS.141         	13.4           	5.382
MS.142         	13.372         	5.414
MS.143         	13.345         	5.16
MS.144         	13.32          	4.802
MS.145         	13.292         	5.321
MS.146         	13.265         	5.273
MS.147         	13.24          	4.971
MS.148         	13.212         	4.673
MS.149         	13.188         	4.896
MS.150         	13.16          	4.627
MS.151         	13.135         	5.011
MS.152         	13.108         	4.614
MS.153         	13.082         	4.461
MS.154         	13.055         	4.272
MS.155         	13.03          	4.794
MS.156         	13.002         	4.399
MS.157         	12.977         	4.355
MS.158         	12.952         	4.784
MS.159         	12.925         	4.304
MS.160         	12.9           	4.336
MS.161         	12.875         	4.449
MS.162         	12.847         	4.359
MS.163         	12.822         	4.347
MS.164         	12.797         	4.087
MS.165         	12.773         	3.889
MS.166         	12.745         	4.447
MS.167         	12.72          	4.228
MS.168         	12.695         	4.075
MS.169         	12.67          	4.006
MS.170         	12.645         	3.95
MS.171         	12.62          	3.869
MS.172         	12.595         	3.932
MS.173         	12.568         	3.871
MS.174         	12.542         	3.738
MS.175         	12.517         	3.652
MS.176         	12.492         	3.646
MS.177         	12.467         	3.714
MS.178         	12.443         	3.591
MS.179         	12.42          	3.698
MS.180         	12.395         	3.575
MS.181         	12.37          	3.555
MS.182         	12.345         	3.694
MS.183         	12.32          	3.537
MS.184         	12.295         	3.664
MS.185         	12.27          	3.263
MS.186         	12.245         	3.066
MS.187         	12.222         	3.428
MS.188         	12.197         	3.432
MS.189         	12.172         	2.935
MS.190         	12.148         	3.084
MS.191         	12.125         	3.033
MS.192         	12.1           	3.18
MS.193         	12.075         	2.999
MS.194         	12.052         	2.973
MS.195         	12.028         	2.78
MS.196         	12.002         	2.904
MS.197         	11.98          	2.518
MS.198         	11.955         	2.415
MS.199         	11.932         	2.592
MS.200         	11.907         	2.685
MS.201         	11.885         	2.598
MS.202         	11.86          	2.574
MS.203         	11.837         	2.455
MS.204         	11.812         	2.292
MS.205         	11.79          	2.069
MS.206         	11.765         	2.085
MS.207         	11.742         	2.183
MS.208         	11.72          	1.73
MS.209         	11.695         	2.038
MS.210         	11.672         	1.956
MS.211         	11.65          	1.994
MS.212         	11.625         	1.865
MS.213         	11.602         	1.958
MS.214         	11.58          	1.805
MS.215         	11.555         	1.793
MS.216         	11.532         	1.718
MS.217         	11.51          	1.547
MS.218         	11.488         	1.541
MS.219         	11.465         	1.714
MS.220         	11.44          	1.412
MS.221         	11.417         	1.442
MS.222         	11.395         	1.507
MS.223         	11.372         	1.279
MS.224         	11.35          	1.593
MS.225         	11.327         	1.376
MS.226         	11.305         	1.198
MS.227         	11.282         	1.253
MS.228         	11.26          	1.47
MS.229         	11.238         	1.352
MS.230         	11.215         	1.104
MS.231         	11.193         	1.017
MS.232         	11.17          	1.035
MS.233         	11.148         	1.055
MS.234         	11.125         	1.14
MS.235         	11.102         	0.947
MS.236         	11.08          	0.927
MS.237         	11.057         	1.017
MS.238         	11.037         	1.154
MS.239         	11.015         	0.916
MS.240         	10.992         	1.104
MS.241         	10.97          	0.995
MS.242         	10.948         	0.856
MS.243         	10.927         	0.9
MS.244         	10.905         	0.937
MS.245         	10.882         	0.89
MS.246         	10.863         	0.802
MS.247         	10.84          	0.669
MS.248         	10.818         	0.866
MS.249         	10.797         	0.701
MS.250         	10.775         	0.848
MS.251         	10.752         	0.808
MS.252         	10.733         	0.701
MS.253         	10.71          	0.862
MS.254         	10.69          	0.632
MS.255         	10.667         	0.572
MS.256         	10.648         	0.594
MS.257         	10.625         	0.721
MS.258         	10.605         	0.737
MS.259         	10.582         	0.58
MS.260         	10.562         	0.632
MS.261         	10.54          	0.58
MS.262         	10.52          	0.602
MS.263         	10.497         	0.574
MS.264         	10.477         	0.57
MS.265         	10.457         	0.532
MS.266         	10.435         	0.596
MS.267         	10.415         	0.506
MS.268         	10.395         	0.51
MS.269         	10.372         	0.518
MS.270         	10.352         	0.473
MS.271         	10.332         	0.558
MS.272         	10.31          	0.495
MS.273         	10.29          	0.534
MS.274         	10.27          	0.465
MS.275         	10.25          	0.502
MS.276         	10.23          	0.433
MS.277         	10.207         	0.495
MS.278         	10.188         	0.471
MS.279         	10.167         	0.379
MS.280         	10.148         	0.483
MS.281         	10.127         	0.477
MS.282         	10.108         	0.473
MS.283         	10.087         	0.469
MS.284         	10.068         	0.449
MS.285         	10.047         	0.493
MS.286         	10.028         	0.427
MS.287         	10.005         	0.453
MS.288         	9.988          	0.485
MS.289         	9.967          	0.278
MS.290         	9.948          	0.312
MS.291         	9.927          	0.32
MS.292         	9.907          	0.308
MS.293         	9.887          	0.314
MS.294         	9.867          	0.278
MS.295         	9.847          	0.437
MS.296         	9.827          	0.24
MS.297         	9.807          	0.274
MS.298         	9.787          	0.316
MS.299         	9.77           	0.373
MS.300         	9.75           	0.385
MS.301         	9.73           	0.3
MS.302         	9.71           	0.288
MS.303         	9.69           	0.363
MS.304         	9.672          	0.28
MS.305         	9.653          	0.27
MS.306         	9.632          	0.304
MS.307         	9.615          	0.288
MS.308         	9.595          	0.28
MS.309         	9.575          	0.286
MS.310         	9.557          	0.274
MS.311         	9.537          	0.298
MS.312         	9.517          	0.211
MS.313         	9.5            	0.274
MS.314         	9.48           	0.278
MS.315         	9.462          	0.27
MS.316         	9.443          	0.369
MS.317         	9.422          	0.264
MS.318         	9.405          	0.274
MS.319         	9.385          	0.266
MS.320         	9.367          	0.209
MS.321         	9.347          	0.216
MS.322         	9.33           	0.211
MS.323         	9.31           	0.193
MS.324         	9.292          	0.222
MS.325         	9.275          	0.155
MS.326         	9.255          	0.183
MS.327         	9.238          	0.195
MS.328         	9.217          	0.205
MS.329         	9.2            	0.155
MS.330         	9.182          	0.155
MS.331         	9.162          	0.211
MS.332         	9.145          	0.169
MS.333         	9.127          	0.171
MS.334         	9.108          	0.159
MS.335         	9.09           	0.252
MS.336         	9.073          	0.199
MS.337         	9.055          	0.163
MS.338         	9.035          	0.189
MS.339         	9.017          	0.199
MS.340         	9              	0.155
MS.341         	8.983          	0.187
MS.342         	8.965          	0.135
MS.343         	8.945          	0.143
MS.344         	8.927          	0.195
MS.345         	8.91           	0.145
MS.346         	8.892          	0.143
MS.347         	8.875          	0.085
MS.348         	8.858          	0.109
MS.349         	8.84           	0.099
MS.350         	8.823          	0.109
MS.351         	8.805          	0.085
MS.352         	8.787          	0.141
MS.353         	8.77           	0.159
MS.354         	8.752          	0.095
MS.355         	8.735          	0.105
MS.356         	8.717          	0.111
MS.357         	8.7            	0.193
MS.358         	8.682          	0.109
MS.359         	8.665          	0.107
MS.360         	8.648          	0.163
MS.361         	8.63           	0.097
MS.362         	8.613          	0.091
MS.363         	8.595          	0.157
MS.364         	8.577          	0.111
MS.365         	8.56           	0.105
MS.366         	8.545          	0.006
MS.367         	8.528          	0.099
MS.368         	8.51           	0.089
MS.369         	8.492          	-0.004
MS.370         	8.475          	0.101
MS.371         	8.46           	0.000
MS.372         	8.443          	0.006
MS.373         	8.425          	-0.006
MS.374         	8.408          	-0.002
MS.375         	8.392          	0.004
MS.376         	8.375          	0.018
MS.377         	8.358          	-0.004
MS.378         	8.34           	0.105
MS.379         	8.325          	0.008
MS.380         	8.307          	0.006
MS.381         	8.292          	0.000
MS.382         	8.275          	0.004
MS.383         	8.257          	0.002
MS.384         	8.242          	-0.004
MS.385         	8.225          	0.008
MS.386         	8.21           	0.002
MS.387         	8.193          	0.002
MS.388         	8.175          	0.002
MS.389         	8.16           	0.002
MS.390         	8.142          	-0.004
MS.391         	8.127          	0.000
MS.392         	8.11           	0.002
MS.393         	8.095          	-0.004
MS.394         	8.077          	-0.002
MS.395         	8.062          	0.000
MS.396         	8.047          	-0.002
MS.397         	8.03           	-0.014
MS.398         	8.015          	-0.002
MS.399         	7.997          	0.004
MS.400         	7.982          	-0.004
MS.401         	7.965          	-0.004
MS.402         	7.95           	-0.004
MS.403         	7.935          	0.004
MS.404         	7.918          	-0.014
MS.405         	7.902          	-0.008
MS.406         	7.887          	-0.014
MS.407         	7.87           	-0.012
MS.408         	7.855          	-0.006
DERIVED EXCITABILITY VARIABLES
Program = QTracP 3/4/2020
Threshold method = 6 (optimised for CAP, using data for present condition only)
SR method = 1 (using actual data values)
6.                 	0.000               	Peak response\(mV)
9.                 	31.9                	Temperature ( C)
17.                	25                  	Age (years)
18.                	1                   	Sex (M=1, F=2)

EXTRA VARIABLES

MScPeak(mV) = 11.36
MScS5(mA) = 10.45
MScS50(mA) = 13.52
MScS95(mA) = 15.89
MScNSteps = 3
MScSteps(%) = 6.5
MScStepMax(%) = 2.3
MScD50 = 46
MScSlope = 5.41
MSFPeakAmp(mV) = 11.3
MSFNUnits = 161
MSFMeanUnitAmp(uV) = 70.5
MSFHuntTime(m) = 2.85
MSFError(%) = 3.26
MSFNLarge = 50.65
MSFMedianAmp(%) = 0.565
MSFMedianAmp(mV) = 0.0641
MSFHalfAmpAmp(%) = 0.68
MSFHalfAmpAmp(mV) = 0.0771
MSFLargestAmp(%) = 2.31
MSFLargestAmp(mV) = 0.262
MSFMeanRS(%) = 2
MSFOpts = 10106121
MScDuration(min) = 3.7
MSFTraces = 396
MSFSizeLimit(uV) = 28.4
MSFLimitType = 1
MSFSmallestAmp(uV) = 28.8

EXTRA WAVEFORMS


!MScan Model
!161
	1	8.57	0.98	2
	2	8.95	0.56	2
	3	9.29	0.43	2
	4	9.35	0.33	2
	5	9.64	0.47	2
	6	9.97	0.71	2
	7	10.14	1.15	2
	8	10.38	0.3	2
	9	10.49	0.49	2
	10	10.62	0.64	2
	11	10.82	1.33	2
	12	10.86	0.25	2
	13	10.91	0.4	2
	14	11.05	1.1	2
	15	11.12	0.53	2
	16	11.18	0.76	2
	17	11.24	0.63	2
	18	11.35	1.76	2
	19	11.4	0.4	2
	20	11.43	0.49	2
	21	11.46	0.57	2
	22	11.5	0.61	2
	23	11.56	0.94	2
	24	11.61	0.76	2
	25	11.65	0.53	2
	26	11.68	0.82	2
	27	11.72	0.72	2
	28	11.76	0.86	2
	29	11.81	0.67	2
	30	11.85	0.93	2
	31	11.88	0.8	2
	32	11.92	1.37	2
	33	11.96	0.76	2
	34	11.98	0.57	2
	35	12.03	0.61	2
	36	12.06	0.69	2
	37	12.1	0.99	2
	38	12.15	1.18	2
	39	12.2	1.06	2
	40	12.27	0.96	2
	41	12.34	0.98	2
	42	12.45	1.05	2
	43	12.45	0.7	2
	44	12.49	0.36	2
	45	12.53	0.38	2
	46	12.55	0.37	2
	47	12.59	0.72	2
	48	12.66	0.9	2
	49	12.74	1.29	2
	50	12.92	2.31	2
	51	13.09	2.06	2
	52	13.13	0.65	2
	53	13.18	0.84	2
	54	13.24	1.37	2
	55	13.3	1.56	2
	56	13.35	1.07	2
	57	13.38	0.58	2
	58	13.41	0.61	2
	59	13.44	0.75	2
	60	13.47	0.85	2
	61	13.49	0.72	2
	62	13.51	0.57	2
	63	13.53	0.57	2
	64	13.54	0.45	2
	65	13.56	0.37	2
	66	13.58	0.55	2
	67	13.6	0.55	2
	68	13.62	0.59	2
	69	13.65	0.76	2
	70	13.67	0.73	2
	71	13.7	0.37	2
	72	13.72	0.58	2
	73	13.75	0.58	2
	74	13.78	0.74	2
	75	13.82	0.89	2
	76	13.85	1.03	2
	77	13.88	0.73	2
	78	13.91	0.56	2
	79	13.93	0.52	2
	80	13.96	0.55	2
	81	13.98	0.59	2
	82	14	0.6	2
	83	14.03	0.6	2
	84	14.06	0.85	2
	85	14.1	0.92	2
	86	14.13	0.79	2
	87	14.16	0.65	2
	88	14.19	0.61	2
	89	14.22	0.68	2
	90	14.25	0.66	2
	91	14.27	0.62	2
	92	14.29	0.42	2
	93	14.31	0.28	2
	94	14.32	0.28	2
	95	14.33	0.28	2
	96	14.34	0.3	2
	97	14.36	0.43	2
	98	14.37	0.43	2
	99	14.38	0.28	2
	100	14.39	0.27	2
	101	14.41	0.27	2
	102	14.42	0.27	2
	103	14.43	0.31	2
	104	14.45	0.36	2
	105	14.47	0.36	2
	106	14.49	0.36	2
	107	14.5	0.32	2
	108	14.52	0.32	2
	109	14.54	0.33	2
	110	14.55	0.33	2
	111	14.57	0.33	2
	112	14.59	0.35	2
	113	14.61	0.35	2
	114	14.62	0.35	2
	115	14.64	0.32	2
	116	14.66	0.29	2
	117	14.68	0.39	2
	118	14.7	0.41	2
	119	14.71	0.41	2
	120	14.75	0.9	2
	121	14.81	0.92	2
	122	14.86	0.79	2
	123	14.9	0.57	2
	124	14.93	0.51	2
	125	14.96	0.43	2
	126	15	0.51	2
	127	15.04	0.56	2
	128	15.06	0.39	2
	129	15.09	0.56	2
	130	15.13	0.67	2
	131	15.17	0.53	2
	132	15.19	0.33	2
	133	15.21	0.33	2
	134	15.23	0.33	2
	135	15.25	0.31	2
	136	15.27	0.32	2
