File:              	C:\Qtrac\Data\Daniel M Sørensen\MScan multicentre study\Data from centres\Toronto\Processed data\MSCC01210B.QZD
Name:              	CA.TOR.NC.8.2
Protocol:          	MSCAN-R2
Date:              	10/12/20
Start time:        	15:35:07
Age:               	29
Sex:               	F
Temperature:       	31.5
S/R sites:         	ADM
NC/disease:        	NC
Operator:          	LP
Comments:          	MFF60ON
M-SCAN DATA (7.5-3.2m)
Scanpts: 9, 15, 456, 478
Stim. (mA)     	Amp. (mV)
MS.1           	20             	8.429
MS.2           	20             	8.363
MS.3           	20             	8.375
MS.4           	20             	8.349
MS.5           	20             	8.373
MS.6           	20             	8.323
MS.7           	20             	8.312
MS.8           	20             	8.318
MS.9           	20             	8.325
MS.10          	20             	8.296
MS.11          	20             	8.282
MS.12          	20             	8.286
MS.13          	20             	8.316
MS.14          	20             	8.288
MS.15          	20             	8.298
MS.16          	20             	8.298
MS.17          	20             	8.318
MS.18          	20             	8.308
MS.19          	20             	8.314
MS.20          	20             	8.254
MS.21          	20             	8.302
MS.22          	20             	8.276
MS.23          	20             	8.302
MS.24          	19.92          	8.274
MS.25          	19.88          	8.274
MS.26          	19.84          	8.298
MS.27          	19.8           	8.308
MS.28          	19.762         	8.266
MS.29          	19.722         	8.182
MS.30          	19.682         	8.28
MS.31          	19.642         	8.28
MS.32          	19.605         	8.19
MS.33          	19.565         	8.161
MS.34          	19.525         	8.145
MS.35          	19.487         	8.173
MS.36          	19.448         	8.161
MS.37          	19.41          	8.032
MS.38          	19.37          	8.163
MS.39          	19.333         	8.145
MS.40          	19.292         	8.053
MS.41          	19.255         	8.065
MS.42          	19.215         	8.089
MS.43          	19.177         	8.224
MS.44          	19.14          	8.016
MS.45          	19.1           	8.077
MS.46          	19.062         	8.111
MS.47          	19.025         	8.167
MS.48          	18.987         	8.008
MS.49          	18.948         	8.111
MS.50          	18.91          	7.98
MS.51          	18.872         	8.059
MS.52          	18.835         	8.061
MS.53          	18.797         	8.028
MS.54          	18.76          	8.171
MS.55          	18.722         	8.018
MS.56          	18.685         	8.043
MS.57          	18.647         	8.039
MS.58          	18.61          	8.2
MS.59          	18.573         	8.083
MS.60          	18.535         	8.099
MS.61          	18.5           	8.036
MS.62          	18.462         	7.994
MS.63          	18.425         	7.968
MS.64          	18.387         	7.992
MS.65          	18.352         	8.028
MS.66          	18.315         	7.946
MS.67          	18.278         	7.861
MS.68          	18.243         	7.924
MS.69          	18.205         	7.875
MS.70          	18.17          	8.067
MS.71          	18.132         	7.893
MS.72          	18.097         	7.863
MS.73          	18.06          	8.016
MS.74          	18.025         	7.825
MS.75          	17.987         	7.809
MS.76          	17.952         	7.781
MS.77          	17.917         	7.823
MS.78          	17.88          	7.869
MS.79          	17.845         	7.893
MS.80          	17.81          	7.777
MS.81          	17.775         	7.902
MS.82          	17.737         	7.95
MS.83          	17.702         	7.799
MS.84          	17.667         	7.672
MS.85          	17.632         	7.672
MS.86          	17.597         	7.809
MS.87          	17.562         	7.736
MS.88          	17.528         	7.877
MS.89          	17.493         	7.692
MS.90          	17.458         	7.622
MS.91          	17.422         	7.618
MS.92          	17.387         	7.569
MS.93          	17.352         	7.531
MS.94          	17.317         	7.545
MS.95          	17.282         	7.563
MS.96          	17.247         	7.551
MS.97          	17.215         	7.483
MS.98          	17.18          	7.471
MS.99          	17.145         	7.315
MS.100         	17.11          	7.475
MS.101         	17.077         	7.458
MS.102         	17.042         	7.473
MS.103         	17.01          	7.513
MS.104         	16.975         	7.388
MS.105         	16.94          	7.301
MS.106         	16.907         	7.39
MS.107         	16.872         	7.307
MS.108         	16.84          	7.271
MS.109         	16.805         	7.066
MS.110         	16.772         	7.213
MS.111         	16.74          	7.311
MS.112         	16.705         	7.305
MS.113         	16.672         	7.088
MS.114         	16.637         	7.146
MS.115         	16.605         	7.164
MS.116         	16.573         	7.048
MS.117         	16.54          	7.152
MS.118         	16.505         	7.001
MS.119         	16.472         	7.058
MS.120         	16.44          	7.06
MS.121         	16.407         	7.138
MS.122         	16.375         	7.064
MS.123         	16.342         	6.937
MS.124         	16.31          	6.955
MS.125         	16.278         	6.911
MS.126         	16.245         	6.888
MS.127         	16.212         	6.951
MS.128         	16.18          	6.937
MS.129         	16.147         	6.834
MS.130         	16.115         	6.941
MS.131         	16.083         	6.919
MS.132         	16.05          	6.78
MS.133         	16.017         	6.796
MS.134         	15.985         	6.735
MS.135         	15.955         	6.814
MS.136         	15.922         	6.842
MS.137         	15.89          	6.77
MS.138         	15.86          	6.655
MS.139         	15.827         	6.717
MS.140         	15.795         	6.701
MS.141         	15.765         	6.723
MS.142         	15.733         	6.619
MS.143         	15.7           	6.697
MS.144         	15.67          	6.516
MS.145         	15.637         	6.453
MS.146         	15.608         	6.57
MS.147         	15.575         	6.536
MS.148         	15.545         	6.399
MS.149         	15.515         	6.409
MS.150         	15.483         	6.353
MS.151         	15.452         	6.341
MS.152         	15.42          	6.413
MS.153         	15.39          	6.389
MS.154         	15.36          	6.341
MS.155         	15.327         	6.232
MS.156         	15.297         	6.139
MS.157         	15.267         	6.121
MS.158         	15.237         	6.111
MS.159         	15.207         	6.165
MS.160         	15.175         	6.079
MS.161         	15.145         	6.093
MS.162         	15.115         	6.069
MS.163         	15.085         	6.026
MS.164         	15.055         	6.117
MS.165         	15.025         	6.051
MS.166         	14.995         	5.897
MS.167         	14.965         	5.897
MS.168         	14.935         	5.644
MS.169         	14.905         	5.682
MS.170         	14.875         	5.45
MS.171         	14.845         	5.601
MS.172         	14.818         	5.404
MS.173         	14.787         	5.525
MS.174         	14.757         	5.519
MS.175         	14.727         	5.626
MS.176         	14.697         	5.416
MS.177         	14.67          	5.329
MS.178         	14.64          	5.319
MS.179         	14.61          	5.259
MS.180         	14.58          	5.255
MS.181         	14.552         	5.269
MS.182         	14.523         	5.193
MS.183         	14.495         	5.283
MS.184         	14.465         	5.279
MS.185         	14.435         	5.062
MS.186         	14.407         	5.1
MS.187         	14.377         	5.017
MS.188         	14.35          	4.921
MS.189         	14.32          	4.927
MS.190         	14.292         	4.669
MS.191         	14.265         	4.667
MS.192         	14.235         	4.812
MS.193         	14.207         	4.866
MS.194         	14.177         	4.737
MS.195         	14.15          	4.534
MS.196         	14.122         	4.945
MS.197         	14.092         	4.576
MS.198         	14.065         	4.268
MS.199         	14.037         	4.546
MS.200         	14.01          	4.427
MS.201         	13.983         	4.32
MS.202         	13.952         	4.105
MS.203         	13.925         	4.099
MS.204         	13.898         	4.163
MS.205         	13.87          	4.055
MS.206         	13.842         	4.105
MS.207         	13.815         	3.809
MS.208         	13.787         	3.775
MS.209         	13.76          	3.746
MS.210         	13.733         	3.914
MS.211         	13.705         	3.801
MS.212         	13.677         	3.593
MS.213         	13.65          	3.66
MS.214         	13.622         	3.68
MS.215         	13.595         	3.352
MS.216         	13.568         	3.388
MS.217         	13.54          	3.364
MS.218         	13.515         	3.452
MS.219         	13.487         	3.499
MS.220         	13.46          	3.366
MS.221         	13.432         	3.07
MS.222         	13.407         	3.386
MS.223         	13.38          	3.104
MS.224         	13.352         	3.376
MS.225         	13.325         	2.935
MS.226         	13.3           	3.291
MS.227         	13.273         	3.029
MS.228         	13.247         	2.596
MS.229         	13.22          	2.864
MS.230         	13.193         	2.689
MS.231         	13.167         	2.596
MS.232         	13.14          	2.812
MS.233         	13.115         	2.622
MS.234         	13.087         	2.534
MS.235         	13.062         	2.284
MS.236         	13.035         	2.475
MS.237         	13.01          	2.477
MS.238         	12.985         	2.355
MS.239         	12.957         	2.588
MS.240         	12.932         	2.51
MS.241         	12.907         	2.133
MS.242         	12.88          	2.312
MS.243         	12.855         	2.471
MS.244         	12.83          	2.353
MS.245         	12.802         	2.201
MS.246         	12.778         	2.224
MS.247         	12.752         	1.972
MS.248         	12.727         	1.756
MS.249         	12.702         	1.829
MS.250         	12.675         	1.696
MS.251         	12.65          	1.807
MS.252         	12.625         	1.837
MS.253         	12.6           	1.615
MS.254         	12.575         	1.533
MS.255         	12.55          	1.599
MS.256         	12.525         	1.422
MS.257         	12.5           	1.561
MS.258         	12.475         	1.472
MS.259         	12.45          	1.422
MS.260         	12.425         	1.456
MS.261         	12.4           	1.394
MS.262         	12.375         	1.323
MS.263         	12.35          	1.279
MS.264         	12.325         	1.484
MS.265         	12.302         	1.347
MS.266         	12.278         	1.198
MS.267         	12.252         	1.271
MS.268         	12.227         	1.339
MS.269         	12.202         	1.096
MS.270         	12.18          	1.271
MS.271         	12.155         	1.269
MS.272         	12.13          	1.102
MS.273         	12.108         	1.295
MS.274         	12.082         	1.154
MS.275         	12.057         	1.031
MS.276         	12.035         	1.124
MS.277         	12.01          	1.142
MS.278         	11.985         	0.997
MS.279         	11.962         	0.943
MS.280         	11.938         	0.935
MS.281         	11.915         	0.949
MS.282         	11.89          	0.967
MS.283         	11.867         	0.87
MS.284         	11.842         	0.896
MS.285         	11.82          	0.973
MS.286         	11.795         	0.935
MS.287         	11.773         	0.784
MS.288         	11.747         	0.84
MS.289         	11.725         	0.816
MS.290         	11.702         	0.955
MS.291         	11.677         	0.804
MS.292         	11.655         	0.818
MS.293         	11.632         	0.836
MS.294         	11.608         	0.842
MS.295         	11.585         	0.798
MS.296         	11.562         	0.731
MS.297         	11.54          	0.84
MS.298         	11.515         	0.796
MS.299         	11.492         	0.747
MS.300         	11.47          	0.828
MS.301         	11.447         	0.802
MS.302         	11.425         	0.703
MS.303         	11.403         	0.763
MS.304         	11.377         	0.723
MS.305         	11.355         	0.673
MS.306         	11.332         	0.713
MS.307         	11.31          	0.765
MS.308         	11.287         	0.697
MS.309         	11.265         	0.669
MS.310         	11.242         	0.669
MS.311         	11.22          	0.677
MS.312         	11.197         	0.701
MS.313         	11.175         	0.61
MS.314         	11.153         	0.606
MS.315         	11.13          	0.596
MS.316         	11.108         	0.695
MS.317         	11.087         	0.622
MS.318         	11.065         	0.63
MS.319         	11.042         	0.544
MS.320         	11.02          	0.576
MS.321         	10.997         	0.528
MS.322         	10.975         	0.669
MS.323         	10.955         	0.54
MS.324         	10.932         	0.638
MS.325         	10.91          	0.504
MS.326         	10.887         	0.512
MS.327         	10.867         	0.572
MS.328         	10.845         	0.441
MS.329         	10.823         	0.564
MS.330         	10.802         	0.512
MS.331         	10.78          	0.528
MS.332         	10.76          	0.453
MS.333         	10.738         	0.481
MS.334         	10.715         	0.32
MS.335         	10.695         	0.441
MS.336         	10.672         	0.262
MS.337         	10.653         	0.471
MS.338         	10.63          	0.344
MS.339         	10.61          	0.232
MS.340         	10.587         	0.26
MS.341         	10.568         	0.228
MS.342         	10.545         	0.447
MS.343         	10.525         	0.222
MS.344         	10.502         	0.199
MS.345         	10.483         	0.23
MS.346         	10.462         	0.199
MS.347         	10.44          	0.22
MS.348         	10.42          	0.209
MS.349         	10.4           	0.207
MS.350         	10.377         	0.222
MS.351         	10.358         	0.214
MS.352         	10.337         	0.216
MS.353         	10.318         	0.205
MS.354         	10.295         	0.179
MS.355         	10.275         	0.224
MS.356         	10.255         	0.226
MS.357         	10.235         	0.218
MS.358         	10.212         	0.222
MS.359         	10.193         	0.236
MS.360         	10.172         	0.211
MS.361         	10.153         	0.211
MS.362         	10.132         	0.209
MS.363         	10.113         	0.191
MS.364         	10.092         	0.189
MS.365         	10.073         	0.24
MS.366         	10.052         	0.185
MS.367         	10.032         	0.197
MS.368         	10.012         	0.216
MS.369         	9.992          	0.218
MS.370         	9.972          	0.185
MS.371         	9.952          	0.191
MS.372         	9.932          	0.201
MS.373         	9.912          	0.179
MS.374         	9.892          	0.211
MS.375         	9.872          	0.222
MS.376         	9.852          	0.189
MS.377         	9.832          	0.211
MS.378         	9.812          	0.209
MS.379         	9.792          	0.199
MS.380         	9.775          	0.216
MS.381         	9.755          	0.211
MS.382         	9.735          	0.214
MS.383         	9.715          	0.195
MS.384         	9.695          	0.216
MS.385         	9.677          	0.187
MS.386         	9.657          	0.226
MS.387         	9.637          	0.179
MS.388         	9.62           	0.173
MS.389         	9.6            	0.209
MS.390         	9.58           	0.191
MS.391         	9.562          	0.169
MS.392         	9.542          	0.181
MS.393         	9.523          	0.155
MS.394         	9.505          	0.224
MS.395         	9.485          	0.137
MS.396         	9.465          	0.145
MS.397         	9.448          	0.137
MS.398         	9.427          	0.165
MS.399         	9.41           	0.139
MS.400         	9.39           	0.139
MS.401         	9.372          	0.137
MS.402         	9.352          	0.145
MS.403         	9.335          	0.131
MS.404         	9.315          	0.149
MS.405         	9.297          	0.139
MS.406         	9.28           	0.141
MS.407         	9.26           	0.121
MS.408         	9.242          	0.133
MS.409         	9.222          	0.133
MS.410         	9.205          	0.137
MS.411         	9.188          	0.139
MS.412         	9.167          	0.133
MS.413         	9.15           	0.141
MS.414         	9.132          	0.095
MS.415         	9.113          	0.127
MS.416         	9.095          	0.131
MS.417         	9.077          	0.137
MS.418         	9.057          	0.099
MS.419         	9.04           	0.127
MS.420         	9.023          	0.073
MS.421         	9.005          	0.07
MS.422         	8.988          	0.075
MS.423         	8.967          	0.113
MS.424         	8.95           	0.111
MS.425         	8.932          	0.079
MS.426         	8.915          	0.085
MS.427         	8.898          	0.075
MS.428         	8.88           	0.075
MS.429         	8.863          	0.073
MS.430         	8.845          	0.087
MS.431         	8.825          	0.052
MS.432         	8.807          	0.056
MS.433         	8.79           	0.109
MS.434         	8.773          	0.062
MS.435         	8.755          	0.077
MS.436         	8.738          	0.058
MS.437         	8.72           	0.073
MS.438         	8.702          	0.105
MS.439         	8.685          	0.103
MS.440         	8.67           	0.012
MS.441         	8.653          	0.024
MS.442         	8.635          	0.016
MS.443         	8.617          	0.058
MS.444         	8.6            	0.056
MS.445         	8.582          	0.014
MS.446         	8.565          	0.016
MS.447         	8.547          	0.012
MS.448         	8.53           	0.014
MS.449         	8.515          	0.016
MS.450         	8.497          	0.02
MS.451         	8.48           	0.02
MS.452         	8.462          	0.016
MS.453         	8.448          	0.014
MS.454         	8.43           	0.018
MS.455         	8.412          	0.014
MS.456         	8.395          	0.016
MS.457         	8.38           	0.01
MS.458         	8.363          	0.014
MS.459         	8.345          	0.014
MS.460         	8.33           	0.016
MS.461         	8.312          	0.01
MS.462         	8.295          	0.014
MS.463         	8.28           	0.01
MS.464         	8.262          	0.014
MS.465         	8.245          	0.008
MS.466         	8.23           	0.01
MS.467         	8.212          	0.012
MS.468         	8.198          	0.014
MS.469         	8.18           	0.016
MS.470         	8.165          	0.012
MS.471         	8.148          	0.012
MS.472         	8.132          	0.012
MS.473         	8.115          	0.014
MS.474         	8.1            	0.012
MS.475         	8.082          	0.014
MS.476         	8.068          	0.012
MS.477         	8.05           	0.014
MS.478         	8.035          	0.012
DERIVED EXCITABILITY VARIABLES
Program = QTracP 3/4/2020
Threshold method = 6 (optimised for CAP, using data for present condition only)
SR method = 1 (using actual data values)
6.                 	0.000               	Peak response\(mV)
9.                 	31.5                	Temperature ( C)
17.                	29                  	Age (years)
18.                	2                   	Sex (M=1, F=2)

EXTRA VARIABLES

MScPeak(mV) = 8.31
MScS5(mA) = 10.64
MScS50(mA) = 13.92
MScS95(mA) = 18.04
MScNSteps = 2
MScSteps(%) = 4.8
MScStepMax(%) = 2.6
MScD50 = 49
MScSlope = 5.43
MSFPeakAmp(mV) = 8.29
MSFNUnits = 159
MSFMeanUnitAmp(uV) = 52.1
MSFHuntTime(m) = 2.73
MSFError(%) = 2.54
MSFNLarge = 41.9
MSFMedianAmp(%) = 0.488
MSFMedianAmp(mV) = 0.0405
MSFHalfAmpAmp(%) = 0.674
MSFHalfAmpAmp(mV) = 0.0559
MSFLargestAmp(%) = 3.56
MSFLargestAmp(mV) = 0.295
