File:              	C:\Qtrac\Data\Daniel M Sørensen\MScan multicentre study\Data from centres\Toronto\Processed data\MSCC01209H.QZD
Name:              	CA.TOR.NC.10.1
Protocol:          	MSCAN-R2
Date:              	9/12/20
Start time:        	14:44:30
Age:               	49
Sex:               	M
Temperature:       	31.7
S/R sites:         	ADM
NC/disease:        	NC
Operator:          	LP
Comments:          	MFF60ON, Use 2nd trial
M-SCAN DATA (Repeat 2/2, 16.3-9.4m)
Scanpts: 73, 79, 715, 736
Stim. (mA)     	Amp. (mV)
MS.1           	29.5           	9.976
MS.2           	29.5           	10.008
MS.3           	29.5           	9.994
MS.4           	29.5           	9.956
MS.5           	29.5           	9.978
MS.6           	29.5           	10.022
MS.7           	29.5           	10.033
MS.8           	29.5           	9.982
MS.9           	29.5           	9.992
MS.10          	29.5           	9.998
MS.11          	29.5           	10.01
MS.12          	29.5           	10.057
MS.13          	29.5           	10.055
MS.14          	29.5           	10.047
MS.15          	29.5           	10.006
MS.16          	29.5           	10.047
MS.17          	29.5           	10.051
MS.18          	29.5           	10.031
MS.19          	29.5           	10.059
MS.20          	29.5           	10.089
MS.21          	29.5           	10.067
MS.22          	29.5           	10.045
MS.23          	29.5           	10.033
MS.24          	29.44          	10.022
MS.25          	29.382         	10.053
MS.26          	29.323         	10.099
MS.27          	29.265         	10.057
MS.28          	29.207         	10.057
MS.29          	29.147         	10.039
MS.30          	29.09          	10.041
MS.31          	29.032         	10.055
MS.32          	28.975         	10.087
MS.33          	28.915         	10.031
MS.34          	28.858         	10.033
MS.35          	28.8           	10.037
MS.36          	28.743         	10.065
MS.37          	28.685         	10.051
MS.38          	28.627         	10.083
MS.39          	28.57          	10.079
MS.40          	28.515         	10.039
MS.41          	28.457         	10.039
MS.42          	28.4           	10.01
MS.43          	28.342         	10.045
MS.44          	28.287         	9.99
MS.45          	28.23          	10.022
MS.46          	28.172         	10.059
MS.47          	28.118         	10.071
MS.48          	28.062         	10.014
MS.49          	28.005         	9.994
MS.50          	27.95          	10.039
MS.51          	27.892         	10.039
MS.52          	27.837         	10.085
MS.53          	27.782         	10.049
MS.54          	27.727         	9.994
MS.55          	27.67          	10.01
MS.56          	27.615         	10.018
MS.57          	27.56          	10.065
MS.58          	27.505         	10.069
MS.59          	27.45          	10.081
MS.60          	27.395         	10.024
MS.61          	27.34          	10.012
MS.62          	27.287         	10.012
MS.63          	27.233         	10.02
MS.64          	27.177         	10.033
MS.65          	27.122         	10.035
MS.66          	27.07          	10.022
MS.67          	27.015         	10
MS.68          	26.96          	9.984
MS.69          	26.907         	10.077
MS.70          	26.852         	10.059
MS.71          	26.8           	10.016
MS.72          	26.745         	10.012
MS.73          	26.692         	10.014
MS.74          	26.64          	10.002
MS.75          	26.585         	10.069
MS.76          	26.532         	10.065
MS.77          	26.48          	10.016
MS.78          	26.427         	9.996
MS.79          	26.375         	10.008
MS.80          	26.323         	10.065
MS.81          	26.27          	10.055
MS.82          	26.217         	10.033
MS.83          	26.165         	10.029
MS.84          	26.112         	10.026
MS.85          	26.06          	9.99
MS.86          	26.007         	10.061
MS.87          	25.955         	10.043
MS.88          	25.905         	10.026
MS.89          	25.852         	9.972
MS.90          	25.8           	10.002
MS.91          	25.75          	9.982
MS.92          	25.698         	10.016
MS.93          	25.645         	10.012
MS.94          	25.595         	10.031
MS.95          	25.542         	10.016
MS.96          	25.493         	10.006
MS.97          	25.442         	9.992
MS.98          	25.39          	9.98
MS.99          	25.34          	10.073
MS.100         	25.29          	9.982
MS.101         	25.24          	10.004
MS.102         	25.188         	9.988
MS.103         	25.137         	9.95
MS.104         	25.087         	9.984
MS.105         	25.038         	9.998
MS.106         	24.987         	9.996
MS.107         	24.938         	9.968
MS.108         	24.887         	10
MS.109         	24.837         	9.948
MS.110         	24.79          	9.978
MS.111         	24.74          	9.958
MS.112         	24.69          	9.984
MS.113         	24.64          	9.966
MS.114         	24.59          	9.98
MS.115         	24.542         	9.942
MS.116         	24.493         	9.944
MS.117         	24.445         	9.984
MS.118         	24.395         	10.059
MS.119         	24.347         	10.012
MS.120         	24.297         	9.952
MS.121         	24.25          	9.958
MS.122         	24.2           	9.944
MS.123         	24.153         	9.946
MS.124         	24.105         	9.998
MS.125         	24.055         	9.988
MS.126         	24.007         	9.97
MS.127         	23.96          	9.936
MS.128         	23.913         	9.948
MS.129         	23.865         	9.908
MS.130         	23.817         	10.002
MS.131         	23.77          	10.002
MS.132         	23.722         	9.98
MS.133         	23.675         	9.966
MS.134         	23.627         	9.94
MS.135         	23.58          	9.93
MS.136         	23.532         	9.94
MS.137         	23.485         	10.012
MS.138         	23.438         	10.053
MS.139         	23.392         	10.004
MS.140         	23.345         	9.934
MS.141         	23.297         	9.946
MS.142         	23.252         	9.894
MS.143         	23.205         	9.924
MS.144         	23.16          	9.918
MS.145         	23.112         	9.982
MS.146         	23.067         	9.968
MS.147         	23.02          	9.906
MS.148         	22.975         	9.809
MS.149         	22.927         	9.801
MS.150         	22.882         	9.847
MS.151         	22.837         	9.92
MS.152         	22.792         	9.934
MS.153         	22.745         	9.853
MS.154         	22.7           	9.789
MS.155         	22.655         	9.71
MS.156         	22.61          	9.807
MS.157         	22.565         	9.815
MS.158         	22.52          	9.757
MS.159         	22.475         	9.751
MS.160         	22.43          	9.618
MS.161         	22.385         	9.672
MS.162         	22.34          	9.684
MS.163         	22.295         	9.724
MS.164         	22.25          	9.688
MS.165         	22.207         	9.436
MS.166         	22.163         	9.499
MS.167         	22.118         	9.368
MS.168         	22.075         	9.531
MS.169         	22.03          	9.666
MS.170         	21.985         	9.569
MS.171         	21.942         	9.599
MS.172         	21.897         	9.487
MS.173         	21.855         	9.456
MS.174         	21.81          	9.352
MS.175         	21.767         	9.559
MS.176         	21.722         	9.479
MS.177         	21.68          	9.463
MS.178         	21.637         	9.471
MS.179         	21.592         	9.432
MS.180         	21.55          	9.493
MS.181         	21.507         	9.384
MS.182         	21.465         	9.378
MS.183         	21.422         	9.295
MS.184         	21.377         	9.247
MS.185         	21.335         	9.235
MS.186         	21.292         	9.287
MS.187         	21.25          	9.318
MS.188         	21.208         	9.08
MS.189         	21.165         	9.152
MS.190         	21.122         	9.108
MS.191         	21.083         	9.207
MS.192         	21.04          	9.231
MS.193         	20.997         	8.977
MS.194         	20.955         	8.774
MS.195         	20.913         	9.098
MS.196         	20.872         	9.158
MS.197         	20.83          	9.172
MS.198         	20.788         	9.007
MS.199         	20.747         	8.911
MS.200         	20.705         	8.858
MS.201         	20.665         	8.858
MS.202         	20.622         	8.705
MS.203         	20.583         	8.528
MS.204         	20.54          	8.675
MS.205         	20.5           	8.447
MS.206         	20.458         	8.631
MS.207         	20.417         	8.754
MS.208         	20.377         	8.57
MS.209         	20.335         	8.441
MS.210         	20.295         	8.494
MS.211         	20.255         	8.735
MS.212         	20.215         	8.659
MS.213         	20.175         	8.512
MS.214         	20.132         	8.383
MS.215         	20.092         	8.576
MS.216         	20.052         	8.538
MS.217         	20.012         	8.389
MS.218         	19.972         	8.421
MS.219         	19.932         	8.127
MS.220         	19.892         	8.393
MS.221         	19.852         	8.345
MS.222         	19.815         	8.272
MS.223         	19.775         	8.32
MS.224         	19.735         	8.121
MS.225         	19.695         	8.353
MS.226         	19.655         	8.425
MS.227         	19.618         	8.288
MS.228         	19.577         	8.163
MS.229         	19.538         	8.19
MS.230         	19.5           	8.151
MS.231         	19.46          	8.274
MS.232         	19.422         	8.167
MS.233         	19.382         	8.113
MS.234         	19.345         	8.079
MS.235         	19.305         	8.049
MS.236         	19.267         	8.323
MS.237         	19.227         	8.111
MS.238         	19.19          	8.002
MS.239         	19.153         	8.049
MS.240         	19.112         	7.7
MS.241         	19.075         	8.133
MS.242         	19.038         	8.077
MS.243         	19             	7.95
MS.244         	18.96          	7.601
MS.245         	18.922         	7.837
MS.246         	18.885         	8.012
MS.247         	18.847         	7.896
MS.248         	18.81          	8.135
MS.249         	18.772         	8.125
MS.250         	18.735         	7.827
MS.251         	18.698         	7.761
MS.252         	18.66          	7.664
MS.253         	18.622         	7.696
MS.254         	18.585         	7.996
MS.255         	18.547         	7.795
MS.256         	18.512         	7.847
MS.257         	18.475         	7.815
MS.258         	18.438         	7.612
MS.259         	18.4           	7.555
MS.260         	18.365         	7.779
MS.261         	18.327         	7.926
MS.262         	18.29          	7.634
MS.263         	18.255         	7.464
MS.264         	18.217         	7.372
MS.265         	18.18          	7.376
MS.266         	18.145         	7.39
MS.267         	18.108         	7.64
MS.268         	18.073         	7.489
MS.269         	18.038         	7.452
MS.270         	18             	7.444
MS.271         	17.965         	7.225
MS.272         	17.927         	7.356
MS.273         	17.892         	7.094
MS.274         	17.858         	7.233
MS.275         	17.82          	7.517
MS.276         	17.785         	7.378
MS.277         	17.75          	7.275
MS.278         	17.715         	7.195
MS.279         	17.68          	6.951
MS.280         	17.645         	7.003
MS.281         	17.608         	7.195
MS.282         	17.573         	7.074
MS.283         	17.538         	7.003
MS.284         	17.503         	6.794
MS.285         	17.467         	6.679
MS.286         	17.432         	6.77
MS.287         	17.397         	6.836
MS.288         	17.365         	7.013
MS.289         	17.33          	6.804
MS.290         	17.295         	6.695
MS.291         	17.26          	6.633
MS.292         	17.225         	6.669
MS.293         	17.19          	6.615
MS.294         	17.157         	6.733
MS.295         	17.122         	6.921
MS.296         	17.087         	6.612
MS.297         	17.055         	6.653
MS.298         	17.02          	6.476
MS.299         	16.985         	6.417
MS.300         	16.952         	6.484
MS.301         	16.917         	6.51
MS.302         	16.885         	6.52
MS.303         	16.85          	6.417
MS.304         	16.817         	6.345
MS.305         	16.782         	6.389
MS.306         	16.75          	6.331
MS.307         	16.717         	6.387
MS.308         	16.682         	6.365
MS.309         	16.65          	6.276
MS.310         	16.618         	6.312
MS.311         	16.583         	6.129
MS.312         	16.55          	6.357
MS.313         	16.517         	6.411
MS.314         	16.485         	6.113
MS.315         	16.45          	6.149
MS.316         	16.417         	6.051
MS.317         	16.385         	6.187
MS.318         	16.352         	6.135
MS.319         	16.32          	6.097
MS.320         	16.288         	6.099
MS.321         	16.255         	5.76
MS.322         	16.222         	5.855
MS.323         	16.19          	5.867
MS.324         	16.157         	5.976
MS.325         	16.125         	5.994
MS.326         	16.092         	5.811
MS.327         	16.06          	5.537
MS.328         	16.03          	5.593
MS.329         	15.997         	5.908
MS.330         	15.965         	5.98
MS.331         	15.932         	6.038
MS.332         	15.9           	5.09
MS.333         	15.87          	5.166
MS.334         	15.837         	5.245
MS.335         	15.805         	5.73
MS.336         	15.775         	5.567
MS.337         	15.742         	5.859
MS.338         	15.712         	5.468
MS.339         	15.68          	4.937
MS.340         	15.648         	5.114
MS.341         	15.617         	4.584
MS.342         	15.587         	4.87
MS.343         	15.555         	5.323
MS.344         	15.525         	5.146
MS.345         	15.492         	5.112
MS.346         	15.462         	4.604
MS.347         	15.43          	4.469
MS.348         	15.4           	4.367
MS.349         	15.37          	4.357
MS.350         	15.34          	4.963
MS.351         	15.307         	5.033
MS.352         	15.277         	4.365
MS.353         	15.247         	4.622
MS.354         	15.217         	4.435
MS.355         	15.185         	4.018
MS.356         	15.155         	4.228
MS.357         	15.125         	4.395
MS.358         	15.095         	4.083
MS.359         	15.065         	4.198
MS.360         	15.035         	4.103
MS.361         	15.005         	3.962
MS.362         	14.975         	3.994
MS.363         	14.945         	4.111
MS.364         	14.915         	3.944
MS.365         	14.885         	4.016
MS.366         	14.855         	3.936
MS.367         	14.825         	3.946
MS.368         	14.797         	3.976
MS.369         	14.767         	4.018
MS.370         	14.737         	3.996
MS.371         	14.707         	3.853
MS.372         	14.677         	3.74
MS.373         	14.65          	3.599
MS.374         	14.62          	3.702
MS.375         	14.59          	3.758
MS.376         	14.562         	3.434
MS.377         	14.532         	3.736
MS.378         	14.502         	3.422
MS.379         	14.475         	3.432
MS.380         	14.445         	3.341
MS.381         	14.417         	3.378
MS.382         	14.387         	3.331
MS.383         	14.36          	3.482
MS.384         	14.33          	3.42
MS.385         	14.302         	3.182
MS.386         	14.273         	2.79
MS.387         	14.245         	3.352
MS.388         	14.217         	2.842
MS.389         	14.188         	3.315
MS.390         	14.16          	3.19
MS.391         	14.132         	3.271
MS.392         	14.102         	3.07
MS.393         	14.075         	3.116
MS.394         	14.047         	3.245
MS.395         	14.017         	3.021
MS.396         	13.99          	3.074
MS.397         	13.962         	2.61
MS.398         	13.935         	2.824
MS.399         	13.907         	3.049
MS.400         	13.88          	2.874
MS.401         	13.852         	2.626
MS.402         	13.825         	2.616
MS.403         	13.795         	2.701
MS.404         	13.767         	2.608
MS.405         	13.74          	2.673
MS.406         	13.712         	2.673
MS.407         	13.685         	2.542
MS.408         	13.66          	2.369
MS.409         	13.632         	2.373
MS.410         	13.605         	2.328
MS.411         	13.577         	2.224
MS.412         	13.55          	2.512
MS.413         	13.523         	2.538
MS.414         	13.495         	2.228
MS.415         	13.47          	2.24
MS.416         	13.443         	2.272
MS.417         	13.415         	2
MS.418         	13.387         	2.338
MS.419         	13.362         	2.141
MS.420         	13.335         	2.175
MS.421         	13.307         	2.002
MS.422         	13.282         	2.201
MS.423         	13.255         	2.139
MS.424         	13.227         	2.25
MS.425         	13.202         	2.288
MS.426         	13.175         	2
MS.427         	13.15          	1.783
MS.428         	13.122         	1.815
MS.429         	13.097         	1.829
MS.430         	13.07          	2.056
MS.431         	13.045         	1.915
MS.432         	13.017         	1.549
MS.433         	12.992         	1.722
MS.434         	12.967         	1.722
MS.435         	12.94          	1.704
MS.436         	12.915         	1.855
MS.437         	12.89          	1.791
MS.438         	12.862         	1.529
MS.439         	12.837         	1.595
MS.440         	12.812         	1.579
MS.441         	12.787         	1.732
MS.442         	12.76          	1.684
MS.443         	12.735         	1.627
MS.444         	12.71          	1.495
MS.445         	12.685         	1.345
MS.446         	12.66          	1.458
MS.447         	12.635         	1.293
MS.448         	12.608         	1.432
MS.449         	12.582         	1.319
MS.450         	12.557         	1.275
MS.451         	12.532         	1.192
MS.452         	12.507         	1.239
MS.453         	12.483         	1.18
MS.454         	12.457         	1.227
MS.455         	12.432         	1.225
MS.456         	12.407         	1.311
MS.457         	12.385         	1.172
MS.458         	12.36          	0.999
MS.459         	12.335         	1.068
MS.460         	12.31          	1.086
MS.461         	12.285         	0.929
MS.462         	12.26          	1.082
MS.463         	12.235         	1.023
MS.464         	12.212         	0.965
MS.465         	12.188         	1.035
MS.466         	12.162         	0.953
MS.467         	12.137         	0.975
MS.468         	12.115         	0.951
MS.469         	12.09          	0.79
MS.470         	12.065         	0.886
MS.471         	12.042         	0.812
MS.472         	12.017         	0.852
MS.473         	11.995         	0.792
MS.474         	11.97          	0.792
MS.475         	11.945         	0.866
MS.476         	11.922         	0.796
MS.477         	11.898         	0.824
MS.478         	11.875         	0.79
MS.479         	11.85          	0.773
MS.480         	11.827         	0.703
MS.481         	11.802         	0.747
MS.482         	11.78          	0.711
MS.483         	11.757         	0.701
MS.484         	11.733         	0.719
MS.485         	11.71          	0.693
MS.486         	11.685         	0.719
MS.487         	11.662         	0.655
MS.488         	11.64          	0.669
MS.489         	11.615         	0.661
MS.490         	11.592         	0.61
MS.491         	11.57          	0.596
MS.492         	11.547         	0.606
MS.493         	11.523         	0.554
MS.494         	11.5           	0.661
MS.495         	11.477         	0.655
MS.496         	11.455         	0.616
MS.497         	11.432         	0.562
MS.498         	11.41          	0.512
