File:              	C:\Qtrac\Data\Daniel M Sørensen\MScan multicentre study\Data from centres\Oulu\Processed data\OUHC01125B.QZD
Name:              	FL.OUL.NC.6.1
Protocol:          	MSCAN-R2
Date:              	25/11/20
Start time:        	09:32:42
Age:               	34
Sex:               	M
Temperature:       	34,8
S/R sites:         	ADM
NC/disease:        	NC
Operator:          	MK
Comments:
M-SCAN DATA (1.8-0.0m)
Scanpts: 6, 15, 472, 503
Stim. (mA)     	Amp. (mV)
MS.1           	28.5           	11.154
MS.2           	28.5           	11.146
MS.3           	28.442         	11.132
MS.4           	28.385         	11.146
MS.5           	28.33          	11.126
MS.6           	28.272         	11.144
MS.7           	28.217         	11.14
MS.8           	28.16          	11.11
MS.9           	28.105         	11.112
MS.10          	28.047         	11.102
MS.11          	27.993         	11.15
MS.12          	27.935         	11.13
MS.13          	27.88          	11.132
MS.14          	27.825         	11.084
MS.15          	27.767         	11.102
MS.16          	27.712         	11.078
MS.17          	27.657         	11.11
MS.18          	27.602         	11.048
MS.19          	27.547         	11.056
MS.20          	27.493         	11.056
MS.21          	27.438         	11.058
MS.22          	27.382         	11.052
MS.23          	27.327         	11.036
MS.24          	27.272         	11.05
MS.25          	27.217         	11.001
MS.26          	27.165         	11.04
MS.27          	27.11          	10.999
MS.28          	27.055         	11.003
MS.29          	27.002         	10.977
MS.30          	26.948         	10.983
MS.31          	26.895         	10.983
MS.32          	26.84          	10.959
MS.33          	26.787         	10.959
MS.34          	26.733         	10.973
MS.35          	26.68          	10.961
MS.36          	26.627         	10.987
MS.37          	26.573         	10.953
MS.38          	26.52          	10.947
MS.39          	26.467         	10.955
MS.40          	26.415         	10.945
MS.41          	26.362         	10.876
MS.42          	26.31          	10.778
MS.43          	26.257         	10.842
MS.44          	26.205         	10.653
MS.45          	26.153         	10.748
MS.46          	26.1           	10.812
MS.47          	26.047         	10.818
MS.48          	25.995         	10.735
MS.49          	25.942         	10.709
MS.50          	25.89          	10.663
MS.51          	25.84          	10.594
MS.52          	25.787         	10.627
MS.53          	25.737         	10.619
MS.54          	25.685         	10.693
MS.55          	25.632         	10.53
MS.56          	25.582         	10.538
MS.57          	25.532         	10.542
MS.58          	25.48          	10.411
MS.59          	25.43          	10.502
MS.60          	25.377         	10.449
MS.61          	25.327         	10.441
MS.62          	25.278         	10.466
MS.63          	25.227         	10.345
MS.64          	25.177         	10.441
MS.65          	25.125         	10.413
MS.66          	25.075         	10.298
MS.67          	25.025         	10.329
MS.68          	24.975         	10.137
MS.69          	24.925         	10.365
MS.70          	24.875         	10.099
MS.71          	24.827         	9.984
MS.72          	24.778         	10.246
MS.73          	24.727         	10.21
MS.74          	24.677         	9.92
MS.75          	24.627         	9.791
MS.76          	24.58          	9.892
MS.77          	24.53          	9.855
MS.78          	24.48          	9.811
MS.79          	24.432         	9.871
MS.80          	24.382         	9.527
MS.81          	24.335         	9.595
MS.82          	24.285         	9.676
MS.83          	24.237         	9.648
MS.84          	24.19          	9.694
MS.85          	24.14          	9.604
MS.86          	24.092         	9.511
MS.87          	24.045         	9.491
MS.88          	23.997         	9.602
MS.89          	23.948         	9.563
MS.90          	23.9           	9.521
MS.91          	23.852         	9.388
MS.92          	23.805         	9.422
MS.93          	23.757         	9.33
MS.94          	23.71          	9.287
MS.95          	23.663         	9.265
MS.96          	23.615         	9.1
MS.97          	23.567         	9.154
MS.98          	23.52          	9.168
MS.99          	23.475         	9.072
MS.100         	23.427         	9.05
MS.101         	23.38          	9.146
MS.102         	23.335         	9.062
MS.103         	23.288         	8.917
MS.104         	23.24          	8.852
MS.105         	23.195         	8.953
MS.106         	23.147         	8.741
MS.107         	23.102         	8.651
MS.108         	23.055         	8.848
MS.109         	23.01          	8.592
MS.110         	22.962         	8.49
MS.111         	22.917         	8.431
MS.112         	22.872         	8.459
MS.113         	22.825         	8.441
MS.114         	22.78          	8.393
MS.115         	22.735         	8.369
MS.116         	22.69          	8.266
MS.117         	22.645         	8.218
MS.118         	22.6           	8.323
MS.119         	22.555         	8.248
MS.120         	22.507         	8.133
MS.121         	22.465         	8.182
MS.122         	22.42          	8.059
MS.123         	22.375         	8.02
MS.124         	22.33          	7.95
MS.125         	22.285         	7.972
MS.126         	22.24          	7.805
MS.127         	22.195         	8.061
MS.128         	22.153         	8.018
MS.129         	22.108         	7.966
MS.130         	22.062         	7.684
MS.131         	22.02          	7.845
MS.132         	21.975         	7.74
MS.133         	21.93          	7.799
MS.134         	21.887         	7.791
MS.135         	21.842         	7.738
MS.136         	21.8           	7.618
MS.137         	21.757         	7.44
MS.138         	21.712         	7.473
MS.139         	21.67          	7.561
MS.140         	21.625         	7.489
MS.141         	21.583         	7.342
MS.142         	21.54          	7.33
MS.143         	21.497         	7.462
MS.144         	21.455         	7.295
MS.145         	21.41          	7.249
MS.146         	21.368         	7.233
MS.147         	21.325         	7.146
MS.148         	21.282         	7.126
MS.149         	21.24          	7.088
MS.150         	21.198         	6.898
MS.151         	21.155         	7.154
MS.152         	21.112         	6.792
MS.153         	21.07          	6.703
MS.154         	21.03          	6.737
MS.155         	20.987         	6.544
MS.156         	20.945         	6.53
MS.157         	20.903         	6.355
MS.158         	20.862         	6.647
MS.159         	20.82          	6.32
MS.160         	20.778         	6.181
MS.161         	20.737         	6.049
MS.162         	20.695         	6.248
MS.163         	20.655         	5.843
MS.164         	20.612         	5.986
MS.165         	20.573         	6.051
MS.166         	20.53          	6.117
MS.167         	20.49          	5.746
MS.168         	20.448         	5.821
MS.169         	20.407         	5.895
MS.170         	20.368         	5.573
MS.171         	20.325         	5.581
MS.172         	20.285         	5.843
MS.173         	20.245         	5.666
MS.174         	20.205         	5.551
MS.175         	20.165         	5.563
MS.176         	20.125         	5.477
MS.177         	20.083         	5.299
MS.178         	20.042         	5.267
MS.179         	20.002         	5.321
MS.180         	19.962         	5.452
MS.181         	19.922         	4.906
MS.182         	19.885         	4.86
MS.183         	19.845         	5.08
MS.184         	19.805         	5.007
MS.185         	19.765         	4.989
MS.186         	19.725         	4.977
MS.187         	19.685         	4.854
MS.188         	19.647         	4.894
MS.189         	19.608         	4.874
MS.190         	19.567         	4.844
MS.191         	19.53          	4.804
MS.192         	19.49          	4.759
MS.193         	19.45          	4.645
MS.194         	19.413         	4.757
MS.195         	19.372         	4.252
MS.196         	19.335         	4.796
MS.197         	19.295         	4.22
MS.198         	19.257         	4.572
MS.199         	19.22          	4.52
MS.200         	19.18          	4.149
MS.201         	19.142         	4.518
MS.202         	19.105         	4.113
MS.203         	19.065         	4.141
MS.204         	19.028         	3.99
MS.205         	18.99          	3.998
MS.206         	18.952         	3.936
MS.207         	18.915         	4.04
MS.208         	18.875         	3.869
MS.209         	18.837         	3.883
MS.210         	18.8           	3.732
MS.211         	18.762         	3.672
MS.212         	18.725         	3.756
MS.213         	18.688         	3.706
MS.214         	18.65          	3.378
MS.215         	18.615         	3.577
MS.216         	18.577         	3.434
MS.217         	18.54          	3.478
MS.218         	18.503         	3.519
MS.219         	18.465         	3.337
MS.220         	18.427         	3.325
MS.221         	18.392         	3.015
MS.222         	18.355         	3.1
MS.223         	18.317         	3.201
MS.224         	18.282         	3.13
MS.225         	18.245         	3.098
MS.226         	18.21          	2.808
MS.227         	18.172         	3.174
MS.228         	18.135         	3.06
MS.229         	18.1           	3.005
MS.230         	18.062         	2.955
MS.231         	18.028         	2.81
MS.232         	17.993         	2.586
MS.233         	17.955         	2.852
MS.234         	17.92          	2.959
MS.235         	17.885         	2.53
MS.236         	17.847         	2.344
MS.237         	17.812         	2.602
MS.238         	17.778         	2.564
MS.239         	17.743         	2.268
MS.240         	17.705         	2.113
MS.241         	17.67          	2.355
MS.242         	17.635         	2.417
MS.243         	17.6           	2.099
MS.244         	17.565         	2.032
MS.245         	17.53          	2.191
MS.246         	17.495         	1.99
MS.247         	17.46          	1.95
MS.248         	17.425         	1.996
MS.249         	17.39          	1.984
MS.250         	17.355         	1.932
MS.251         	17.32          	1.503
MS.252         	17.285         	1.795
MS.253         	17.253         	1.799
MS.254         	17.217         	1.746
MS.255         	17.182         	1.776
MS.256         	17.147         	1.388
MS.257         	17.115         	1.325
MS.258         	17.08          	1.71
MS.259         	17.045         	1.474
MS.260         	17.012         	1.341
MS.261         	16.977         	1.215
MS.262         	16.945         	1.299
MS.263         	16.91          	1.305
MS.264         	16.875         	1.327
MS.265         	16.842         	1.259
MS.266         	16.81          	1.593
MS.267         	16.775         	1.206
MS.268         	16.743         	1.384
MS.269         	16.708         	1.321
MS.270         	16.675         	1.136
MS.271         	16.642         	1.559
MS.272         	16.608         	1.057
MS.273         	16.575         	1.096
MS.274         	16.542         	0.997
MS.275         	16.51          	1.051
MS.276         	16.475         	1.055
MS.277         	16.442         	0.858
MS.278         	16.41          	0.995
MS.279         	16.378         	1.061
MS.280         	16.345         	1.027
MS.281         	16.312         	1.015
MS.282         	16.28          	0.838
MS.283         	16.247         	0.765
MS.284         	16.215         	0.86
MS.285         	16.182         	0.916
MS.286         	16.15          	0.87
MS.287         	16.118         	0.802
MS.288         	16.085         	0.836
MS.289         	16.052         	0.824
MS.290         	16.02          	0.757
MS.291         	15.99          	0.786
MS.292         	15.957         	0.753
MS.293         	15.925         	0.8
MS.294         	15.892         	0.784
MS.295         	15.862         	0.781
MS.296         	15.83          	0.749
MS.297         	15.797         	0.534
MS.298         	15.767         	0.784
MS.299         	15.735         	0.808
MS.300         	15.705         	0.749
MS.301         	15.672         	0.487
MS.302         	15.64          	0.493
MS.303         	15.61          	0.495
MS.304         	15.577         	0.497
MS.305         	15.547         	0.485
MS.306         	15.517         	0.487
MS.307         	15.485         	0.747
MS.308         	15.455         	0.483
MS.309         	15.422         	0.483
MS.310         	15.392         	0.365
MS.311         	15.362         	0.495
MS.312         	15.332         	0.403
MS.313         	15.3           	0.483
MS.314         	15.27          	0.483
MS.315         	15.24          	0.487
MS.316         	15.21          	0.435
MS.317         	15.18          	0.369
MS.318         	15.148         	0.316
MS.319         	15.117         	0.314
MS.320         	15.087         	0.365
MS.321         	15.057         	0.367
MS.322         	15.027         	0.365
MS.323         	14.997         	0.32
MS.324         	14.967         	0.433
MS.325         	14.938         	0.298
MS.326         	14.907         	0.318
MS.327         	14.877         	0.246
MS.328         	14.847         	0.316
MS.329         	14.82          	0.314
MS.330         	14.79          	0.246
MS.331         	14.76          	0.244
MS.332         	14.73          	0.187
MS.333         	14.7           	0.189
MS.334         	14.672         	0.246
MS.335         	14.642         	0.189
MS.336         	14.612         	0.262
MS.337         	14.582         	0.246
MS.338         	14.555         	0.189
MS.339         	14.525         	0.187
MS.340         	14.497         	0.189
MS.341         	14.467         	0.189
MS.342         	14.438         	0.189
MS.343         	14.41          	0.189
MS.344         	14.38          	0.187
MS.345         	14.352         	0.185
MS.346         	14.322         	0.191
MS.347         	14.295         	0.187
MS.348         	14.267         	0.139
MS.349         	14.237         	0.189
MS.350         	14.21          	0.189
MS.351         	14.18          	0.139
MS.352         	14.153         	0.189
MS.353         	14.125         	0.095
MS.354         	14.095         	0.165
MS.355         	14.068         	0.095
MS.356         	14.04          	0.024
MS.357         	14.012         	0.117
MS.358         	13.985         	0.022
MS.359         	13.955         	0.115
MS.360         	13.927         	0.024
MS.361         	13.9           	0.119
MS.362         	13.872         	0.022
MS.363         	13.845         	0.024
MS.364         	13.818         	0.022
MS.365         	13.79          	0.083
MS.366         	13.762         	0.028
MS.367         	13.735         	0.083
MS.368         	13.707         	0.03
MS.369         	13.68          	0.03
MS.370         	13.653         	0.03
MS.371         	13.625         	0.028
MS.372         	13.597         	0.028
MS.373         	13.57          	0.026
MS.374         	13.542         	0.026
MS.375         	13.517         	0.026
MS.376         	13.49          	0.028
MS.377         	13.462         	0.024
MS.378         	13.435         	0.024
MS.379         	13.407         	0.026
MS.380         	13.382         	0.026
MS.381         	13.355         	0.028
MS.382         	13.327         	0.024
MS.383         	13.302         	0.024
MS.384         	13.275         	0.028
MS.385         	13.25          	0.026
MS.386         	13.222         	0.028
MS.387         	13.195         	0.028
MS.388         	13.17          	0.028
MS.389         	13.142         	0.028
MS.390         	13.117         	0.026
MS.391         	13.09          	0.026
MS.392         	13.065         	0.028
MS.393         	13.037         	0.028
MS.394         	13.012         	0.024
MS.395         	12.987         	0.03
MS.396         	12.96          	0.03
MS.397         	12.935         	0.026
MS.398         	12.907         	0.026
MS.399         	12.882         	0.028
MS.400         	12.858         	0.024
MS.401         	12.832         	0.008
MS.402         	12.805         	0.024
MS.403         	12.78          	0.03
MS.404         	12.755         	0.026
MS.405         	12.73          	0.026
MS.406         	12.705         	0.018
MS.407         	12.677         	0.026
MS.408         	12.653         	0.022
MS.409         	12.627         	0.028
MS.410         	12.602         	0.028
MS.411         	12.577         	0.02
MS.412         	12.552         	0.028
MS.413         	12.528         	0.028
MS.414         	12.502         	0.026
MS.415         	12.477         	0.022
MS.416         	12.452         	0.024
MS.417         	12.427         	0.022
MS.418         	12.403         	0.014
MS.419         	12.377         	0.024
MS.420         	12.352         	0.016
MS.421         	12.327         	0.018
MS.422         	12.302         	0.014
MS.423         	12.28          	0.016
MS.424         	12.255         	0.024
MS.425         	12.23          	0.022
MS.426         	12.205         	0.014
MS.427         	12.182         	0.014
MS.428         	12.157         	0.016
MS.429         	12.132         	0.018
MS.430         	12.108         	0.016
MS.431         	12.085         	0.016
MS.432         	12.06          	0.014
MS.433         	12.035         	0.012
MS.434         	12.012         	0.014
MS.435         	11.988         	0.016
MS.436         	11.965         	0.014
MS.437         	11.94          	0.014
MS.438         	11.917         	0.018
MS.439         	11.892         	0.014
MS.440         	11.867         	0.014
MS.441         	11.845         	0.012
MS.442         	11.822         	0.016
MS.443         	11.797         	0.016
MS.444         	11.775         	0.014
MS.445         	11.75          	0.016
MS.446         	11.727         	0.014
MS.447         	11.702         	0.016
MS.448         	11.68          	0.014
MS.449         	11.657         	0.014
MS.450         	11.632         	0.012
MS.451         	11.61          	0.016
MS.452         	11.587         	0.014
MS.453         	11.565         	0.014
MS.454         	11.54          	0.016
MS.455         	11.517         	0.014
MS.456         	11.495         	0.014
MS.457         	11.472         	0.016
MS.458         	11.45          	0.016
MS.459         	11.425         	0.014
MS.460         	11.403         	0.012
MS.461         	11.38          	0.016
MS.462         	11.358         	0.014
MS.463         	11.335         	0.016
MS.464         	11.312         	0.014
MS.465         	11.29          	0.01
MS.466         	11.267         	0.018
MS.467         	11.245         	0.012
MS.468         	11.222         	0.014
MS.469         	11.2           	0.016
MS.470         	11.177         	0.01
MS.471         	11.155         	0.012
MS.472         	11.132         	0.012
MS.473         	11.11          	0.012
MS.474         	11.087         	0.014
MS.475         	11.068         	0.012
MS.476         	11.045         	0.012
MS.477         	11.023         	0.016
MS.478         	11             	0.014
MS.479         	10.977         	0.014
MS.480         	10.955         	0.014
MS.481         	10.935         	0.012
MS.482         	10.912         	0.012
MS.483         	10.89          	0.014
MS.484         	10.87          	0.012
MS.485         	10.847         	0.01
MS.486         	10.825         	0.012
MS.487         	10.805         	0.014
MS.488         	10.782         	0.012
MS.489         	10.76          	0.01
MS.490         	10.74          	0.014
MS.491         	10.717         	0.014
MS.492         	10.698         	0.014
MS.493         	10.675         	0.012
MS.494         	10.653         	0.012
MS.495         	10.632         	0.014
MS.496         	10.61          	0.014
MS.497         	10.59          	0.01
MS.498         	10.57          	0.014
MS.499         	10.547         	0.012
