File:              	C:\Qtrac\Data\Daniel M Sørensen\MScan multicentre study\Data from centres\Oulu\Processed data\OUHC01105B.QZD
Name:              	FL.OUL.NC.5.1
Protocol:          	MSCAN-R2
Date:              	5/11/20
Start time:        	10:59:06
Age:               	61
Sex:               	M
Temperature:       	44,3
S/R sites:         	ADM
NC/disease:        	NC
Operator:          	MK
Comments:
M-SCAN DATA (3-0.0m)
Scanpts: 3, 9, 437, 443
Stim. (mA)     	Amp. (mV)
MS.1           	38.5           	10.512
MS.2           	38.5           	10.492
MS.3           	38.345         	10.484
MS.4           	38.27          	10.484
MS.5           	38.192         	10.476
MS.6           	38.118         	10.451
MS.7           	38.04          	10.48
MS.8           	37.965         	10.464
MS.9           	37.89          	10.47
MS.10          	37.812         	10.466
MS.11          	37.737         	10.468
MS.12          	37.662         	10.464
MS.13          	37.587         	10.433
MS.14          	37.513         	10.413
MS.15          	37.438         	10.351
MS.16          	37.362         	10.453
MS.17          	37.287         	10.468
MS.18          	37.212         	10.48
MS.19          	37.138         	10.377
MS.20          	37.065         	10.349
MS.21          	36.99          	10.383
MS.22          	36.917         	10.321
MS.23          	36.842         	10.391
MS.24          	36.77          	10.202
MS.25          	36.695         	10.48
MS.26          	36.622         	10.375
MS.27          	36.55          	10.157
MS.28          	36.475         	10.288
MS.29          	36.403         	10.351
MS.30          	36.33          	10.353
MS.31          	36.257         	10.147
MS.32          	36.185         	10.329
MS.33          	36.112         	10.151
MS.34          	36.04          	10.139
MS.35          	35.97          	10.125
MS.36          	35.897         	10.312
MS.37          	35.825         	10.137
MS.38          	35.752         	10.081
MS.39          	35.682         	10.097
MS.40          	35.61          	10.091
MS.41          	35.54          	10.155
MS.42          	35.47          	10.071
MS.43          	35.397         	10.087
MS.44          	35.327         	10.029
MS.45          	35.257         	10.057
MS.46          	35.185         	10.071
MS.47          	35.115         	9.994
MS.48          	35.045         	10.039
MS.49          	34.975         	9.938
MS.50          	34.905         	9.984
MS.51          	34.835         	9.968
MS.52          	34.767         	9.952
MS.53          	34.697         	9.948
MS.54          	34.627         	9.783
MS.55          	34.557         	9.873
MS.56          	34.49          	9.9
MS.57          	34.42          	9.795
MS.58          	34.353         	9.91
MS.59          	34.282         	9.803
MS.60          	34.215         	9.833
MS.61          	34.147         	9.803
MS.62          	34.077         	9.831
MS.63          	34.01          	9.773
MS.64          	33.943         	9.767
MS.65          	33.875         	9.636
MS.66          	33.807         	9.652
MS.67          	33.74          	9.638
MS.68          	33.673         	9.716
MS.69          	33.605         	9.716
MS.70          	33.537         	9.632
MS.71          	33.47          	9.521
MS.72          	33.403         	9.686
MS.73          	33.337         	9.495
MS.74          	33.27          	9.42
MS.75          	33.202         	9.628
MS.76          	33.138         	9.479
MS.77          	33.07          	9.378
MS.78          	33.005         	9.533
MS.79          	32.94          	9.412
MS.80          	32.872         	9.388
MS.81          	32.807         	9.442
MS.82          	32.743         	9.432
MS.83          	32.677         	9.402
MS.84          	32.61          	9.394
MS.85          	32.545         	9.372
MS.86          	32.48          	9.392
MS.87          	32.415         	9.374
MS.88          	32.353         	9.164
MS.89          	32.287         	9.42
MS.90          	32.222         	9.07
MS.91          	32.157         	9.122
MS.92          	32.092         	9.32
MS.93          	32.03          	9.215
MS.94          	31.965         	9.318
MS.95          	31.903         	8.83
MS.96          	31.837         	9.257
MS.97          	31.775         	9.034
MS.98          	31.71          	8.852
MS.99          	31.647         	8.935
MS.100         	31.585         	8.727
MS.101         	31.52          	9.154
MS.102         	31.457         	9.102
MS.103         	31.395         	8.737
MS.104         	31.332         	8.939
MS.105         	31.27          	8.933
MS.106         	31.207         	8.693
MS.107         	31.145         	8.824
MS.108         	31.082         	8.705
MS.109         	31.02          	8.772
MS.110         	30.957         	8.762
MS.111         	30.897         	8.822
MS.112         	30.835         	8.798
MS.113         	30.772         	8.512
MS.114         	30.712         	8.683
MS.115         	30.65          	8.476
MS.116         	30.59          	8.588
MS.117         	30.528         	8.737
MS.118         	30.467         	8.627
MS.119         	30.407         	8.653
MS.120         	30.345         	8.647
MS.121         	30.285         	8.613
MS.122         	30.225         	8.492
MS.123         	30.165         	8.419
MS.124         	30.105         	8.6
MS.125         	30.042         	8.391
MS.126         	29.983         	8.278
MS.127         	29.925         	8.264
MS.128         	29.865         	8.415
MS.129         	29.805         	8.282
MS.130         	29.745         	8.353
MS.131         	29.685         	8.264
MS.132         	29.625         	8.314
MS.133         	29.567         	8.226
MS.134         	29.507         	8.095
MS.135         	29.45          	8.206
MS.136         	29.39          	8.143
MS.137         	29.332         	8.171
MS.138         	29.272         	8.129
MS.139         	29.215         	8.051
MS.140         	29.155         	7.988
MS.141         	29.097         	8.282
MS.142         	29.04          	7.942
MS.143         	28.983         	8.133
MS.144         	28.922         	7.976
MS.145         	28.865         	7.861
MS.146         	28.807         	8.101
MS.147         	28.75          	7.869
MS.148         	28.692         	7.801
MS.149         	28.635         	7.96
MS.150         	28.577         	7.471
MS.151         	28.522         	7.847
MS.152         	28.465         	7.668
MS.153         	28.407         	7.662
MS.154         	28.35          	7.761
MS.155         	28.295         	7.422
MS.156         	28.237         	7.599
MS.157         	28.18          	7.356
MS.158         	28.125         	7.15
MS.159         	28.067         	7.283
MS.160         	28.012         	7.178
MS.161         	27.957         	7.092
MS.162         	27.9           	7.418
MS.163         	27.845         	7.11
MS.164         	27.79          	7.102
MS.165         	27.735         	7.118
MS.166         	27.677         	6.818
MS.167         	27.622         	6.963
MS.168         	27.567         	6.991
MS.169         	27.512         	6.868
MS.170         	27.457         	7.108
MS.171         	27.403         	6.733
MS.172         	27.347         	6.804
MS.173         	27.292         	6.999
MS.174         	27.24          	6.836
MS.175         	27.185         	6.729
MS.176         	27.13          	6.61
MS.177         	27.075         	6.355
MS.178         	27.022         	6.586
MS.179         	26.967         	6.514
MS.180         	26.915         	6.322
MS.181         	26.86          	6.474
MS.182         	26.807         	6.167
MS.183         	26.752         	6
MS.184         	26.7           	6.478
MS.185         	26.647         	6.016
MS.186         	26.592         	6.026
MS.187         	26.54          	6.2
MS.188         	26.487         	5.595
MS.189         	26.435         	5.849
MS.190         	26.382         	5.708
MS.191         	26.327         	5.746
MS.192         	26.275         	5.7
MS.193         	26.222         	5.613
MS.194         	26.17          	5.708
MS.195         	26.12          	5.561
MS.196         	26.067         	5.615
MS.197         	26.015         	5.906
MS.198         	25.962         	5.188
MS.199         	25.91          	5.309
MS.200         	25.86          	5.201
MS.201         	25.807         	5.436
MS.202         	25.755         	5.626
MS.203         	25.705         	5.376
MS.204         	25.653         	5.08
MS.205         	25.602         	5.346
MS.206         	25.55          	4.81
MS.207         	25.5           	5.031
MS.208         	25.448         	5.001
MS.209         	25.397         	4.981
MS.210         	25.347         	5.094
MS.211         	25.295         	4.931
MS.212         	25.245         	4.892
MS.213         	25.195         	5.094
MS.214         	25.145         	4.534
MS.215         	25.095         	4.755
MS.216         	25.045         	4.888
MS.217         	24.995         	4.729
MS.218         	24.945         	4.802
MS.219         	24.895         	4.326
MS.220         	24.845         	4.179
MS.221         	24.795         	4.538
MS.222         	24.745         	4.103
MS.223         	24.698         	4.326
MS.224         	24.647         	4.008
MS.225         	24.597         	4.27
MS.226         	24.547         	3.867
MS.227         	24.5           	3.738
MS.228         	24.45          	4.048
MS.229         	24.403         	3.595
MS.230         	24.352         	3.672
MS.231         	24.305         	3.738
MS.232         	24.255         	3.605
MS.233         	24.207         	3.779
MS.234         	24.16          	3.452
MS.235         	24.11          	3.758
MS.236         	24.062         	3.756
MS.237         	24.015         	3.331
MS.238         	23.967         	3.668
MS.239         	23.917         	3.352
MS.240         	23.87          	3.464
MS.241         	23.823         	3.396
MS.242         	23.775         	3.281
MS.243         	23.727         	3.744
MS.244         	23.68          	3.289
MS.245         	23.632         	3.325
MS.246         	23.585         	3.283
MS.247         	23.54          	3.255
MS.248         	23.493         	3.352
MS.249         	23.445         	2.957
MS.250         	23.397         	3.269
MS.251         	23.352         	2.995
MS.252         	23.305         	3.047
MS.253         	23.257         	3.15
MS.254         	23.212         	2.723
MS.255         	23.165         	2.927
MS.256         	23.12          	2.653
MS.257         	23.073         	2.713
MS.258         	23.028         	3.088
MS.259         	22.98          	2.705
MS.260         	22.935         	2.935
MS.261         	22.89          	2.931
MS.262         	22.842         	2.59
MS.263         	22.797         	2.751
MS.264         	22.752         	2.516
MS.265         	22.707         	2.582
MS.266         	22.66          	2.457
MS.267         	22.615         	2.427
MS.268         	22.57          	2.592
MS.269         	22.525         	2.383
MS.270         	22.48          	2.363
MS.271         	22.435         	2.185
MS.272         	22.39          	2.22
MS.273         	22.345         	2.411
MS.274         	22.302         	2.26
MS.275         	22.257         	2.423
MS.276         	22.212         	2.228
MS.277         	22.167         	2.272
MS.278         	22.125         	2.393
MS.279         	22.08          	2.167
MS.280         	22.035         	2.201
MS.281         	21.993         	2.002
MS.282         	21.948         	2.034
MS.283         	21.903         	1.944
MS.284         	21.86          	2.149
MS.285         	21.815         	1.958
MS.286         	21.772         	2.238
MS.287         	21.73          	1.698
MS.288         	21.685         	1.817
MS.289         	21.642         	1.702
MS.290         	21.6           	1.688
MS.291         	21.555         	1.843
MS.292         	21.512         	1.611
MS.293         	21.47          	1.569
MS.294         	21.427         	1.499
MS.295         	21.385         	1.432
MS.296         	21.342         	1.543
MS.297         	21.3           	1.42
MS.298         	21.257         	1.47
MS.299         	21.215         	1.627
MS.300         	21.172         	1.265
MS.301         	21.13          	1.321
MS.302         	21.087         	1.327
MS.303         	21.045         	1.182
MS.304         	21.002         	1.043
MS.305         	20.96          	1.235
MS.306         	20.92          	1.168
MS.307         	20.877         	1.1
MS.308         	20.835         	1.144
MS.309         	20.795         	1.019
MS.310         	20.752         	1.041
MS.311         	20.71          	0.927
MS.312         	20.67          	1.025
MS.313         	20.627         	0.985
MS.314         	20.587         	0.788
MS.315         	20.545         	0.943
MS.316         	20.505         	0.896
MS.317         	20.462         	0.882
MS.318         	20.422         	0.906
MS.319         	20.382         	0.81
MS.320         	20.342         	0.777
MS.321         	20.3           	0.832
MS.322         	20.26          	0.868
MS.323         	20.22          	0.636
MS.324         	20.18          	0.715
MS.325         	20.14          	0.681
MS.326         	20.097         	0.624
MS.327         	20.057         	0.602
MS.328         	20.017         	0.576
MS.329         	19.977         	0.481
MS.330         	19.938         	0.592
MS.331         	19.897         	0.566
MS.332         	19.86          	0.493
MS.333         	19.82          	0.548
MS.334         	19.78          	0.495
MS.335         	19.74          	0.548
MS.336         	19.7           	0.399
MS.337         	19.663         	0.433
MS.338         	19.622         	0.544
MS.339         	19.583         	0.431
MS.340         	19.542         	0.469
MS.341         	19.505         	0.375
MS.342         	19.465         	0.469
MS.343         	19.427         	0.425
MS.344         	19.387         	0.379
MS.345         	19.35          	0.457
MS.346         	19.31          	0.433
MS.347         	19.272         	0.427
MS.348         	19.233         	0.363
MS.349         	19.195         	0.435
MS.350         	19.157         	0.383
MS.351         	19.118         	0.439
MS.352         	19.08          	0.417
MS.353         	19.042         	0.328
MS.354         	19.005         	0.363
MS.355         	18.965         	0.405
MS.356         	18.927         	0.336
MS.357         	18.89          	0.314
MS.358         	18.852         	0.348
MS.359         	18.815         	0.363
MS.360         	18.778         	0.326
MS.361         	18.74          	0.336
MS.362         	18.702         	0.338
MS.363         	18.665         	0.3
MS.364         	18.628         	0.357
MS.365         	18.59          	0.304
MS.366         	18.552         	0.318
MS.367         	18.517         	0.332
MS.368         	18.48          	0.318
MS.369         	18.442         	0.294
MS.370         	18.405         	0.326
MS.371         	18.37          	0.318
MS.372         	18.333         	0.332
MS.373         	18.295         	0.302
MS.374         	18.26          	0.34
MS.375         	18.222         	0.288
MS.376         	18.185         	0.338
MS.377         	18.15          	0.332
MS.378         	18.112         	0.298
MS.379         	18.077         	0.308
MS.380         	18.04          	0.256
MS.381         	18.005         	0.302
MS.382         	17.97          	0.282
MS.383         	17.932         	0.33
MS.384         	17.897         	0.32
MS.385         	17.862         	0.3
MS.386         	17.825         	0.274
MS.387         	17.79          	0.242
MS.388         	17.755         	0.286
MS.389         	17.72          	0.286
MS.390         	17.685         	0.308
MS.391         	17.647         	0.268
MS.392         	17.612         	0.26
MS.393         	17.577         	0.288
MS.394         	17.542         	0.308
MS.395         	17.507         	0.282
MS.396         	17.472         	0.226
MS.397         	17.438         	0.264
MS.398         	17.403         	0.258
MS.399         	17.368         	0.216
MS.400         	17.333         	0.25
MS.401         	17.3           	0.179
MS.402         	17.265         	0.207
MS.403         	17.23          	0.28
MS.404         	17.195         	0.244
MS.405         	17.163         	0.288
MS.406         	17.128         	0.272
MS.407         	17.092         	0.214
MS.408         	17.057         	0.228
MS.409         	17.025         	0.286
MS.410         	16.99          	0.268
MS.411         	16.958         	0.22
MS.412         	16.922         	0.203
MS.413         	16.89          	0.177
MS.414         	16.855         	0.232
MS.415         	16.823         	0.197
MS.416         	16.788         	0.155
MS.417         	16.755         	0.222
MS.418         	16.72          	0.159
MS.419         	16.688         	0.234
MS.420         	16.655         	0.209
MS.421         	16.62          	0.155
MS.422         	16.587         	0.147
MS.423         	16.555         	0.159
MS.424         	16.522         	0.151
MS.425         	16.487         	0.145
MS.426         	16.455         	0.155
MS.427         	16.422         	0.189
MS.428         	16.39          	0.147
MS.429         	16.358         	0.169
MS.430         	16.325         	0.151
MS.431         	16.292         	0.169
MS.432         	16.26          	0.157
MS.433         	16.227         	0.149
MS.434         	16.195         	0.155
MS.435         	16.163         	0.149
MS.436         	16.13          	0.145
MS.437         	16.097         	0.143
MS.438         	16.065         	0.143
MS.439         	16.032         	0.155
MS.440         	16             	0.145
MS.441         	15.97          	0.151
MS.442         	15.938         	0.147
MS.443         	15.905         	0.137
MS.444         	15.872         	0.145
MS.445         	15.842         	0.139
MS.446         	15.81          	0.147
MS.447         	15.777         	0.143
MS.448         	15.747         	0.141
MS.449         	15.715         	0.143
MS.450         	15.685         	0.137
MS.451         	15.652         	0.173
MS.452         	15.622         	0.139
MS.453         	15.59          	0.143
MS.454         	15.56          	0.155
MS.455         	15.527         	0.153
MS.456         	15.497         	0.139
MS.457         	15.465         	0.139
MS.458         	15.435         	0.153
MS.459         	15.405         	0.137
MS.460         	15.372         	0.149
MS.461         	15.342         	0.135
MS.462         	15.312         	0.151
MS.463         	15.282         	0.151
MS.464         	15.25          	0.147
MS.465         	15.22          	0.143
MS.466         	15.19          	0.145
MS.467         	15.16          	0.137
MS.468         	15.13          	0.149
MS.469         	15.1           	0.143
MS.470         	15.07          	0.147
MS.471         	15.04          	0.143
MS.472         	15.01          	0.139
MS.473         	14.98          	0.145
MS.474         	14.95          	0.137
MS.475         	14.92          	0.147
MS.476         	14.89          	0.147
MS.477         	14.86          	0.143
MS.478         	14.83          	0.139
MS.479         	14.8           	0.143
MS.480         	14.77          	0.145
MS.481         	14.742         	0.151
MS.482         	14.712         	0.143
MS.483         	14.682         	0.147
MS.484         	14.652         	0.155
MS.485         	14.625         	0.141
MS.486         	14.595         	0.153
MS.487         	14.565         	0.155
MS.488         	14.537         	0.147
MS.489         	14.507         	0.149
MS.490         	14.477         	0.151
MS.491         	14.45          	0.149
MS.492         	14.42          	0.151
MS.493         	14.392         	0.147
MS.494         	14.362         	0.141
MS.495         	14.335         	0.149
MS.496         	14.305         	0.153
MS.497         	14.278         	0.149
MS.498         	14.247         	0.151
MS.499         	14.22          	0.151
MS.500         	14.193         	0.155
