File:              	C:\Qtrac\Data\Daniel M Sørensen\MScan multicentre study\Data from centres\Ankara\Processed data\RÇC10113C.QZD
Name:              	TR.ANK.NC.11.1
Protocol:          	MSCAN-R2
Date:              	13/1/21
Start time:        	18:44:04
Age:               	30
Sex:               	F
Temperature:
S/R sites:         	ADM
NC/disease:        	NC
Operator:          	HA
Comments:
M-SCAN DATA (5-1.1m)
Scanpts: 4, 9, 413, 434
Stim. (mA)     	Amp. (mV)
MS.1           	38             	8.945
MS.2           	38             	8.971
MS.3           	38             	8.941
MS.4           	38             	8.977
MS.5           	38             	8.969
MS.6           	38             	9.09
MS.7           	38             	9.001
MS.8           	38             	9.044
MS.9           	38             	9.038
MS.10          	38             	8.965
MS.11          	38             	9.029
MS.12          	38             	8.961
MS.13          	38             	8.814
MS.14          	38             	8.921
MS.15          	38             	9.023
MS.16          	38             	9.042
MS.17          	38             	9.021
MS.18          	38             	9.052
MS.19          	38             	8.884
MS.20          	38             	8.915
MS.21          	38             	8.901
MS.22          	38             	8.979
MS.23          	37.925         	8.985
MS.24          	37.847         	8.919
MS.25          	37.772         	9.058
MS.26          	37.697         	9.034
MS.27          	37.622         	9.064
MS.28          	37.548         	8.963
MS.29          	37.472         	8.844
MS.30          	37.397         	8.921
MS.31          	37.322         	8.737
MS.32          	37.247         	8.965
MS.33          	37.173         	8.945
MS.34          	37.1           	8.719
MS.35          	37.025         	8.886
MS.36          	36.95          	8.85
MS.37          	36.877         	8.961
MS.38          	36.802         	8.983
MS.39          	36.73          	8.834
MS.40          	36.657         	8.878
MS.41          	36.583         	8.806
MS.42          	36.51          	8.888
MS.43          	36.438         	8.663
MS.44          	36.365         	8.675
MS.45          	36.292         	8.745
MS.46          	36.22          	8.659
MS.47          	36.147         	8.824
MS.48          	36.075         	8.675
MS.49          	36.002         	8.711
MS.50          	35.93          	8.792
MS.51          	35.857         	8.794
MS.52          	35.787         	8.613
MS.53          	35.715         	8.796
MS.54          	35.645         	8.611
MS.55          	35.572         	8.629
MS.56          	35.502         	8.949
MS.57          	35.43          	8.834
MS.58          	35.36          	8.679
MS.59          	35.29          	8.733
MS.60          	35.22          	8.482
MS.61          	35.147         	8.312
MS.62          	35.077         	8.488
MS.63          	35.007         	8.373
MS.64          	34.938         	8.395
MS.65          	34.868         	8.288
MS.66          	34.8           	8.226
MS.67          	34.73          	8.415
MS.68          	34.66          	8.453
MS.69          	34.59          	8.3
MS.70          	34.522         	8.359
MS.71          	34.452         	7.99
MS.72          	34.385         	8.397
MS.73          	34.315         	8.459
MS.74          	34.247         	8.441
MS.75          	34.177         	8.085
MS.76          	34.11          	8.298
MS.77          	34.042         	8.286
MS.78          	33.972         	8.407
MS.79          	33.905         	8.057
MS.80          	33.837         	8.403
MS.81          	33.77          	8.407
MS.82          	33.702         	7.994
MS.83          	33.635         	8.264
MS.84          	33.568         	8.47
MS.85          	33.502         	8.234
MS.86          	33.435         	7.974
MS.87          	33.368         	8.153
MS.88          	33.3           	7.92
MS.89          	33.235         	8.107
MS.90          	33.167         	8.03
MS.91          	33.103         	7.982
MS.92          	33.035         	8.099
MS.93          	32.97          	7.877
MS.94          	32.903         	7.924
MS.95          	32.837         	7.595
MS.96          	32.772         	7.672
MS.97          	32.708         	7.603
MS.98          	32.642         	7.624
MS.99          	32.577         	7.241
MS.100         	32.513         	7.446
MS.101         	32.447         	7.555
MS.102         	32.382         	7.462
MS.103         	32.318         	7.315
MS.104         	32.252         	7.37
MS.105         	32.188         	7.557
MS.106         	32.122         	7.509
MS.107         	32.06          	7.69
MS.108         	31.995         	7.662
MS.109         	31.932         	7.537
MS.110         	31.867         	7.714
MS.111         	31.805         	7.338
MS.112         	31.74          	7.283
MS.113         	31.677         	7.281
MS.114         	31.612         	7.366
MS.115         	31.55          	7.346
MS.116         	31.487         	7.396
MS.117         	31.425         	7.356
MS.118         	31.362         	7.168
MS.119         	31.3           	6.927
MS.120         	31.237         	6.971
MS.121         	31.175         	6.782
MS.122         	31.112         	6.882
MS.123         	31.05          	6.907
MS.124         	30.987         	6.691
MS.125         	30.925         	6.78
MS.126         	30.865         	7.259
MS.127         	30.802         	6.911
MS.128         	30.74          	7.084
MS.129         	30.68          	6.693
MS.130         	30.617         	6.796
MS.131         	30.557         	6.647
MS.132         	30.495         	6.764
MS.133         	30.435         	6.794
MS.134         	30.375         	6.659
MS.135         	30.312         	6.729
MS.136         	30.252         	6.661
MS.137         	30.192         	6.814
MS.138         	30.132         	6.403
MS.139         	30.073         	6.433
MS.140         	30.012         	6.476
MS.141         	29.952         	6.534
MS.142         	29.892         	5.91
MS.143         	29.832         	6.071
MS.144         	29.772         	6.24
MS.145         	29.712         	6.051
MS.146         	29.653         	6.022
MS.147         	29.595         	6.214
MS.148         	29.535         	6.385
MS.149         	29.477         	6.034
MS.150         	29.417         	6.079
MS.151         	29.358         	6.157
MS.152         	29.3           	6.25
MS.153         	29.242         	6.23
MS.154         	29.182         	6.335
MS.155         	29.125         	6.371
MS.156         	29.067         	6.208
MS.157         	29.007         	6.129
MS.158         	28.95          	6.318
MS.159         	28.892         	5.863
MS.160         	28.835         	6.02
MS.161         	28.778         	6.02
MS.162         	28.72          	6.038
MS.163         	28.662         	5.992
MS.164         	28.605         	6.101
MS.165         	28.547         	6.131
MS.166         	28.49          	5.954
MS.167         	28.435         	6.02
MS.168         	28.377         	5.879
MS.169         	28.32          	5.609
MS.170         	28.265         	5.505
MS.171         	28.207         	5.795
MS.172         	28.15          	5.672
MS.173         	28.095         	5.829
MS.174         	28.037         	5.605
MS.175         	27.983         	5.628
MS.176         	27.927         	5.634
MS.177         	27.87          	5.797
MS.178         	27.815         	5.666
MS.179         	27.76          	5.577
MS.180         	27.705         	5.535
MS.181         	27.65          	5.771
MS.182         	27.592         	5.746
MS.183         	27.537         	5.36
MS.184         	27.483         	5.376
MS.185         	27.427         	5.358
MS.186         	27.375         	5.154
MS.187         	27.32          	5.009
MS.188         	27.265         	5.043
MS.189         	27.21          	5.225
MS.190         	27.155         	5.017
MS.191         	27.102         	4.856
MS.192         	27.047         	5.013
MS.193         	26.993         	4.971
MS.194         	26.94          	4.786
MS.195         	26.885         	4.999
MS.196         	26.832         	4.568
MS.197         	26.778         	4.661
MS.198         	26.725         	4.975
MS.199         	26.672         	4.852
MS.200         	26.618         	4.848
MS.201         	26.565         	4.536
MS.202         	26.512         	4.367
MS.203         	26.457         	4.288
MS.204         	26.405         	4.774
MS.205         	26.352         	4.447
MS.206         	26.3           	4.29
MS.207         	26.247         	4.685
MS.208         	26.195         	4.26
MS.209         	26.142         	4.141
MS.210         	26.09          	4.258
MS.211         	26.04          	4.391
MS.212         	25.987         	4.272
MS.213         	25.935         	4.034
MS.214         	25.882         	4.475
MS.215         	25.832         	4.272
MS.216         	25.78          	4.077
MS.217         	25.727         	3.968
MS.218         	25.677         	3.851
MS.219         	25.625         	3.696
MS.220         	25.575         	3.275
MS.221         	25.522         	3.396
MS.222         	25.472         	3.7
MS.223         	25.422         	3.472
MS.224         	25.37          	3.619
MS.225         	25.32          	3.589
MS.226         	25.27          	3.499
MS.227         	25.217         	3.311
MS.228         	25.167         	3.412
MS.229         	25.118         	3.136
MS.230         	25.067         	3.134
MS.231         	25.017         	3.307
MS.232         	24.967         	3.263
MS.233         	24.917         	3.08
MS.234         	24.868         	3.219
MS.235         	24.817         	3.364
MS.236         	24.77          	3.285
MS.237         	24.72          	2.943
MS.238         	24.67          	3.039
MS.239         	24.62          	2.959
MS.240         	24.573         	2.759
MS.241         	24.522         	2.854
MS.242         	24.472         	2.898
MS.243         	24.425         	2.677
MS.244         	24.375         	2.651
MS.245         	24.327         	2.212
MS.246         	24.278         	2.514
MS.247         	24.23          	2.33
MS.248         	24.182         	2.32
MS.249         	24.132         	2.359
MS.250         	24.085         	2.588
MS.251         	24.038         	2
MS.252         	23.99          	1.968
MS.253         	23.94          	1.956
MS.254         	23.892         	2.379
MS.255         	23.845         	2.123
MS.256         	23.797         	2.002
MS.257         	23.75          	1.964
MS.258         	23.702         	1.998
MS.259         	23.655         	1.93
MS.260         	23.608         	1.642
MS.261         	23.56          	1.853
MS.262         	23.515         	1.684
MS.263         	23.467         	1.748
MS.264         	23.42          	1.666
MS.265         	23.372         	1.625
MS.266         	23.327         	1.986
MS.267         	23.28          	1.809
MS.268         	23.233         	1.787
MS.269         	23.188         	1.644
MS.270         	23.14          	1.77
MS.271         	23.095         	1.694
MS.272         	23.047         	1.531
MS.273         	23.002         	1.438
MS.274         	22.955         	1.654
MS.275         	22.91          	1.438
MS.276         	22.865         	1.404
MS.277         	22.82          	1.495
MS.278         	22.772         	1.374
MS.279         	22.727         	1.245
MS.280         	22.682         	1.307
MS.281         	22.637         	1.424
MS.282         	22.592         	1.303
MS.283         	22.547         	1.343
MS.284         	22.502         	1.243
MS.285         	22.457         	1.223
MS.286         	22.413         	1.061
MS.287         	22.368         	1.162
MS.288         	22.323         	0.83
MS.289         	22.278         	1.023
MS.290         	22.233         	1.08
MS.291         	22.19          	0.788
MS.292         	22.145         	0.737
MS.293         	22.1           	1.061
MS.294         	22.055         	0.798
MS.295         	22.012         	0.862
MS.296         	21.967         	0.826
MS.297         	21.925         	1.007
MS.298         	21.88          	0.707
MS.299         	21.837         	0.771
MS.300         	21.792         	0.649
MS.301         	21.75          	0.814
MS.302         	21.705         	0.759
MS.303         	21.663         	0.675
MS.304         	21.62          	0.677
MS.305         	21.575         	0.653
MS.306         	21.532         	0.725
MS.307         	21.49          	0.779
MS.308         	21.448         	0.536
MS.309         	21.405         	0.594
MS.310         	21.362         	0.554
MS.311         	21.32          	0.592
MS.312         	21.275         	0.566
MS.313         	21.233         	0.614
MS.314         	21.19          	0.52
MS.315         	21.15          	0.576
MS.316         	21.108         	0.552
MS.317         	21.065         	0.54
MS.318         	21.022         	0.495
MS.319         	20.98          	0.475
MS.320         	20.938         	0.433
MS.321         	20.897         	0.449
MS.322         	20.855         	0.504
MS.323         	20.812         	0.403
MS.324         	20.772         	0.365
MS.325         	20.73          	0.439
MS.326         	20.688         	0.461
MS.327         	20.647         	0.354
MS.328         	20.605         	0.284
MS.329         	20.565         	0.328
MS.330         	20.525         	0.183
MS.331         	20.483         	0.359
MS.332         	20.442         	0.373
MS.333         	20.4           	0.312
MS.334         	20.36          	0.163
MS.335         	20.32          	0.131
MS.336         	20.28          	0.214
MS.337         	20.237         	0.354
MS.338         	20.198         	0.218
MS.339         	20.157         	0.141
MS.340         	20.118         	0.139
MS.341         	20.077         	0.228
MS.342         	20.038         	0.133
MS.343         	19.997         	0.197
MS.344         	19.958         	0.115
MS.345         	19.917         	0.139
MS.346         	19.877         	0.147
MS.347         	19.837         	0.181
MS.348         	19.797         	0.095
MS.349         	19.757         	0.081
MS.350         	19.72          	0.064
MS.351         	19.68          	0.121
MS.352         	19.64          	0.139
MS.353         	19.6           	0.119
MS.354         	19.562         	0.139
MS.355         	19.522         	0.07
MS.356         	19.485         	0.085
MS.357         	19.445         	0.075
MS.358         	19.405         	0.056
MS.359         	19.368         	0.06
MS.360         	19.327         	0.044
MS.361         	19.29          	0.064
MS.362         	19.252         	0.04
MS.363         	19.212         	0.048
MS.364         	19.175         	0.062
MS.365         	19.137         	0.02
MS.366         	19.097         	0.058
MS.367         	19.06          	0.091
MS.368         	19.022         	0.046
MS.369         	18.985         	0.034
MS.370         	18.945         	0.06
MS.371         	18.907         	0.058
MS.372         	18.87          	0.002
MS.373         	18.833         	0.03
MS.374         	18.795         	0.024
MS.375         	18.757         	0.004
MS.376         	18.72          	0.016
MS.377         	18.682         	0.026
MS.378         	18.645         	0.006
MS.379         	18.608         	0.03
MS.380         	18.57          	0.026
MS.381         	18.532         	-0.002
MS.382         	18.497         	-0.01
MS.383         	18.46          	-0.018
MS.384         	18.422         	0.008
MS.385         	18.385         	-0.02
MS.386         	18.35          	-0.004
MS.387         	18.312         	-0.022
MS.388         	18.275         	-0.018
MS.389         	18.24          	-0.012
MS.390         	18.202         	-0.026
MS.391         	18.167         	-0.01
MS.392         	18.13          	-0.026
MS.393         	18.095         	-0.026
MS.394         	18.057         	-0.026
MS.395         	18.022         	0.014
MS.396         	17.985         	-0.004
MS.397         	17.95          	-0.024
MS.398         	17.915         	0.004
MS.399         	17.878         	-0.026
MS.400         	17.842         	-0.024
MS.401         	17.807         	-0.026
MS.402         	17.772         	-0.024
MS.403         	17.735         	-0.026
MS.404         	17.7           	-0.026
MS.405         	17.665         	-0.024
MS.406         	17.63          	-0.024
MS.407         	17.595         	-0.024
MS.408         	17.56          	-0.024
MS.409         	17.525         	-0.024
MS.410         	17.49          	-0.026
MS.411         	17.455         	-0.026
MS.412         	17.42          	-0.024
MS.413         	17.385         	-0.024
MS.414         	17.35          	-0.026
MS.415         	17.315         	-0.024
MS.416         	17.28          	-0.024
MS.417         	17.245         	-0.028
MS.418         	17.212         	-0.024
MS.419         	17.177         	-0.024
MS.420         	17.142         	-0.026
MS.421         	17.108         	-0.024
MS.422         	17.075         	-0.024
MS.423         	17.04          	-0.022
MS.424         	17.007         	-0.018
MS.425         	16.972         	-0.024
MS.426         	16.938         	-0.024
MS.427         	16.905         	-0.024
MS.428         	16.87          	-0.026
MS.429         	16.837         	-0.024
MS.430         	16.802         	-0.024
MS.431         	16.77          	-0.02
MS.432         	16.737         	-0.022
MS.433         	16.702         	-0.022
MS.434         	16.67          	-0.024
DERIVED EXCITABILITY VARIABLES
Program = QTracP 3/4/2020
Threshold method = 6 (optimised for CAP, using data for present condition only)
SR method = 1 (using actual data values)
6.                 	0.000               	Peak response\(mV)
17.                	30                  	Age (years)
18.                	2                   	Sex (M=1, F=2)

EXTRA VARIABLES

MScPeak(mV) = 9
MScS5(mA) = 20.82
MScS50(mA) = 26.37
MScS95(mA) = 35.24
MScNSteps = 0
MScSteps(%) = 0.0
MScStepMax(%) = 0.0
MScD50 = 53
MScSlope = 4.07
MSFPeakAmp(mV) = 9.04
MSFNUnits = 88
MSFMeanUnitAmp(uV) = 102.8
MSFHuntTime(m) = 2.7
MSFError(%) = 5.1
MSFNLarge = 25.3
MSFMedianAmp(%) = 1.06
MSFMedianAmp(mV) = 0.0962
MSFHalfAmpAmp(%) = 1.32
MSFHalfAmpAmp(mV) = 0.119
MSFLargestAmp(%) = 3.3
MSFLargestAmp(mV) = 0.298
MSFMeanRS(%) = 2
MSFOpts = 10106121
MScDuration(min) = 3.9
MSFTraces = 431
MSFSizeLimit(uV) = 22.6
MSFLimitType = 1
MSFSmallestAmp(uV) = 24.2

EXTRA WAVEFORMS


!MScan Model
!88
	1	18.47	0.27	2
	2	18.87	0.37	2
	3	19.22	0.27	2
	4	19.61	0.49	2
	5	19.86	0.5	2
	6	20.1	0.52	2
	7	20.33	0.68	2
	8	20.5	0.64	2
	9	20.61	0.47	2
	10	20.71	0.41	2
	11	20.79	0.33	2
	12	20.86	0.42	2
	13	21	0.41	2
	14	21.11	0.43	2
	15	21.23	0.45	2
	16	21.39	0.6	2
	17	21.56	0.63	2
	18	21.82	1.14	2
	19	22.05	1.14	2
	20	22.16	0.7	2
	21	22.26	0.98	2
	22	22.36	0.78	2
	23	22.45	0.53	2
	24	22.54	0.74	2
	25	22.61	0.68	2
	26	22.69	0.69	2
	27	22.78	0.84	2
	28	22.9	1.03	2
	29	23.13	1.37	2
	30	23.39	1.64	2
	31	23.66	1.9	2
	32	23.83	1.07	2
	33	23.95	1.17	2
	34	24.05	1.4	2
	35	24.14	1.07	2
	36	24.19	0.59	2
	37	24.25	0.51	2
	38	24.3	0.6	2
	39	24.35	0.84	2
	40	24.4	0.86	2
	41	24.46	0.82	2
	42	24.51	0.46	2
	43	24.56	0.56	2
	44	24.62	0.69	2
	45	24.71	1.24	2
	46	24.8	1.15	2
	47	25.02	1.97	2
	48	25.21	1.09	2
	49	25.25	1.2	2
	50	25.32	1.32	2
	51	25.43	1.21	2
	52	25.53	1.32	2
	53	25.64	1.4	2
	54	25.9	1.47	2
	55	26.19	3.3	2
	56	26.4	1.57	2
	57	26.64	1.96	2
	58	26.8	1.12	2
	59	26.95	1.15	2
	60	27.05	0.88	2
	61	27.14	1.22	2
	62	27.28	1.87	2
	63	27.41	0.62	2
	64	27.5	0.98	2
	65	27.74	1.62	2
	66	28.15	2.78	2
	67	28.4	1.23	2
	68	28.68	1.62	2
	69	29.73	2.97	2
	70	29.95	1	2
	71	30.14	1.51	2
	72	30.35	1.48	2
	73	30.94	3.19	2
	74	31.26	2.68	2
	75	31.47	1.16	2
	76	31.65	1.06	2
	77	32.48	2.98	2
	78	32.67	1.24	2
	79	32.78	0.59	2
	80	32.89	0.54	2
	81	33.04	1.28	2
	82	33.26	1.4	2
	83	34.7	2.49	2
	84	34.7	0.62	2
	85	35.01	1.95	2
	86	35.28	0.95	2
	87	36.67	1.77	2
	88	36.67	1.18	2

