File:              	C:\Qtrac\Data\CKMC00923D.QZD
Name:              	DK.COP.NC.2.2
Protocol:          	MSCAN-R2
Date:              	23/9/20
Start time:        	13:50:41
Age:               	34
Sex:               	F
Temperature:       	37.2
S/R sites:         	RUln Wr-ADQ
NC/disease:        	NC
Operator:          	CK
Comments:          	CG
M-SCAN DATA (7-1.2m)
Scanpts: 59, 63, 598, 617
Stim. (mA)     	Amp. (mV)
MS.1           	11             	8.643
MS.2           	11             	8.656
MS.3           	11             	8.65
MS.4           	11             	8.632
MS.5           	11             	8.646
MS.6           	11             	8.644
MS.7           	11             	8.662
MS.8           	11             	8.668
MS.9           	11             	8.673
MS.10          	11             	8.685
MS.11          	11             	8.692
MS.12          	11             	8.692
MS.13          	11             	8.691
MS.14          	11             	8.64
MS.15          	11             	8.652
MS.16          	11             	8.688
MS.17          	11             	8.69
MS.18          	11             	8.689
MS.19          	11             	8.714
MS.20          	11             	8.671
MS.21          	11             	8.659
MS.22          	11             	8.719
MS.23          	11             	8.688
MS.24          	10.955         	8.68
MS.25          	10.935         	8.64
MS.26          	10.91          	8.686
MS.27          	10.89          	8.698
MS.28          	10.87          	8.726
MS.29          	10.845         	8.696
MS.30          	10.825         	8.677
MS.31          	10.805         	8.673
MS.32          	10.78          	8.677
MS.33          	10.76          	8.734
MS.34          	10.74          	8.716
MS.35          	10.72          	8.69
MS.36          	10.695         	8.734
MS.37          	10.675         	8.726
MS.38          	10.655         	8.671
MS.39          	10.63          	8.691
MS.40          	10.61          	8.707
MS.41          	10.59          	8.679
MS.42          	10.57          	8.693
MS.43          	10.55          	8.702
MS.44          	10.525         	8.745
MS.45          	10.505         	8.719
MS.46          	10.485         	8.724
MS.47          	10.465         	8.719
MS.48          	10.445         	8.729
MS.49          	10.42          	8.727
MS.50          	10.4           	8.702
MS.51          	10.38          	8.717
MS.52          	10.36          	8.716
MS.53          	10.34          	8.757
MS.54          	10.32          	8.723
MS.55          	10.295         	8.698
MS.56          	10.275         	8.702
MS.57          	10.255         	8.719
MS.58          	10.235         	8.731
MS.59          	10.215         	8.741
MS.60          	10.195         	8.722
MS.61          	10.175         	8.754
MS.62          	10.155         	8.704
MS.63          	10.135         	8.73
MS.64          	10.115         	8.719
MS.65          	10.095         	8.721
MS.66          	10.075         	8.751
MS.67          	10.055         	8.732
MS.68          	10.035         	8.704
MS.69          	10.015         	8.75
MS.70          	9.995          	8.715
MS.71          	9.975          	8.719
MS.72          	9.955          	8.746
MS.73          	9.935          	8.705
MS.74          	9.915          	8.71
MS.75          	9.895          	8.737
MS.76          	9.875          	8.739
MS.77          	9.855          	8.756
MS.78          	9.835          	8.712
MS.79          	9.815          	8.759
MS.80          	9.795          	8.732
MS.81          	9.775          	8.729
MS.82          	9.755          	8.765
MS.83          	9.735          	8.755
MS.84          	9.715          	8.717
MS.85          	9.7            	8.738
MS.86          	9.68           	8.733
MS.87          	9.66           	8.724
MS.88          	9.64           	8.718
MS.89          	9.62           	8.718
MS.90          	9.6            	8.733
MS.91          	9.58           	8.734
MS.92          	9.565          	8.707
MS.93          	9.545          	8.742
MS.94          	9.525          	8.698
MS.95          	9.505          	8.729
MS.96          	9.485          	8.718
MS.97          	9.47           	8.717
MS.98          	9.45           	8.69
MS.99          	9.43           	8.699
MS.100         	9.41           	8.689
MS.101         	9.39           	8.759
MS.102         	9.375          	8.703
MS.103         	9.355          	8.69
MS.104         	9.335          	8.739
MS.105         	9.315          	8.676
MS.106         	9.3            	8.712
MS.107         	9.28           	8.701
MS.108         	9.26           	8.701
MS.109         	9.245          	8.723
MS.110         	9.225          	8.713
MS.111         	9.205          	8.687
MS.112         	9.19           	8.749
MS.113         	9.17           	8.713
MS.114         	9.15           	8.69
MS.115         	9.135          	8.692
MS.116         	9.115          	8.722
MS.117         	9.095          	8.705
MS.118         	9.08           	8.727
MS.119         	9.06           	8.717
MS.120         	9.04           	8.697
MS.121         	9.025          	8.708
MS.122         	9.005          	8.686
MS.123         	8.99           	8.71
MS.124         	8.97           	8.699
MS.125         	8.95           	8.698
MS.126         	8.935          	8.726
MS.127         	8.915          	8.689
MS.128         	8.9            	8.713
MS.129         	8.88           	8.696
MS.130         	8.865          	8.673
MS.131         	8.845          	8.728
MS.132         	8.83           	8.712
MS.133         	8.81           	8.693
MS.134         	8.79           	8.677
MS.135         	8.775          	8.708
MS.136         	8.755          	8.711
MS.137         	8.74           	8.707
MS.138         	8.72           	8.695
MS.139         	8.705          	8.699
MS.140         	8.69           	8.674
MS.141         	8.67           	8.683
MS.142         	8.655          	8.704
MS.143         	8.635          	8.665
MS.144         	8.62           	8.718
MS.145         	8.6            	8.693
MS.146         	8.585          	8.666
MS.147         	8.565          	8.679
MS.148         	8.55           	8.658
MS.149         	8.535          	8.666
MS.150         	8.515          	8.687
MS.151         	8.5            	8.677
MS.152         	8.48           	8.696
MS.153         	8.465          	8.644
MS.154         	8.45           	8.642
MS.155         	8.43           	8.691
MS.156         	8.415          	8.598
MS.157         	8.395          	8.674
MS.158         	8.38           	8.593
MS.159         	8.365          	8.654
MS.160         	8.345          	8.658
MS.161         	8.33           	8.627
MS.162         	8.315          	8.657
MS.163         	8.295          	8.651
MS.164         	8.28           	8.666
MS.165         	8.265          	8.668
MS.166         	8.245          	8.596
MS.167         	8.23           	8.604
MS.168         	8.215          	8.635
MS.169         	8.2            	8.627
MS.170         	8.18           	8.613
MS.171         	8.165          	8.596
MS.172         	8.15           	8.622
MS.173         	8.135          	8.605
MS.174         	8.115          	8.604
MS.175         	8.1            	8.591
MS.176         	8.085          	8.557
MS.177         	8.07           	8.566
MS.178         	8.05           	8.597
MS.179         	8.035          	8.559
MS.180         	8.02           	8.576
MS.181         	8.005          	8.549
MS.182         	7.99           	8.567
MS.183         	7.97           	8.574
MS.184         	7.955          	8.562
MS.185         	7.94           	8.556
MS.186         	7.925          	8.563
MS.187         	7.91           	8.604
MS.188         	7.89           	8.588
MS.189         	7.875          	8.572
MS.190         	7.86           	8.584
MS.191         	7.845          	8.555
MS.192         	7.83           	8.578
MS.193         	7.815          	8.575
MS.194         	7.8            	8.542
MS.195         	7.785          	8.611
MS.196         	7.765          	8.582
MS.197         	7.75           	8.555
MS.198         	7.735          	8.568
MS.199         	7.72           	8.561
MS.200         	7.705          	8.566
MS.201         	7.69           	8.572
MS.202         	7.675          	8.51
MS.203         	7.66           	8.503
MS.204         	7.645          	8.564
MS.205         	7.63           	8.539
MS.206         	7.615          	8.553
MS.207         	7.6            	8.599
MS.208         	7.585          	8.596
MS.209         	7.57           	8.561
MS.210         	7.555          	8.516
MS.211         	7.54           	8.525
MS.212         	7.52           	8.508
MS.213         	7.505          	8.452
MS.214         	7.49           	8.504
MS.215         	7.475          	8.45
MS.216         	7.465          	8.519
MS.217         	7.45           	8.483
MS.218         	7.435          	8.395
MS.219         	7.42           	8.454
MS.220         	7.405          	8.441
MS.221         	7.39           	8.396
MS.222         	7.375          	8.47
MS.223         	7.36           	8.384
MS.224         	7.345          	8.326
MS.225         	7.33           	8.314
MS.226         	7.315          	8.335
MS.227         	7.3            	8.406
MS.228         	7.285          	8.353
MS.229         	7.27           	8.35
MS.230         	7.255          	8.205
MS.231         	7.24           	8.3
MS.232         	7.225          	8.264
MS.233         	7.215          	8.298
MS.234         	7.2            	8.254
MS.235         	7.185          	8.271
MS.236         	7.17           	8.177
MS.237         	7.155          	8.04
MS.238         	7.14           	8.063
MS.239         	7.125          	8.167
MS.240         	7.115          	8.209
MS.241         	7.1            	8.235
MS.242         	7.085          	8.159
MS.243         	7.07           	8.124
MS.244         	7.055          	8.267
MS.245         	7.04           	8.132
MS.246         	7.03           	8.063
MS.247         	7.015          	7.91
MS.248         	7              	8.004
MS.249         	6.985          	7.932
MS.250         	6.97           	8.01
MS.251         	6.96           	8.093
MS.252         	6.945          	8.064
MS.253         	6.93           	7.904
MS.254         	6.915          	7.982
MS.255         	6.905          	7.901
MS.256         	6.89           	8.013
MS.257         	6.875          	7.85
MS.258         	6.86           	7.91
MS.259         	6.85           	7.77
MS.260         	6.835          	7.84
MS.261         	6.82           	7.722
MS.262         	6.805          	7.815
MS.263         	6.795          	7.809
MS.264         	6.78           	7.678
MS.265         	6.765          	7.769
MS.266         	6.75           	7.704
MS.267         	6.74           	7.706
MS.268         	6.725          	7.664
MS.269         	6.71           	7.678
MS.270         	6.7            	7.618
MS.271         	6.685          	7.567
MS.272         	6.67           	7.519
MS.273         	6.66           	7.344
MS.274         	6.645          	7.504
MS.275         	6.63           	7.415
MS.276         	6.62           	7.485
MS.277         	6.605          	7.563
MS.278         	6.59           	7.231
MS.279         	6.58           	7.499
MS.280         	6.565          	7.186
MS.281         	6.555          	7.434
MS.282         	6.54           	7.15
MS.283         	6.525          	7.406
MS.284         	6.515          	7.47
MS.285         	6.5            	7.369
MS.286         	6.49           	7.249
MS.287         	6.475          	7.001
MS.288         	6.46           	7.159
MS.289         	6.45           	7.15
MS.290         	6.435          	6.976
MS.291         	6.425          	7.01
MS.292         	6.41           	7.083
MS.293         	6.395          	7.026
MS.294         	6.385          	7.056
MS.295         	6.37           	6.809
MS.296         	6.36           	6.953
MS.297         	6.345          	7.016
MS.298         	6.335          	6.923
MS.299         	6.32           	6.83
MS.300         	6.31           	6.801
MS.301         	6.295          	6.715
MS.302         	6.285          	6.826
MS.303         	6.27           	6.731
MS.304         	6.26           	6.557
MS.305         	6.245          	6.588
MS.306         	6.235          	6.724
MS.307         	6.22           	6.664
MS.308         	6.21           	6.646
MS.309         	6.195          	6.459
MS.310         	6.185          	6.384
MS.311         	6.17           	6.454
MS.312         	6.16           	6.49
MS.313         	6.145          	6.348
MS.314         	6.135          	6.422
MS.315         	6.12           	6.277
MS.316         	6.11           	6.265
MS.317         	6.1            	6.22
MS.318         	6.085          	6.179
MS.319         	6.075          	6.2
MS.320         	6.06           	6.087
MS.321         	6.05           	6.191
MS.322         	6.035          	6.243
MS.323         	6.025          	6.141
MS.324         	6.015          	6.056
MS.325         	6              	6.094
MS.326         	5.99           	6.013
MS.327         	5.975          	6.062
MS.328         	5.965          	5.918
MS.329         	5.955          	6.051
MS.330         	5.94           	5.989
MS.331         	5.93           	6.009
MS.332         	5.915          	5.817
MS.333         	5.905          	5.921
MS.334         	5.895          	5.808
MS.335         	5.88           	5.808
MS.336         	5.87           	5.691
MS.337         	5.86           	5.702
MS.338         	5.845          	5.726
MS.339         	5.835          	5.674
MS.340         	5.825          	5.671
MS.341         	5.81           	5.529
MS.342         	5.8            	5.566
MS.343         	5.79           	5.549
MS.344         	5.775          	5.514
MS.345         	5.765          	5.452
MS.346         	5.755          	5.47
MS.347         	5.74           	5.571
MS.348         	5.73           	5.414
MS.349         	5.72           	5.446
MS.350         	5.71           	5.439
MS.351         	5.695          	5.486
MS.352         	5.685          	5.428
MS.353         	5.675          	5.273
MS.354         	5.665          	5.216
MS.355         	5.65           	5.245
MS.356         	5.64           	5.283
MS.357         	5.63           	5.318
MS.358         	5.62           	5.294
MS.359         	5.605          	5.032
MS.360         	5.595          	5.111
MS.361         	5.585          	5.096
MS.362         	5.575          	4.901
MS.363         	5.56           	5.017
MS.364         	5.55           	5.106
MS.365         	5.54           	4.814
MS.366         	5.53           	4.879
MS.367         	5.515          	5.002
MS.368         	5.505          	4.6
MS.369         	5.495          	4.859
MS.370         	5.485          	5.041
MS.371         	5.475          	4.775
MS.372         	5.46           	4.854
MS.373         	5.45           	4.941
MS.374         	5.44           	4.969
MS.375         	5.43           	4.765
MS.376         	5.42           	4.603
MS.377         	5.41           	4.448
MS.378         	5.395          	4.601
MS.379         	5.385          	4.561
MS.380         	5.375          	4.169
MS.381         	5.365          	4.674
MS.382         	5.355          	4.456
MS.383         	5.345          	4.753
MS.384         	5.335          	4.325
MS.385         	5.32           	4.343
MS.386         	5.31           	4.467
MS.387         	5.3            	3.955
MS.388         	5.29           	4.165
MS.389         	5.28           	4.328
MS.390         	5.27           	3.936
MS.391         	5.26           	3.829
MS.392         	5.25           	3.857
MS.393         	5.24           	4.072
MS.394         	5.225          	3.97
MS.395         	5.215          	3.829
MS.396         	5.205          	3.824
MS.397         	5.195          	3.403
MS.398         	5.185          	3.593
MS.399         	5.175          	3.652
MS.400         	5.165          	3.907
MS.401         	5.155          	3.449
MS.402         	5.145          	3.392
MS.403         	5.135          	3.385
MS.404         	5.125          	3.258
MS.405         	5.115          	3.333
MS.406         	5.105          	3.266
MS.407         	5.095          	3.411
MS.408         	5.085          	3.337
MS.409         	5.075          	3.22
MS.410         	5.065          	3.245
MS.411         	5.055          	3.084
MS.412         	5.04           	2.685
MS.413         	5.03           	2.908
MS.414         	5.02           	3.221
MS.415         	5.01           	3.141
MS.416         	5              	2.986
MS.417         	4.99           	2.728
MS.418         	4.98           	2.98
MS.419         	4.97           	2.787
MS.420         	4.96           	2.904
MS.421         	4.95           	2.889
MS.422         	4.945          	2.648
MS.423         	4.935          	2.948
MS.424         	4.925          	2.819
MS.425         	4.915          	2.466
MS.426         	4.905          	2.665
MS.427         	4.895          	2.828
MS.428         	4.885          	2.1
MS.429         	4.875          	2.581
MS.430         	4.865          	2.392
MS.431         	4.855          	2.642
MS.432         	4.845          	2.177
MS.433         	4.835          	2.209
MS.434         	4.825          	2.246
MS.435         	4.815          	2.115
MS.436         	4.805          	2.328
MS.437         	4.795          	2.183
MS.438         	4.785          	2.183
MS.439         	4.775          	2.161
MS.440         	4.77           	2.258
MS.441         	4.76           	1.522
MS.442         	4.75           	1.987
MS.443         	4.74           	2.283
MS.444         	4.73           	1.719
MS.445         	4.72           	2.094
MS.446         	4.71           	1.635
MS.447         	4.7            	1.942
MS.448         	4.69           	1.659
MS.449         	4.685          	1.591
MS.450         	4.675          	1.909
MS.451         	4.665          	1.639
MS.452         	4.655          	1.808
MS.453         	4.645          	1.378
MS.454         	4.635          	1.51
MS.455         	4.625          	1.606
MS.456         	4.62           	1.566
MS.457         	4.61           	1.696
MS.458         	4.6            	1.671
MS.459         	4.59           	1.765
MS.460         	4.58           	1.451
MS.461         	4.57           	1.332
MS.462         	4.565          	1.349
MS.463         	4.555          	1.464
MS.464         	4.545          	1.373
MS.465         	4.535          	1.613
MS.466         	4.525          	1.18
MS.467         	4.515          	1.259
MS.468         	4.51           	1.197
MS.469         	4.5            	1.512
MS.470         	4.49           	1.194
MS.471         	4.48           	1.179
MS.472         	4.47           	1.184
MS.473         	4.465          	1.18
MS.474         	4.455          	1.266
MS.475         	4.445          	1.164
MS.476         	4.435          	1.111
MS.477         	4.43           	1.154
MS.478         	4.42           	1.012
MS.479         	4.41           	1.13
MS.480         	4.4            	1.049
MS.481         	4.39           	1.075
MS.482         	4.385          	0.675
MS.483         	4.375          	1.124
MS.484         	4.365          	0.834
MS.485         	4.355          	1.016
MS.486         	4.35           	0.848
MS.487         	4.34           	0.939
MS.488         	4.33           	0.984
MS.489         	4.325          	0.968
MS.490         	4.315          	1.124
MS.491         	4.305          	0.999
MS.492         	4.295          	0.627
MS.493         	4.29           	0.85
MS.494         	4.28           	0.583
MS.495         	4.27           	0.88
MS.496         	4.265          	0.674
MS.497         	4.255          	0.706
MS.498         	4.245          	0.732
MS.499         	4.235          	0.394
MS.500         	4.23           	0.514
MS.501         	4.22           	0.528
MS.502         	4.21           	0.494
MS.503         	4.205          	0.472
