File:              	C:\Qtrac\Data\CKMC01028E.QZD
Name:              	DK.COP.NC.6.1
Protocol:          	MSCAN-R2
Date:              	28/10/20
Start time:        	10:42:44
Age:               	43
Sex:               	F
Temperature:       	38.2
S/R sites:         	RUln Wr-ADQ
NC/disease:        	NC
Operator:          	CK
Comments:          	CG
RECOVERY CYCLE DATA (0.0-0.0m)
Interval (ms)       	  Threshold change (%)
M-SCAN DATA (7.3-1.3m)
Scanpts: 1, 23, 631, 651
Stim. (mA)     	Amp. (mV)
MS.1           	21             	8.527
MS.2           	21             	8.544
MS.3           	21             	8.588
MS.4           	21             	8.533
MS.5           	21             	8.497
MS.6           	21             	8.453
MS.7           	21             	8.52
MS.8           	21             	8.463
MS.9           	21             	8.488
MS.10          	21             	8.494
MS.11          	21             	8.532
MS.12          	21             	8.492
MS.13          	21             	8.48
MS.14          	21             	8.498
MS.15          	21             	8.505
MS.16          	21             	8.437
MS.17          	21             	8.511
MS.18          	21             	8.491
MS.19          	21             	8.459
MS.20          	21             	8.48
MS.21          	21             	8.459
MS.22          	21             	8.494
MS.23          	21             	8.493
MS.24          	20.915         	8.494
MS.25          	20.875         	8.459
MS.26          	20.835         	8.428
MS.27          	20.79          	8.445
MS.28          	20.75          	8.474
MS.29          	20.71          	8.442
MS.30          	20.665         	8.474
MS.31          	20.625         	8.428
MS.32          	20.585         	8.402
MS.33          	20.545         	8.453
MS.34          	20.5           	8.442
MS.35          	20.46          	8.511
MS.36          	20.42          	8.474
MS.37          	20.38          	8.442
MS.38          	20.34          	8.463
MS.39          	20.3           	8.466
MS.40          	20.255         	8.472
MS.41          	20.215         	8.456
MS.42          	20.175         	8.441
MS.43          	20.135         	8.466
MS.44          	20.095         	8.405
MS.45          	20.055         	8.481
MS.46          	20.015         	8.427
MS.47          	19.975         	8.481
MS.48          	19.935         	8.482
MS.49          	19.895         	8.447
MS.50          	19.855         	8.397
MS.51          	19.815         	8.467
MS.52          	19.775         	8.408
MS.53          	19.735         	8.438
MS.54          	19.7           	8.421
MS.55          	19.66          	8.434
MS.56          	19.62          	8.445
MS.57          	19.58          	8.401
MS.58          	19.54          	8.439
MS.59          	19.5           	8.399
MS.60          	19.465         	8.415
MS.61          	19.425         	8.436
MS.62          	19.385         	8.413
MS.63          	19.345         	8.483
MS.64          	19.31          	8.501
MS.65          	19.27          	8.455
MS.66          	19.23          	8.446
MS.67          	19.19          	8.447
MS.68          	19.155         	8.463
MS.69          	19.115         	8.48
MS.70          	19.08          	8.447
MS.71          	19.04          	8.495
MS.72          	19             	8.457
MS.73          	18.965         	8.494
MS.74          	18.925         	8.511
MS.75          	18.89          	8.46
MS.76          	18.85          	8.478
MS.77          	18.81          	8.45
MS.78          	18.775         	8.416
MS.79          	18.735         	8.456
MS.80          	18.7           	8.419
MS.81          	18.665         	8.445
MS.82          	18.625         	8.398
MS.83          	18.59          	8.404
MS.84          	18.55          	8.428
MS.85          	18.515         	8.43
MS.86          	18.475         	8.466
MS.87          	18.44          	8.411
MS.88          	18.405         	8.433
MS.89          	18.365         	8.425
MS.90          	18.33          	8.416
MS.91          	18.295         	8.371
MS.92          	18.255         	8.411
MS.93          	18.22          	8.382
MS.94          	18.185         	8.381
MS.95          	18.145         	8.431
MS.96          	18.11          	8.383
MS.97          	18.075         	8.393
MS.98          	18.04          	8.389
MS.99          	18.005         	8.389
MS.100         	17.965         	8.337
MS.101         	17.93          	8.336
MS.102         	17.895         	8.42
MS.103         	17.86          	8.358
MS.104         	17.825         	8.387
MS.105         	17.79          	8.396
MS.106         	17.75          	8.389
MS.107         	17.715         	8.403
MS.108         	17.68          	8.386
MS.109         	17.645         	8.393
MS.110         	17.61          	8.412
MS.111         	17.575         	8.351
MS.112         	17.54          	8.398
MS.113         	17.505         	8.361
MS.114         	17.47          	8.376
MS.115         	17.435         	8.352
MS.116         	17.4           	8.355
MS.117         	17.365         	8.371
MS.118         	17.33          	8.329
MS.119         	17.295         	8.354
MS.120         	17.26          	8.362
MS.121         	17.23          	8.337
MS.122         	17.195         	8.337
MS.123         	17.16          	8.342
MS.124         	17.125         	8.309
MS.125         	17.09          	8.323
MS.126         	17.055         	8.3
MS.127         	17.02          	8.328
MS.128         	16.99          	8.35
MS.129         	16.955         	8.295
MS.130         	16.92          	8.333
MS.131         	16.885         	8.326
MS.132         	16.855         	8.331
MS.133         	16.82          	8.344
MS.134         	16.785         	8.35
MS.135         	16.75          	8.321
MS.136         	16.72          	8.338
MS.137         	16.685         	8.319
MS.138         	16.65          	8.344
MS.139         	16.62          	8.333
MS.140         	16.585         	8.32
MS.141         	16.55          	8.38
MS.142         	16.52          	8.332
MS.143         	16.485         	8.345
MS.144         	16.455         	8.339
MS.145         	16.42          	8.38
MS.146         	16.385         	8.336
MS.147         	16.355         	8.315
MS.148         	16.32          	8.34
MS.149         	16.29          	8.292
MS.150         	16.255         	8.337
MS.151         	16.225         	8.348
MS.152         	16.19          	8.341
MS.153         	16.16          	8.378
MS.154         	16.125         	8.358
MS.155         	16.095         	8.405
MS.156         	16.065         	8.349
MS.157         	16.03          	8.314
MS.158         	16             	8.351
MS.159         	15.965         	8.297
MS.160         	15.935         	8.309
MS.161         	15.905         	8.326
MS.162         	15.87          	8.383
MS.163         	15.84          	8.364
MS.164         	15.81          	8.337
MS.165         	15.775         	8.347
MS.166         	15.745         	8.337
MS.167         	15.715         	8.341
MS.168         	15.68          	8.361
MS.169         	15.65          	8.326
MS.170         	15.62          	8.368
MS.171         	15.59          	8.26
MS.172         	15.555         	8.26
MS.173         	15.525         	8.272
MS.174         	15.495         	8.256
MS.175         	15.465         	8.263
MS.176         	15.435         	8.344
MS.177         	15.4           	8.339
MS.178         	15.37          	8.262
MS.179         	15.34          	8.203
MS.180         	15.31          	8.245
MS.181         	15.28          	8.174
MS.182         	15.25          	8.24
MS.183         	15.22          	8.298
MS.184         	15.19          	8.154
MS.185         	15.16          	8.21
MS.186         	15.13          	8.221
MS.187         	15.095         	8.179
MS.188         	15.065         	8.176
MS.189         	15.035         	8.074
MS.190         	15.005         	8.197
MS.191         	14.975         	8.231
MS.192         	14.945         	8.203
MS.193         	14.915         	8.223
MS.194         	14.885         	8.133
MS.195         	14.86          	8.183
MS.196         	14.83          	8.246
MS.197         	14.8           	8.132
MS.198         	14.77          	8.164
MS.199         	14.74          	8.051
MS.200         	14.71          	7.952
MS.201         	14.68          	8.029
MS.202         	14.65          	8.006
MS.203         	14.62          	8.097
MS.204         	14.595         	8.079
MS.205         	14.565         	8.097
MS.206         	14.535         	8.097
MS.207         	14.505         	8.077
MS.208         	14.475         	8.022
MS.209         	14.445         	8.056
MS.210         	14.42          	7.954
MS.211         	14.39          	7.973
MS.212         	14.36          	7.923
MS.213         	14.33          	7.846
MS.214         	14.305         	7.842
MS.215         	14.275         	7.886
MS.216         	14.245         	7.867
MS.217         	14.22          	7.866
MS.218         	14.19          	7.855
MS.219         	14.16          	7.859
MS.220         	14.135         	7.702
MS.221         	14.105         	7.812
MS.222         	14.075         	7.756
MS.223         	14.05          	7.805
MS.224         	14.02          	7.722
MS.225         	13.99          	7.693
MS.226         	13.965         	7.649
MS.227         	13.935         	7.666
MS.228         	13.91          	7.471
MS.229         	13.88          	7.693
MS.230         	13.855         	7.651
MS.231         	13.825         	7.419
MS.232         	13.8           	7.56
MS.233         	13.77          	7.613
MS.234         	13.745         	7.492
MS.235         	13.715         	7.559
MS.236         	13.69          	7.346
MS.237         	13.66          	7.292
MS.238         	13.635         	7.437
MS.239         	13.605         	7.151
MS.240         	13.58          	7.161
MS.241         	13.55          	7.095
MS.242         	13.525         	7.256
MS.243         	13.5           	6.969
MS.244         	13.47          	7.089
MS.245         	13.445         	6.984
MS.246         	13.415         	6.87
MS.247         	13.39          	7.014
MS.248         	13.365         	6.913
MS.249         	13.335         	6.814
MS.250         	13.31          	6.918
MS.251         	13.285         	6.735
MS.252         	13.255         	6.528
MS.253         	13.23          	6.675
MS.254         	13.205         	6.771
MS.255         	13.18          	6.597
MS.256         	13.15          	6.572
MS.257         	13.125         	6.516
MS.258         	13.1           	6.747
MS.259         	13.075         	6.512
MS.260         	13.045         	6.349
MS.261         	13.02          	6.617
MS.262         	12.995         	6.542
MS.263         	12.97          	6.335
MS.264         	12.945         	6.068
MS.265         	12.915         	6.192
MS.266         	12.89          	6.381
MS.267         	12.865         	5.96
MS.268         	12.84          	6.294
MS.269         	12.815         	6.158
MS.270         	12.79          	6.221
MS.271         	12.765         	6.198
MS.272         	12.735         	6.235
MS.273         	12.71          	6.025
MS.274         	12.685         	6.022
MS.275         	12.66          	5.703
MS.276         	12.635         	6.038
MS.277         	12.61          	5.856
MS.278         	12.585         	5.742
MS.279         	12.56          	5.826
MS.280         	12.535         	5.663
MS.281         	12.51          	5.791
MS.282         	12.485         	5.875
MS.283         	12.46          	5.578
MS.284         	12.435         	5.83
MS.285         	12.41          	5.743
MS.286         	12.385         	5.566
MS.287         	12.36          	5.737
MS.288         	12.335         	5.406
MS.289         	12.31          	5.5
MS.290         	12.285         	5.322
MS.291         	12.26          	5.275
MS.292         	12.24          	5.542
MS.293         	12.215         	5.378
MS.294         	12.19          	5.16
MS.295         	12.165         	5.176
MS.296         	12.14          	5.003
MS.297         	12.115         	5.175
MS.298         	12.09          	4.958
MS.299         	12.07          	5.005
MS.300         	12.045         	5.251
MS.301         	12.02          	4.83
MS.302         	11.995         	4.969
MS.303         	11.97          	5.043
MS.304         	11.945         	4.923
MS.305         	11.925         	4.961
MS.306         	11.9           	4.674
MS.307         	11.875         	4.592
MS.308         	11.85          	4.688
MS.309         	11.83          	4.626
MS.310         	11.805         	4.636
MS.311         	11.78          	4.627
MS.312         	11.76          	4.349
MS.313         	11.735         	4.313
MS.314         	11.71          	4.376
MS.315         	11.685         	4.303
MS.316         	11.665         	4.555
MS.317         	11.64          	4.054
MS.318         	11.62          	4.124
MS.319         	11.595         	4.155
MS.320         	11.57          	4.014
MS.321         	11.55          	4.261
MS.322         	11.525         	3.94
MS.323         	11.5           	3.923
MS.324         	11.48          	4.049
MS.325         	11.455         	3.833
MS.326         	11.435         	4.027
MS.327         	11.41          	3.693
MS.328         	11.39          	3.737
MS.329         	11.365         	3.716
MS.330         	11.34          	4.186
MS.331         	11.32          	4.23
MS.332         	11.295         	4.418
MS.333         	11.275         	4.175
MS.334         	11.25          	4.213
MS.335         	11.23          	4.047
MS.336         	11.205         	4.221
MS.337         	11.185         	4.094
MS.338         	11.16          	3.884
MS.339         	11.14          	4.188
MS.340         	11.115         	4.131
MS.341         	11.095         	3.906
MS.342         	11.075         	3.943
MS.343         	11.05          	3.845
MS.344         	11.03          	3.908
MS.345         	11.005         	3.746
MS.346         	10.985         	3.914
MS.347         	10.965         	3.641
MS.348         	10.94          	3.754
MS.349         	10.92          	3.843
MS.350         	10.895         	3.69
MS.351         	10.875         	3.632
MS.352         	10.855         	3.58
MS.353         	10.83          	3.467
MS.354         	10.81          	3.689
MS.355         	10.79          	3.614
MS.356         	10.765         	3.336
MS.357         	10.745         	3.304
MS.358         	10.725         	3.39
MS.359         	10.705         	3.483
MS.360         	10.68          	3.287
MS.361         	10.66          	3.519
MS.362         	10.64          	3.529
MS.363         	10.62          	3.189
MS.364         	10.595         	3.317
MS.365         	10.575         	3.004
MS.366         	10.555         	3.13
MS.367         	10.535         	3.129
MS.368         	10.51          	2.916
MS.369         	10.49          	3.129
MS.370         	10.47          	3.145
MS.371         	10.45          	3.093
MS.372         	10.43          	2.994
MS.373         	10.405         	2.665
MS.374         	10.385         	2.77
MS.375         	10.365         	2.778
MS.376         	10.345         	2.772
MS.377         	10.325         	2.742
MS.378         	10.305         	2.634
MS.379         	10.285         	2.643
MS.380         	10.265         	2.488
MS.381         	10.24          	2.264
MS.382         	10.22          	2.399
MS.383         	10.2           	2.394
MS.384         	10.18          	2.313
MS.385         	10.16          	2.226
MS.386         	10.14          	2.164
MS.387         	10.12          	2.321
MS.388         	10.1           	2.238
MS.389         	10.08          	2.463
MS.390         	10.06          	2.037
MS.391         	10.04          	2.061
MS.392         	10.02          	2.017
MS.393         	10             	2.18
MS.394         	9.98           	1.98
MS.395         	9.96           	1.959
MS.396         	9.94           	1.953
MS.397         	9.92           	1.967
MS.398         	9.9            	1.821
MS.399         	9.88           	2.07
MS.400         	9.86           	1.896
MS.401         	9.84           	1.807
MS.402         	9.82           	1.849
MS.403         	9.8            	1.898
MS.404         	9.78           	1.806
MS.405         	9.76           	1.776
MS.406         	9.745          	1.737
MS.407         	9.725          	1.719
MS.408         	9.705          	1.749
MS.409         	9.685          	1.731
MS.410         	9.665          	1.799
MS.411         	9.645          	1.63
MS.412         	9.625          	1.737
MS.413         	9.605          	1.595
MS.414         	9.59           	1.641
MS.415         	9.57           	1.558
MS.416         	9.55           	1.657
MS.417         	9.53           	1.556
MS.418         	9.51           	1.525
MS.419         	9.495          	1.465
MS.420         	9.475          	1.494
MS.421         	9.455          	1.492
MS.422         	9.435          	1.503
MS.423         	9.415          	1.409
MS.424         	9.4            	1.368
MS.425         	9.38           	1.403
MS.426         	9.36           	1.342
MS.427         	9.34           	1.394
MS.428         	9.325          	1.331
MS.429         	9.305          	1.262
MS.430         	9.285          	1.351
MS.431         	9.27           	1.306
MS.432         	9.25           	1.318
MS.433         	9.23           	1.255
MS.434         	9.21           	1.218
MS.435         	9.195          	1.163
MS.436         	9.175          	1.207
MS.437         	9.155          	1.111
MS.438         	9.14           	1.175
MS.439         	9.12           	1.265
MS.440         	9.1            	1.069
MS.441         	9.085          	1.124
MS.442         	9.065          	1.015
MS.443         	9.05           	1.074
MS.444         	9.03           	0.999
MS.445         	9.01           	1.011
MS.446         	8.995          	1.092
MS.447         	8.975          	0.825
MS.448         	8.96           	0.869
MS.449         	8.94           	0.898
MS.450         	8.92           	0.9
MS.451         	8.905          	0.668
MS.452         	8.885          	0.763
MS.453         	8.87           	0.717
MS.454         	8.85           	0.762
MS.455         	8.835          	0.756
MS.456         	8.815          	0.576
MS.457         	8.8            	0.688
MS.458         	8.78           	0.616
MS.459         	8.765          	0.564
MS.460         	8.745          	0.588
MS.461         	8.73           	0.565
MS.462         	8.71           	0.512
MS.463         	8.695          	0.563
MS.464         	8.675          	0.587
MS.465         	8.66           	0.57
MS.466         	8.64           	0.472
MS.467         	8.625          	0.49
MS.468         	8.605          	0.607
MS.469         	8.59           	0.485
MS.470         	8.57           	0.508
MS.471         	8.555          	0.48
MS.472         	8.54           	0.464
MS.473         	8.52           	0.408
MS.474         	8.505          	0.55
MS.475         	8.485          	0.461
MS.476         	8.47           	0.44
MS.477         	8.455          	0.424
MS.478         	8.435          	0.363
MS.479         	8.42           	0.361
MS.480         	8.4            	0.386
MS.481         	8.385          	0.37
MS.482         	8.37           	0.389
MS.483         	8.35           	0.437
MS.484         	8.335          	0.424
MS.485         	8.32           	0.382
MS.486         	8.3            	0.356
MS.487         	8.285          	0.391
MS.488         	8.27           	0.377
MS.489         	8.255          	0.344
MS.490         	8.235          	0.333
MS.491         	8.22           	0.33
MS.492         	8.205          	0.269
MS.493         	8.185          	0.289
MS.494         	8.17           	0.221
MS.495         	8.155          	0.332
MS.496         	8.14           	0.314
MS.497         	8.12           	0.273
MS.498         	8.105          	0.214
MS.499         	8.09           	0.3
MS.500         	8.075          	0.201
MS.501         	8.055          	0.217
