File:              	C:\Qtrac\Data\CKMC01021G.QZD
Name:              	DK.COP.NC.5.1
Protocol:          	MSCAN-R2
Date:              	21/10/20
Start time:        	13:37:14
Age:               	44
Sex:               	F
Temperature:       	37.4
S/R sites:         	RUln Wr-ADQ
NC/disease:        	NC
Operator:          	CK
Comments:          	CG
M-SCAN DATA (6.3-1.5m)
Scanpts: 37, 45, 498, 518
Stim. (mA)     	Amp. (mV)
MS.1           	10             	11.707
MS.2           	10             	11.697
MS.3           	10             	11.687
MS.4           	10             	11.755
MS.5           	10             	11.697
MS.6           	10             	11.732
MS.7           	10             	11.751
MS.8           	10             	11.815
MS.9           	10             	11.792
MS.10          	10             	11.757
MS.11          	10             	11.804
MS.12          	10             	11.794
MS.13          	10             	11.824
MS.14          	10             	11.829
MS.15          	10             	11.816
MS.16          	10             	11.841
MS.17          	10             	11.826
MS.18          	10             	11.806
MS.19          	10             	11.827
MS.20          	10             	11.836
MS.21          	10             	11.853
MS.22          	10             	11.819
MS.23          	10             	11.765
MS.24          	9.96           	11.833
MS.25          	9.94           	11.827
MS.26          	9.92           	11.845
MS.27          	9.9            	11.816
MS.28          	9.88           	11.876
MS.29          	9.86           	11.824
MS.30          	9.84           	11.816
MS.31          	9.82           	11.874
MS.32          	9.8            	11.852
MS.33          	9.78           	11.818
MS.34          	9.765          	11.859
MS.35          	9.745          	11.809
MS.36          	9.725          	11.818
MS.37          	9.705          	11.787
MS.38          	9.685          	11.795
MS.39          	9.665          	11.838
MS.40          	9.645          	11.815
MS.41          	9.625          	11.865
MS.42          	9.61           	11.826
MS.43          	9.59           	11.815
MS.44          	9.57           	11.83
MS.45          	9.55           	11.835
MS.46          	9.53           	11.804
MS.47          	9.51           	11.797
MS.48          	9.495          	11.836
MS.49          	9.475          	11.807
MS.50          	9.455          	11.794
MS.51          	9.435          	11.824
MS.52          	9.42           	11.816
MS.53          	9.4            	11.829
MS.54          	9.38           	11.774
MS.55          	9.36           	11.8
MS.56          	9.345          	11.809
MS.57          	9.325          	11.815
MS.58          	9.305          	11.755
MS.59          	9.285          	11.795
MS.60          	9.27           	11.823
MS.61          	9.25           	11.804
MS.62          	9.23           	11.801
MS.63          	9.215          	11.76
MS.64          	9.195          	11.815
MS.65          	9.175          	11.763
MS.66          	9.16           	11.772
MS.67          	9.14           	11.787
MS.68          	9.12           	11.769
MS.69          	9.105          	11.742
MS.70          	9.085          	11.78
MS.71          	9.065          	11.748
MS.72          	9.05           	11.731
MS.73          	9.03           	11.723
MS.74          	9.01           	11.716
MS.75          	8.995          	11.751
MS.76          	8.975          	11.699
MS.77          	8.96           	11.708
MS.78          	8.94           	11.688
MS.79          	8.925          	11.711
MS.80          	8.905          	11.674
MS.81          	8.885          	11.745
MS.82          	8.87           	11.679
MS.83          	8.85           	11.685
MS.84          	8.835          	11.642
MS.85          	8.815          	11.646
MS.86          	8.8            	11.67
MS.87          	8.78           	11.671
MS.88          	8.765          	11.554
MS.89          	8.745          	11.623
MS.90          	8.73           	11.592
MS.91          	8.71           	11.446
MS.92          	8.695          	11.655
MS.93          	8.675          	11.504
MS.94          	8.66           	11.54
MS.95          	8.64           	11.621
MS.96          	8.625          	11.554
MS.97          	8.605          	11.368
MS.98          	8.59           	11.386
MS.99          	8.575          	11.49
MS.100         	8.555          	11.443
MS.101         	8.54           	11.331
MS.102         	8.52           	11.412
MS.103         	8.505          	11.311
MS.104         	8.485          	11.497
MS.105         	8.47           	11.368
MS.106         	8.455          	11.343
MS.107         	8.435          	11.285
MS.108         	8.42           	11.342
MS.109         	8.405          	11.461
MS.110         	8.385          	11.302
MS.111         	8.37           	11.333
MS.112         	8.355          	11.313
MS.113         	8.335          	11.388
MS.114         	8.32           	11.244
MS.115         	8.305          	11.33
MS.116         	8.285          	11.302
MS.117         	8.27           	11.261
MS.118         	8.255          	11.31
MS.119         	8.235          	11.307
MS.120         	8.22           	11.238
MS.121         	8.205          	11.252
MS.122         	8.185          	11.226
MS.123         	8.17           	11.241
MS.124         	8.155          	11.188
MS.125         	8.14           	11.201
MS.126         	8.12           	11.2
MS.127         	8.105          	11.203
MS.128         	8.09           	11.237
MS.129         	8.075          	11.221
MS.130         	8.055          	11.197
MS.131         	8.04           	11.113
MS.132         	8.025          	11.156
MS.133         	8.01           	11.186
MS.134         	7.995          	11.124
MS.135         	7.975          	11.046
MS.136         	7.96           	11.07
MS.137         	7.945          	11.069
MS.138         	7.93           	11.096
MS.139         	7.915          	11.086
MS.140         	7.9            	11.052
MS.141         	7.88           	11.003
MS.142         	7.865          	10.895
MS.143         	7.85           	11.008
MS.144         	7.835          	10.933
MS.145         	7.82           	10.965
MS.146         	7.805          	10.899
MS.147         	7.79           	10.973
MS.148         	7.77           	10.863
MS.149         	7.755          	10.902
MS.150         	7.74           	10.854
MS.151         	7.725          	10.884
MS.152         	7.71           	10.782
MS.153         	7.695          	10.863
MS.154         	7.68           	10.661
MS.155         	7.665          	10.849
MS.156         	7.65           	10.716
MS.157         	7.635          	10.718
MS.158         	7.62           	10.725
MS.159         	7.605          	10.721
MS.160         	7.59           	10.718
MS.161         	7.575          	10.674
MS.162         	7.56           	10.529
MS.163         	7.545          	10.62
MS.164         	7.53           	10.646
MS.165         	7.515          	10.616
MS.166         	7.5            	10.652
MS.167         	7.485          	10.475
MS.168         	7.47           	10.564
MS.169         	7.455          	10.556
MS.170         	7.44           	10.583
MS.171         	7.425          	10.609
MS.172         	7.41           	10.414
MS.173         	7.395          	10.48
MS.174         	7.38           	10.46
MS.175         	7.365          	10.416
MS.176         	7.35           	10.435
MS.177         	7.335          	10.44
MS.178         	7.32           	10.359
MS.179         	7.305          	10.469
MS.180         	7.29           	10.321
MS.181         	7.275          	10.37
MS.182         	7.26           	10.356
MS.183         	7.245          	10.257
MS.184         	7.23           	10.153
MS.185         	7.22           	10.237
MS.186         	7.205          	10.063
MS.187         	7.19           	10.155
MS.188         	7.175          	10.291
MS.189         	7.16           	10.217
MS.190         	7.145          	10.107
MS.191         	7.13           	10.185
MS.192         	7.12           	10.013
MS.193         	7.105          	10.028
MS.194         	7.09           	10.086
MS.195         	7.075          	9.776
MS.196         	7.06           	9.924
MS.197         	7.045          	9.755
MS.198         	7.035          	9.918
MS.199         	7.02           	9.709
MS.200         	7.005          	9.801
MS.201         	6.99           	9.698
MS.202         	6.975          	9.48
MS.203         	6.965          	9.413
MS.204         	6.95           	9.584
MS.205         	6.935          	9.418
MS.206         	6.92           	9.428
MS.207         	6.905          	9.262
MS.208         	6.895          	9.222
MS.209         	6.88           	9.337
MS.210         	6.865          	9.039
MS.211         	6.85           	9.285
MS.212         	6.84           	9.41
MS.213         	6.825          	9.213
MS.214         	6.81           	9.341
MS.215         	6.8            	9.203
MS.216         	6.785          	9.27
MS.217         	6.77           	8.96
MS.218         	6.755          	9.123
MS.219         	6.745          	8.881
MS.220         	6.73           	8.87
MS.221         	6.715          	8.759
MS.222         	6.705          	8.928
MS.223         	6.69           	8.82
MS.224         	6.675          	8.853
MS.225         	6.665          	8.9
MS.226         	6.65           	8.714
MS.227         	6.635          	8.64
MS.228         	6.625          	8.662
MS.229         	6.61           	8.626
MS.230         	6.595          	8.488
MS.231         	6.585          	8.517
MS.232         	6.57           	8.397
MS.233         	6.555          	8.382
MS.234         	6.545          	8.296
MS.235         	6.53           	8.315
MS.236         	6.52           	8.269
MS.237         	6.505          	8.038
MS.238         	6.49           	8.151
MS.239         	6.48           	8.052
MS.240         	6.465          	7.895
MS.241         	6.455          	7.947
MS.242         	6.44           	7.968
MS.243         	6.425          	7.837
MS.244         	6.415          	7.939
MS.245         	6.4            	7.809
MS.246         	6.39           	7.607
MS.247         	6.375          	7.922
MS.248         	6.365          	7.506
MS.249         	6.35           	7.704
MS.250         	6.34           	7.661
MS.251         	6.325          	7.677
MS.252         	6.315          	7.457
MS.253         	6.3            	7.483
MS.254         	6.29           	7.597
MS.255         	6.275          	7.407
MS.256         	6.265          	7.521
MS.257         	6.25           	7.541
MS.258         	6.24           	7.336
MS.259         	6.225          	7.382
MS.260         	6.215          	7.127
MS.261         	6.2            	7.181
MS.262         	6.19           	7.111
MS.263         	6.175          	6.86
MS.264         	6.165          	6.76
MS.265         	6.15           	6.966
MS.266         	6.14           	6.642
MS.267         	6.125          	6.88
MS.268         	6.115          	6.816
MS.269         	6.1            	6.865
MS.270         	6.09           	6.567
MS.271         	6.075          	6.487
MS.272         	6.065          	6.529
MS.273         	6.055          	6.328
MS.274         	6.04           	6.271
MS.275         	6.03           	6.091
MS.276         	6.015          	6.348
MS.277         	6.005          	6.415
MS.278         	5.995          	6.094
MS.279         	5.98           	6.035
MS.280         	5.97           	6.107
MS.281         	5.955          	5.927
MS.282         	5.945          	6.059
MS.283         	5.935          	6.009
MS.284         	5.92           	5.82
MS.285         	5.91           	6.021
MS.286         	5.9            	5.594
MS.287         	5.885          	5.518
MS.288         	5.875          	5.528
MS.289         	5.865          	5.499
MS.290         	5.85           	5.333
MS.291         	5.84           	5.234
MS.292         	5.825          	5.209
MS.293         	5.815          	5.127
MS.294         	5.805          	5.136
MS.295         	5.795          	5.023
MS.296         	5.78           	4.915
MS.297         	5.77           	4.97
MS.298         	5.76           	4.726
MS.299         	5.745          	5.084
MS.300         	5.735          	4.787
MS.301         	5.725          	4.654
MS.302         	5.71           	4.71
MS.303         	5.7            	4.686
MS.304         	5.69           	4.518
MS.305         	5.68           	4.422
MS.306         	5.665          	4.309
MS.307         	5.655          	4.539
MS.308         	5.645          	4.155
MS.309         	5.635          	4.372
MS.310         	5.62           	4.184
MS.311         	5.61           	4.276
MS.312         	5.6            	4.279
MS.313         	5.59           	3.949
MS.314         	5.575          	3.676
MS.315         	5.565          	3.947
MS.316         	5.555          	3.862
MS.317         	5.545          	3.607
MS.318         	5.53           	3.651
MS.319         	5.52           	3.868
MS.320         	5.51           	3.519
MS.321         	5.5            	3.424
MS.322         	5.49           	3.445
MS.323         	5.475          	3.355
MS.324         	5.465          	3.433
MS.325         	5.455          	3.035
MS.326         	5.445          	3.252
MS.327         	5.435          	3.146
MS.328         	5.425          	3.059
MS.329         	5.41           	2.917
MS.330         	5.4            	3.032
MS.331         	5.39           	2.963
MS.332         	5.38           	3.278
MS.333         	5.37           	2.899
MS.334         	5.36           	2.777
MS.335         	5.345          	2.853
MS.336         	5.335          	2.582
MS.337         	5.325          	2.504
MS.338         	5.315          	2.625
MS.339         	5.305          	2.64
MS.340         	5.295          	2.443
MS.341         	5.285          	2.277
MS.342         	5.275          	2.357
MS.343         	5.26           	2.42
MS.344         	5.25           	2.353
MS.345         	5.24           	2.299
MS.346         	5.23           	2.097
MS.347         	5.22           	2.042
MS.348         	5.21           	2.151
MS.349         	5.2            	2.013
MS.350         	5.19           	2.216
MS.351         	5.18           	1.779
MS.352         	5.17           	2.087
MS.353         	5.16           	1.907
MS.354         	5.15           	1.852
MS.355         	5.14           	1.646
MS.356         	5.125          	1.599
MS.357         	5.115          	1.823
MS.358         	5.105          	1.433
MS.359         	5.095          	1.637
MS.360         	5.085          	1.596
MS.361         	5.075          	1.523
MS.362         	5.065          	1.527
MS.363         	5.055          	1.642
MS.364         	5.045          	1.353
MS.365         	5.035          	1.498
MS.366         	5.025          	1.382
MS.367         	5.015          	1.28
MS.368         	5.005          	1.334
MS.369         	4.995          	1.305
MS.370         	4.985          	1.314
MS.371         	4.975          	1.089
MS.372         	4.965          	1.144
MS.373         	4.955          	1.082
MS.374         	4.945          	1.086
MS.375         	4.935          	0.981
MS.376         	4.925          	0.964
MS.377         	4.915          	1.041
MS.378         	4.905          	0.922
MS.379         	4.895          	0.854
MS.380         	4.885          	1.112
MS.381         	4.875          	0.853
MS.382         	4.87           	1.093
MS.383         	4.86           	0.844
MS.384         	4.85           	0.96
MS.385         	4.84           	1.109
MS.386         	4.83           	0.804
MS.387         	4.82           	0.652
MS.388         	4.81           	0.706
MS.389         	4.8            	0.613
MS.390         	4.79           	0.656
MS.391         	4.78           	0.894
MS.392         	4.77           	0.714
MS.393         	4.76           	0.783
MS.394         	4.75           	0.529
MS.395         	4.745          	0.813
MS.396         	4.735          	0.639
MS.397         	4.725          	0.566
MS.398         	4.715          	0.508
MS.399         	4.705          	0.517
MS.400         	4.695          	0.534
MS.401         	4.685          	0.525
MS.402         	4.675          	0.513
MS.403         	4.665          	0.423
MS.404         	4.66           	0.301
MS.405         	4.65           	0.381
MS.406         	4.64           	0.479
MS.407         	4.63           	0.362
MS.408         	4.62           	0.371
MS.409         	4.61           	0.278
MS.410         	4.6            	0.407
MS.411         	4.595          	0.479
MS.412         	4.585          	0.385
MS.413         	4.575          	0.23
MS.414         	4.565          	0.32
MS.415         	4.555          	0.249
MS.416         	4.55           	0.267
MS.417         	4.54           	0.269
MS.418         	4.53           	0.204
MS.419         	4.52           	0.16
MS.420         	4.51           	0.2
MS.421         	4.5            	0.117
MS.422         	4.495          	0.215
MS.423         	4.485          	0.255
MS.424         	4.475          	0.015
MS.425         	4.465          	0.212
MS.426         	4.455          	0.185
MS.427         	4.45           	0.113
MS.428         	4.44           	0.014
MS.429         	4.43           	0.021
MS.430         	4.42           	0.117
MS.431         	4.415          	0.02
MS.432         	4.405          	-0.037
MS.433         	4.395          	0.143
MS.434         	4.385          	0.038
MS.435         	4.38           	0.177
MS.436         	4.37           	0.052
MS.437         	4.36           	-0.092
MS.438         	4.35           	-0.037
MS.439         	4.345          	-0.066
MS.440         	4.335          	-0.041
MS.441         	4.325          	-0.029
MS.442         	4.315          	-0.041
MS.443         	4.31           	-0.021
MS.444         	4.3            	-0.014
MS.445         	4.29           	-0.053
MS.446         	4.285          	-0.056
MS.447         	4.275          	-0.056
MS.448         	4.265          	-0.093
MS.449         	4.255          	-0.073
MS.450         	4.25           	0.046
MS.451         	4.24           	-0.003
MS.452         	4.23           	-0.075
MS.453         	4.225          	-0.06
MS.454         	4.215          	-0.023
MS.455         	4.205          	-0.069
MS.456         	4.2            	-0.061
MS.457         	4.19           	-0.082
MS.458         	4.18           	-0.089
MS.459         	4.175          	-0.093
MS.460         	4.165          	-0.012
MS.461         	4.155          	-0.081
MS.462         	4.15           	-0.082
MS.463         	4.14           	-0.092
MS.464         	4.13           	-0.09
MS.465         	4.125          	-0.067
MS.466         	4.115          	-0.067
MS.467         	4.105          	-0.093
MS.468         	4.1            	-0.072
MS.469         	4.09           	-0.073
MS.470         	4.08           	-0.07
MS.471         	4.075          	-0.078
MS.472         	4.065          	-0.078
MS.473         	4.06           	-0.075
MS.474         	4.05           	-0.076
MS.475         	4.04           	-0.076
MS.476         	4.035          	-0.084
MS.477         	4.025          	-0.087
MS.478         	4.015          	-0.076
MS.479         	4.01           	-0.073
MS.480         	4              	-0.078
MS.481         	3.995          	-0.081
MS.482         	3.985          	-0.067
MS.483         	3.975          	-0.063
MS.484         	3.97           	-0.066
MS.485         	3.96           	-0.087
MS.486         	3.955          	-0.064
MS.487         	3.945          	-0.076
MS.488         	3.94           	-0.05
MS.489         	3.93           	-0.067
MS.490         	3.92           	-0.085
MS.491         	3.915          	-0.067
MS.492         	3.905          	-0.076
MS.493         	3.9            	-0.067
MS.494         	3.89           	-0.07
MS.495         	3.885          	-0.09
MS.496         	3.875          	-0.084
