File:              	C:\Qtrac\Data\CKMC01104F.QZD
Name:              	DK.COP.NC.6.2
Protocol:          	MSCAN-R2
Date:              	4/11/20
Start time:        	11:18:38
Age:               	43
Sex:               	F
Temperature:       	39.2
S/R sites:         	RUln Wr-ADQ
NC/disease:        	NC
Operator:          	CK
Comments:          	CG
M-SCAN DATA (7.6-1.5m)
Scanpts: 174, 179, 640, 659
Stim. (mA)     	Amp. (mV)
MS.1           	25             	8.184
MS.2           	25             	8.264
MS.3           	25             	8.205
MS.4           	25             	8.062
MS.5           	25             	8.023
MS.6           	25             	8.116
MS.7           	25             	8.2
MS.8           	25             	8.133
MS.9           	25             	8.09
MS.10          	25             	8.087
MS.11          	25             	8.176
MS.12          	25             	8.177
MS.13          	25             	8.154
MS.14          	25             	8.122
MS.15          	25             	8.145
MS.16          	25             	8.268
MS.17          	25             	8.307
MS.18          	25             	8.406
MS.19          	25             	8.436
MS.20          	25             	8.444
MS.21          	25             	8.469
MS.22          	25             	8.484
MS.23          	25             	8.514
MS.24          	24.9           	8.501
MS.25          	24.85          	8.486
MS.26          	24.8           	8.458
MS.27          	24.75          	8.502
MS.28          	24.7           	8.42
MS.29          	24.65          	8.491
MS.30          	24.605         	8.522
MS.31          	24.555         	8.549
MS.32          	24.505         	8.558
MS.33          	24.455         	8.561
MS.34          	24.405         	8.533
MS.35          	24.36          	8.547
MS.36          	24.31          	8.484
MS.37          	24.26          	8.513
MS.38          	24.215         	8.503
MS.39          	24.165         	8.529
MS.40          	24.115         	8.537
MS.41          	24.07          	8.558
MS.42          	24.02          	8.523
MS.43          	23.97          	8.409
MS.44          	23.925         	8.397
MS.45          	23.875         	8.102
MS.46          	23.83          	8.312
MS.47          	23.78          	8.397
MS.48          	23.735         	8.518
MS.49          	23.685         	8.545
MS.50          	23.64          	8.601
MS.51          	23.59          	8.547
MS.52          	23.545         	8.56
MS.53          	23.495         	8.49
MS.54          	23.45          	8.61
MS.55          	23.405         	8.622
MS.56          	23.355         	8.602
MS.57          	23.31          	8.621
MS.58          	23.265         	8.609
MS.59          	23.215         	8.608
MS.60          	23.17          	8.444
MS.61          	23.125         	8.575
MS.62          	23.08          	8.45
MS.63          	23.03          	8.315
MS.64          	22.985         	8.424
MS.65          	22.94          	8.488
MS.66          	22.895         	8.58
MS.67          	22.85          	8.472
MS.68          	22.805         	8.525
MS.69          	22.755         	8.591
MS.70          	22.71          	8.503
MS.71          	22.665         	8.555
MS.72          	22.62          	8.536
MS.73          	22.575         	8.622
MS.74          	22.53          	8.585
MS.75          	22.485         	8.495
MS.76          	22.44          	8.525
MS.77          	22.395         	8.529
MS.78          	22.35          	8.536
MS.79          	22.305         	8.546
MS.80          	22.26          	8.573
MS.81          	22.215         	8.623
MS.82          	22.175         	8.619
MS.83          	22.13          	8.608
MS.84          	22.085         	8.555
MS.85          	22.04          	8.521
MS.86          	21.995         	8.601
MS.87          	21.95          	8.558
MS.88          	21.91          	8.591
MS.89          	21.865         	8.561
MS.90          	21.82          	8.565
MS.91          	21.775         	8.542
MS.92          	21.735         	8.582
MS.93          	21.69          	8.585
MS.94          	21.645         	8.578
MS.95          	21.605         	8.539
MS.96          	21.56          	8.603
MS.97          	21.52          	8.581
MS.98          	21.475         	8.563
MS.99          	21.43          	8.531
MS.100         	21.39          	8.58
MS.101         	21.345         	8.559
MS.102         	21.305         	8.572
MS.103         	21.26          	8.57
MS.104         	21.22          	8.575
MS.105         	21.175         	8.57
MS.106         	21.135         	8.608
MS.107         	21.09          	8.56
MS.108         	21.05          	8.589
MS.109         	21.005         	8.584
MS.110         	20.965         	8.58
MS.111         	20.925         	8.607
MS.112         	20.88          	8.589
MS.113         	20.84          	8.606
MS.114         	20.8           	8.62
MS.115         	20.755         	8.594
MS.116         	20.715         	8.618
MS.117         	20.675         	8.61
MS.118         	20.635         	8.616
MS.119         	20.59          	8.591
MS.120         	20.55          	8.571
MS.121         	20.51          	8.632
MS.122         	20.47          	8.594
MS.123         	20.425         	8.612
MS.124         	20.385         	8.607
MS.125         	20.345         	8.602
MS.126         	20.305         	8.588
MS.127         	20.265         	8.585
MS.128         	20.225         	8.594
MS.129         	20.185         	8.6
MS.130         	20.145         	8.541
MS.131         	20.105         	8.607
MS.132         	20.065         	8.577
MS.133         	20.025         	8.58
MS.134         	19.985         	8.604
MS.135         	19.945         	8.616
MS.136         	19.905         	8.616
MS.137         	19.865         	8.578
MS.138         	19.825         	8.586
MS.139         	19.785         	8.605
MS.140         	19.745         	8.594
MS.141         	19.705         	8.61
MS.142         	19.665         	8.587
MS.143         	19.625         	8.57
MS.144         	19.585         	8.598
MS.145         	19.55          	8.587
MS.146         	19.51          	8.606
MS.147         	19.47          	8.624
MS.148         	19.43          	8.607
MS.149         	19.39          	8.563
MS.150         	19.355         	8.442
MS.151         	19.315         	8.406
MS.152         	19.275         	8.569
MS.153         	19.24          	8.589
MS.154         	19.2           	8.618
MS.155         	19.16          	8.626
MS.156         	19.125         	8.602
MS.157         	19.085         	8.607
MS.158         	19.045         	8.632
MS.159         	19.01          	8.632
MS.160         	18.97          	8.625
MS.161         	18.93          	8.636
MS.162         	18.895         	8.627
MS.163         	18.855         	8.635
MS.164         	18.82          	8.638
MS.165         	18.78          	8.625
MS.166         	18.745         	8.668
MS.167         	18.705         	8.627
MS.168         	18.67          	8.628
MS.169         	18.63          	8.629
MS.170         	18.595         	8.651
MS.171         	18.555         	8.62
MS.172         	18.52          	8.627
MS.173         	18.485         	8.635
MS.174         	18.445         	8.667
MS.175         	18.41          	8.645
MS.176         	18.375         	8.661
MS.177         	18.335         	8.648
MS.178         	18.3           	8.654
MS.179         	18.265         	8.646
MS.180         	18.225         	8.649
MS.181         	18.19          	8.646
MS.182         	18.155         	8.613
MS.183         	18.115         	8.638
MS.184         	18.08          	8.639
MS.185         	18.045         	8.658
MS.186         	18.01          	8.647
MS.187         	17.975         	8.675
MS.188         	17.935         	8.646
MS.189         	17.9           	8.66
MS.190         	17.865         	8.625
MS.191         	17.83          	8.635
MS.192         	17.795         	8.651
MS.193         	17.76          	8.655
MS.194         	17.725         	8.669
MS.195         	17.69          	8.63
MS.196         	17.65          	8.691
MS.197         	17.615         	8.61
MS.198         	17.58          	8.616
MS.199         	17.545         	8.627
MS.200         	17.51          	8.599
MS.201         	17.475         	8.643
MS.202         	17.44          	8.666
MS.203         	17.405         	8.645
MS.204         	17.37          	8.657
MS.205         	17.34          	8.63
MS.206         	17.305         	8.661
MS.207         	17.27          	8.612
MS.208         	17.235         	8.663
MS.209         	17.2           	8.636
MS.210         	17.165         	8.611
MS.211         	17.13          	8.632
MS.212         	17.095         	8.629
MS.213         	17.06          	8.677
MS.214         	17.03          	8.621
MS.215         	16.995         	8.614
MS.216         	16.96          	8.661
MS.217         	16.925         	8.657
MS.218         	16.895         	8.646
MS.219         	16.86          	8.664
MS.220         	16.825         	8.605
MS.221         	16.79          	8.665
MS.222         	16.76          	8.594
MS.223         	16.725         	8.627
MS.224         	16.69          	8.596
MS.225         	16.66          	8.649
MS.226         	16.625         	8.635
MS.227         	16.59          	8.618
MS.228         	16.56          	8.69
MS.229         	16.525         	8.677
MS.230         	16.49          	8.618
MS.231         	16.46          	8.641
MS.232         	16.425         	8.675
MS.233         	16.395         	8.619
MS.234         	16.36          	8.636
MS.235         	16.33          	8.572
MS.236         	16.295         	8.647
MS.237         	16.265         	8.587
MS.238         	16.23          	8.619
MS.239         	16.2           	8.597
MS.240         	16.165         	8.567
MS.241         	16.135         	8.597
MS.242         	16.1           	8.683
MS.243         	16.07          	8.624
MS.244         	16.035         	8.643
MS.245         	16.005         	8.629
MS.246         	15.975         	8.609
MS.247         	15.94          	8.56
MS.248         	15.91          	8.552
MS.249         	15.875         	8.641
MS.250         	15.845         	8.6
MS.251         	15.815         	8.533
MS.252         	15.78          	8.537
MS.253         	15.75          	8.6
MS.254         	15.72          	8.63
MS.255         	15.69          	8.535
MS.256         	15.655         	8.578
MS.257         	15.625         	8.578
MS.258         	15.595         	8.581
MS.259         	15.565         	8.562
MS.260         	15.53          	8.616
MS.261         	15.5           	8.434
MS.262         	15.47          	8.48
MS.263         	15.44          	8.461
MS.264         	15.41          	8.431
MS.265         	15.375         	8.479
MS.266         	15.345         	8.441
MS.267         	15.315         	8.51
MS.268         	15.285         	8.281
MS.269         	15.255         	8.391
MS.270         	15.225         	8.297
MS.271         	15.195         	8.223
MS.272         	15.165         	8.351
MS.273         	15.135         	8.371
MS.274         	15.105         	8.244
MS.275         	15.07          	8.301
MS.276         	15.04          	8.086
MS.277         	15.01          	8.163
MS.278         	14.98          	8.162
MS.279         	14.95          	8.088
MS.280         	14.925         	8.143
MS.281         	14.895         	8.047
MS.282         	14.865         	8.126
MS.283         	14.835         	8.199
MS.284         	14.805         	8.126
MS.285         	14.775         	7.994
MS.286         	14.745         	8.054
MS.287         	14.715         	8.026
MS.288         	14.685         	7.971
MS.289         	14.655         	7.796
MS.290         	14.625         	7.928
MS.291         	14.6           	7.656
MS.292         	14.57          	7.921
MS.293         	14.54          	7.701
MS.294         	14.51          	7.762
MS.295         	14.48          	7.935
MS.296         	14.455         	7.603
MS.297         	14.425         	7.811
MS.298         	14.395         	7.827
MS.299         	14.365         	7.535
MS.300         	14.335         	7.739
MS.301         	14.31          	7.625
MS.302         	14.28          	7.699
MS.303         	14.25          	7.401
MS.304         	14.225         	7.384
MS.305         	14.195         	7.387
MS.306         	14.165         	7.319
MS.307         	14.14          	7.351
MS.308         	14.11          	7.437
MS.309         	14.08          	7.594
MS.310         	14.055         	7.341
MS.311         	14.025         	7.547
MS.312         	13.995         	7.349
MS.313         	13.97          	7.296
MS.314         	13.94          	7.559
MS.315         	13.915         	7.322
MS.316         	13.885         	7.324
MS.317         	13.86          	7.358
MS.318         	13.83          	7.352
MS.319         	13.805         	7.191
MS.320         	13.775         	7.234
MS.321         	13.75          	7.399
MS.322         	13.72          	7.374
MS.323         	13.695         	7.435
MS.324         	13.665         	7.413
MS.325         	13.64          	7.106
MS.326         	13.61          	7.117
MS.327         	13.585         	7.04
MS.328         	13.555         	6.988
MS.329         	13.53          	7.09
MS.330         	13.5           	6.904
MS.331         	13.475         	6.931
MS.332         	13.45          	6.951
MS.333         	13.42          	6.937
MS.334         	13.395         	7.027
MS.335         	13.37          	6.719
MS.336         	13.34          	6.597
MS.337         	13.315         	6.732
MS.338         	13.29          	6.506
MS.339         	13.26          	6.577
MS.340         	13.235         	6.646
MS.341         	13.21          	6.584
MS.342         	13.18          	6.545
MS.343         	13.155         	6.677
MS.344         	13.13          	6.514
MS.345         	13.105         	6.624
MS.346         	13.075         	6.666
MS.347         	13.05          	6.392
MS.348         	13.025         	6.478
MS.349         	13             	6.566
MS.350         	12.975         	6.464
MS.351         	12.945         	6.476
MS.352         	12.92          	6.247
MS.353         	12.895         	6.326
MS.354         	12.87          	6.536
MS.355         	12.845         	6.412
MS.356         	12.82          	5.999
MS.357         	12.795         	6.184
MS.358         	12.765         	6.196
MS.359         	12.74          	6.243
MS.360         	12.715         	6.035
MS.361         	12.69          	5.914
MS.362         	12.665         	6.137
MS.363         	12.64          	6.135
MS.364         	12.615         	5.858
MS.365         	12.59          	5.887
MS.366         	12.565         	5.646
MS.367         	12.54          	5.833
MS.368         	12.515         	5.914
MS.369         	12.49          	5.686
MS.370         	12.465         	5.643
MS.371         	12.44          	5.681
MS.372         	12.415         	5.781
MS.373         	12.39          	5.571
MS.374         	12.365         	5.739
MS.375         	12.34          	5.523
MS.376         	12.315         	5.579
MS.377         	12.29          	5.309
MS.378         	12.265         	5.358
MS.379         	12.24          	5.41
MS.380         	12.22          	5.402
MS.381         	12.195         	5.408
MS.382         	12.17          	5.468
MS.383         	12.145         	5.39
MS.384         	12.12          	5.383
MS.385         	12.095         	5.329
MS.386         	12.07          	5.378
MS.387         	12.05          	5.161
MS.388         	12.025         	5.376
MS.389         	12             	5.059
MS.390         	11.975         	4.893
MS.391         	11.95          	4.97
MS.392         	11.93          	5.057
MS.393         	11.905         	5.029
MS.394         	11.88          	5.043
MS.395         	11.855         	5.098
MS.396         	11.835         	4.997
MS.397         	11.81          	5.109
MS.398         	11.785         	5.003
MS.399         	11.76          	5.073
MS.400         	11.74          	4.783
MS.401         	11.715         	5.105
MS.402         	11.69          	4.843
MS.403         	11.67          	4.732
MS.404         	11.645         	5.089
MS.405         	11.62          	4.469
MS.406         	11.6           	5.032
MS.407         	11.575         	4.85
MS.408         	11.55          	4.357
MS.409         	11.53          	4.508
MS.410         	11.505         	4.271
MS.411         	11.485         	4.675
MS.412         	11.46          	4.564
MS.413         	11.435         	4.241
MS.414         	11.415         	4.825
MS.415         	11.39          	4.097
MS.416         	11.37          	4.225
MS.417         	11.345         	4.196
MS.418         	11.325         	4.41
MS.419         	11.3           	3.911
MS.420         	11.28          	3.586
MS.421         	11.255         	3.521
MS.422         	11.235         	3.879
MS.423         	11.21          	3.77
MS.424         	11.19          	3.635
MS.425         	11.165         	3.828
MS.426         	11.145         	3.89
MS.427         	11.12          	3.732
MS.428         	11.1           	3.816
MS.429         	11.075         	3.746
MS.430         	11.055         	3.536
MS.431         	11.035         	3.762
MS.432         	11.01          	3.152
MS.433         	10.99          	3.265
MS.434         	10.965         	3.255
MS.435         	10.945         	3.129
MS.436         	10.925         	3.326
MS.437         	10.9           	3.087
MS.438         	10.88          	3.135
MS.439         	10.86          	3.106
MS.440         	10.835         	2.811
MS.441         	10.815         	2.914
MS.442         	10.795         	3.12
MS.443         	10.77          	2.805
MS.444         	10.75          	2.906
MS.445         	10.73          	3.026
MS.446         	10.705         	3.01
MS.447         	10.685         	2.93
MS.448         	10.665         	2.827
MS.449         	10.645         	2.772
MS.450         	10.62          	2.662
MS.451         	10.6           	2.589
MS.452         	10.58          	2.686
MS.453         	10.56          	2.638
MS.454         	10.535         	2.53
MS.455         	10.515         	2.437
MS.456         	10.495         	2.495
MS.457         	10.475         	2.67
MS.458         	10.455         	2.466
MS.459         	10.43          	2.429
MS.460         	10.41          	2.325
MS.461         	10.39          	2.571
MS.462         	10.37          	2.405
MS.463         	10.35          	2.217
MS.464         	10.33          	2.132
MS.465         	10.31          	2.337
MS.466         	10.285         	2.105
MS.467         	10.265         	2.286
MS.468         	10.245         	2.181
MS.469         	10.225         	1.91
MS.470         	10.205         	1.835
MS.471         	10.185         	1.788
MS.472         	10.165         	1.945
MS.473         	10.145         	2.13
MS.474         	10.125         	1.928
MS.475         	10.105         	1.779
MS.476         	10.085         	1.556
MS.477         	10.065         	1.87
MS.478         	10.045         	1.674
MS.479         	10.025         	1.743
MS.480         	10.005         	1.758
MS.481         	9.985          	1.566
MS.482         	9.965          	1.788
MS.483         	9.945          	1.62
MS.484         	9.925          	1.649
MS.485         	9.905          	1.252
MS.486         	9.885          	1.306
MS.487         	9.865          	1.19
MS.488         	9.845          	1.376
MS.489         	9.825          	1.299
MS.490         	9.805          	1.224
MS.491         	9.785          	1.061
MS.492         	9.765          	1.123
MS.493         	9.745          	1.685
MS.494         	9.725          	1.07
MS.495         	9.705          	1.28
MS.496         	9.69           	1.2
MS.497         	9.67           	1.37
MS.498         	9.65           	1.058
MS.499         	9.63           	0.888
MS.500         	9.61           	1.143
MS.501         	9.59           	1.232
MS.502         	9.57           	1.165
MS.503         	9.555          	0.831
