File:              	C:\Qtrac\Data\CKMC01104C.QZD
Name:              	DK.COP.NC.5.2
Protocol:          	MSCAN-R2
Date:              	4/11/20
Start time:        	10:04:01
Age:               	44
Sex:               	F
Temperature:       	38.8
S/R sites:         	RUln Wr-ADQ
NC/disease:        	NC
Operator:          	CK
Comments:          	CG repeat
M-SCAN DATA (6.9-1.7m)
Scanpts: 118, 132, 549, 569
Stim. (mA)     	Amp. (mV)
MS.1           	14             	10.872
MS.2           	14             	10.875
MS.3           	14             	10.875
MS.4           	14             	10.879
MS.5           	14             	10.88
MS.6           	14             	10.878
MS.7           	14             	10.881
MS.8           	14             	10.883
MS.9           	14             	10.879
MS.10          	14             	10.876
MS.11          	14             	10.881
MS.12          	14             	10.886
MS.13          	14             	10.878
MS.14          	14             	10.883
MS.15          	14             	10.879
MS.16          	14             	10.877
MS.17          	14             	10.873
MS.18          	14             	10.867
MS.19          	14             	10.868
MS.20          	14             	10.869
MS.21          	14             	10.862
MS.22          	14             	10.866
MS.23          	14             	10.862
MS.24          	13.945         	10.866
MS.25          	13.915         	10.861
MS.26          	13.89          	10.867
MS.27          	13.86          	10.866
MS.28          	13.835         	10.863
MS.29          	13.805         	10.865
MS.30          	13.78          	10.865
MS.31          	13.75          	10.867
MS.32          	13.725         	10.863
MS.33          	13.695         	10.863
MS.34          	13.67          	10.869
MS.35          	13.64          	10.862
MS.36          	13.615         	10.864
MS.37          	13.585         	10.862
MS.38          	13.56          	10.861
MS.39          	13.53          	10.866
MS.40          	13.505         	10.863
MS.41          	13.48          	10.861
MS.42          	13.45          	10.859
MS.43          	13.425         	10.859
MS.44          	13.395         	10.861
MS.45          	13.37          	10.859
MS.46          	13.345         	10.856
MS.47          	13.315         	10.859
MS.48          	13.29          	10.856
MS.49          	13.265         	10.858
MS.50          	13.235         	10.856
MS.51          	13.21          	10.861
MS.52          	13.185         	10.861
MS.53          	13.16          	10.858
MS.54          	13.13          	10.86
MS.55          	13.105         	10.86
MS.56          	13.08          	10.846
MS.57          	13.055         	10.853
MS.58          	13.025         	10.856
MS.59          	13             	10.856
MS.60          	12.975         	10.858
MS.61          	12.95          	10.828
MS.62          	12.925         	10.842
MS.63          	12.9           	10.849
MS.64          	12.87          	10.836
MS.65          	12.845         	10.854
MS.66          	12.82          	10.837
MS.67          	12.795         	10.844
MS.68          	12.77          	10.851
MS.69          	12.745         	10.837
MS.70          	12.72          	10.842
MS.71          	12.695         	10.828
MS.72          	12.67          	10.842
MS.73          	12.64          	10.824
MS.74          	12.615         	10.809
MS.75          	12.59          	10.818
MS.76          	12.565         	10.83
MS.77          	12.54          	10.82
MS.78          	12.515         	10.826
MS.79          	12.49          	10.822
MS.80          	12.465         	10.809
MS.81          	12.44          	10.815
MS.82          	12.415         	10.795
MS.83          	12.39          	10.806
MS.84          	12.365         	10.793
MS.85          	12.345         	10.792
MS.86          	12.32          	10.793
MS.87          	12.295         	10.793
MS.88          	12.27          	10.814
MS.89          	12.245         	10.794
MS.90          	12.22          	10.806
MS.91          	12.195         	10.8
MS.92          	12.17          	10.798
MS.93          	12.145         	10.807
MS.94          	12.12          	10.822
MS.95          	12.1           	10.812
MS.96          	12.075         	10.802
MS.97          	12.05          	10.81
MS.98          	12.025         	10.793
MS.99          	12             	10.789
MS.100         	11.98          	10.798
MS.101         	11.955         	10.825
MS.102         	11.93          	10.799
MS.103         	11.905         	10.787
MS.104         	11.88          	10.795
MS.105         	11.86          	10.8
MS.106         	11.835         	10.804
MS.107         	11.81          	10.81
MS.108         	11.79          	10.798
MS.109         	11.765         	10.793
MS.110         	11.74          	10.797
MS.111         	11.715         	10.785
MS.112         	11.695         	10.796
MS.113         	11.67          	10.808
MS.114         	11.645         	10.813
MS.115         	11.625         	10.804
MS.116         	11.6           	10.806
MS.117         	11.575         	10.811
MS.118         	11.555         	10.809
MS.119         	11.53          	10.803
MS.120         	11.51          	10.817
MS.121         	11.485         	10.821
MS.122         	11.46          	10.826
MS.123         	11.44          	10.823
MS.124         	11.415         	10.826
MS.125         	11.395         	10.823
MS.126         	11.37          	10.82
MS.127         	11.35          	10.823
MS.128         	11.325         	10.828
MS.129         	11.305         	10.816
MS.130         	11.28          	10.82
MS.131         	11.26          	10.796
MS.132         	11.235         	10.814
MS.133         	11.215         	10.803
MS.134         	11.19          	10.8
MS.135         	11.17          	10.8
MS.136         	11.145         	10.818
MS.137         	11.125         	10.823
MS.138         	11.1           	10.821
MS.139         	11.08          	10.803
MS.140         	11.055         	10.809
MS.141         	11.035         	10.822
MS.142         	11.015         	10.797
MS.143         	10.99          	10.826
MS.144         	10.97          	10.799
MS.145         	10.945         	10.817
MS.146         	10.925         	10.808
MS.147         	10.905         	10.782
MS.148         	10.88          	10.768
MS.149         	10.86          	10.762
MS.150         	10.84          	10.78
MS.151         	10.815         	10.802
MS.152         	10.795         	10.767
MS.153         	10.775         	10.793
MS.154         	10.75          	10.764
MS.155         	10.73          	10.776
MS.156         	10.71          	10.757
MS.157         	10.685         	10.77
MS.158         	10.665         	10.776
MS.159         	10.645         	10.765
MS.160         	10.625         	10.771
MS.161         	10.6           	10.742
MS.162         	10.58          	10.705
MS.163         	10.56          	10.72
MS.164         	10.54          	10.748
MS.165         	10.52          	10.778
MS.166         	10.495         	10.723
MS.167         	10.475         	10.689
MS.168         	10.455         	10.618
MS.169         	10.435         	10.724
MS.170         	10.415         	10.626
MS.171         	10.39          	10.615
MS.172         	10.37          	10.594
MS.173         	10.35          	10.638
MS.174         	10.33          	10.662
MS.175         	10.31          	10.625
MS.176         	10.29          	10.603
MS.177         	10.27          	10.484
MS.178         	10.25          	10.509
MS.179         	10.225         	10.395
MS.180         	10.205         	10.354
MS.181         	10.185         	10.182
MS.182         	10.165         	10.133
MS.183         	10.145         	10.324
MS.184         	10.125         	10.233
MS.185         	10.105         	10.275
MS.186         	10.085         	10.178
MS.187         	10.065         	10.198
MS.188         	10.045         	10.173
MS.189         	10.025         	10.104
MS.190         	10.005         	9.963
MS.191         	9.985          	10.015
MS.192         	9.965          	9.94
MS.193         	9.945          	9.996
MS.194         	9.925          	9.982
MS.195         	9.905          	9.996
MS.196         	9.885          	9.784
MS.197         	9.865          	9.88
MS.198         	9.845          	9.878
MS.199         	9.825          	9.815
MS.200         	9.805          	9.862
MS.201         	9.785          	9.865
MS.202         	9.765          	9.855
MS.203         	9.75           	9.846
MS.204         	9.73           	9.805
MS.205         	9.71           	9.677
MS.206         	9.69           	9.683
MS.207         	9.67           	9.822
MS.208         	9.65           	9.664
MS.209         	9.63           	9.816
MS.210         	9.61           	9.688
MS.211         	9.595          	9.611
MS.212         	9.575          	9.651
MS.213         	9.555          	9.588
MS.214         	9.535          	9.595
MS.215         	9.515          	9.554
MS.216         	9.5            	9.449
MS.217         	9.48           	9.418
MS.218         	9.46           	9.528
MS.219         	9.44           	9.495
MS.220         	9.42           	9.436
MS.221         	9.405          	9.337
MS.222         	9.385          	9.385
MS.223         	9.365          	9.36
MS.224         	9.345          	9.375
MS.225         	9.33           	9.363
MS.226         	9.31           	9.261
MS.227         	9.29           	9.291
MS.228         	9.275          	9.315
MS.229         	9.255          	9.37
MS.230         	9.235          	9.272
MS.231         	9.215          	9.285
MS.232         	9.2            	9.281
MS.233         	9.18           	9.215
MS.234         	9.16           	9.357
MS.235         	9.145          	9.211
MS.236         	9.125          	9.113
MS.237         	9.105          	9.262
MS.238         	9.09           	9.202
MS.239         	9.07           	9.191
MS.240         	9.055          	9.269
MS.241         	9.035          	9.135
MS.242         	9.015          	9.113
MS.243         	9              	9.081
MS.244         	8.98           	9.086
MS.245         	8.965          	9.094
MS.246         	8.945          	8.97
MS.247         	8.925          	9.057
MS.248         	8.91           	9.008
MS.249         	8.89           	9.003
MS.250         	8.875          	8.914
MS.251         	8.855          	8.943
MS.252         	8.84           	8.934
MS.253         	8.82           	8.968
MS.254         	8.805          	8.927
MS.255         	8.785          	8.837
MS.256         	8.77           	8.864
MS.257         	8.75           	8.755
MS.258         	8.735          	8.867
MS.259         	8.715          	8.693
MS.260         	8.7            	8.801
MS.261         	8.68           	8.826
MS.262         	8.665          	8.677
MS.263         	8.645          	8.618
MS.264         	8.63           	8.496
MS.265         	8.61           	8.714
MS.266         	8.595          	8.554
MS.267         	8.575          	8.58
MS.268         	8.56           	8.508
MS.269         	8.54           	8.461
MS.270         	8.525          	8.458
MS.271         	8.51           	8.427
MS.272         	8.49           	8.469
MS.273         	8.475          	8.478
MS.274         	8.46           	8.387
MS.275         	8.44           	8.332
MS.276         	8.425          	8.242
MS.277         	8.405          	8.178
MS.278         	8.39           	8.271
MS.279         	8.375          	8.388
MS.280         	8.355          	8.382
MS.281         	8.34           	8.185
MS.282         	8.325          	8.192
MS.283         	8.305          	8.076
MS.284         	8.29           	8.228
MS.285         	8.275          	8.218
MS.286         	8.255          	8.043
MS.287         	8.24           	8.141
MS.288         	8.225          	8.087
MS.289         	8.21           	8.082
MS.290         	8.19           	7.994
MS.291         	8.175          	7.944
MS.292         	8.16           	8.083
MS.293         	8.14           	8.082
MS.294         	8.125          	7.989
MS.295         	8.11           	7.963
MS.296         	8.095          	7.901
MS.297         	8.075          	7.966
MS.298         	8.06           	7.747
MS.299         	8.045          	7.852
MS.300         	8.03           	7.951
MS.301         	8.015          	7.893
MS.302         	7.995          	7.725
MS.303         	7.98           	7.742
MS.304         	7.965          	7.827
MS.305         	7.95           	7.618
MS.306         	7.935          	7.731
MS.307         	7.915          	7.705
MS.308         	7.9            	7.561
MS.309         	7.885          	7.458
MS.310         	7.87           	7.621
MS.311         	7.855          	7.526
MS.312         	7.84           	7.326
MS.313         	7.825          	7.604
MS.314         	7.805          	7.365
MS.315         	7.79           	7.365
MS.316         	7.775          	7.411
MS.317         	7.76           	7.22
MS.318         	7.745          	7.158
MS.319         	7.73           	7.068
MS.320         	7.715          	7.125
MS.321         	7.7            	7.173
MS.322         	7.685          	6.975
MS.323         	7.67           	6.833
MS.324         	7.655          	6.816
MS.325         	7.635          	6.839
MS.326         	7.62           	6.795
MS.327         	7.605          	6.89
MS.328         	7.59           	6.851
MS.329         	7.575          	6.7
MS.330         	7.56           	6.738
MS.331         	7.545          	6.742
MS.332         	7.53           	6.207
MS.333         	7.515          	6.234
MS.334         	7.5            	6.34
MS.335         	7.485          	6.453
MS.336         	7.47           	6.272
MS.337         	7.455          	6.323
MS.338         	7.44           	6.212
MS.339         	7.425          	6.207
MS.340         	7.41           	6.133
MS.341         	7.395          	6.031
MS.342         	7.38           	5.934
MS.343         	7.365          	5.846
MS.344         	7.355          	5.889
MS.345         	7.34           	6.096
MS.346         	7.325          	5.833
MS.347         	7.31           	5.734
MS.348         	7.295          	5.586
MS.349         	7.28           	5.844
MS.350         	7.265          	5.389
MS.351         	7.25           	5.761
MS.352         	7.235          	5.719
MS.353         	7.22           	5.734
MS.354         	7.205          	5.328
MS.355         	7.195          	5.415
MS.356         	7.18           	5.185
MS.357         	7.165          	4.947
MS.358         	7.15           	5.068
MS.359         	7.135          	5.475
MS.360         	7.12           	5.101
MS.361         	7.105          	5.285
MS.362         	7.095          	4.937
MS.363         	7.08           	4.906
MS.364         	7.065          	4.702
MS.365         	7.05           	4.542
MS.366         	7.035          	4.647
MS.367         	7.02           	4.632
MS.368         	7.01           	4.551
MS.369         	6.995          	4.319
MS.370         	6.98           	4.32
MS.371         	6.965          	4.205
MS.372         	6.95           	4.224
MS.373         	6.94           	4.157
MS.374         	6.925          	4.19
MS.375         	6.91           	3.942
MS.376         	6.895          	4.017
MS.377         	6.885          	4.041
MS.378         	6.87           	3.905
MS.379         	6.855          	4.07
MS.380         	6.84           	3.696
MS.381         	6.83           	3.582
MS.382         	6.815          	3.497
MS.383         	6.8            	3.566
MS.384         	6.785          	3.473
MS.385         	6.775          	3.427
MS.386         	6.76           	3.489
MS.387         	6.745          	3.35
MS.388         	6.735          	3.218
MS.389         	6.72           	3.195
MS.390         	6.705          	3.251
MS.391         	6.695          	3.189
MS.392         	6.68           	3.145
MS.393         	6.665          	2.944
MS.394         	6.655          	3.11
MS.395         	6.64           	2.865
MS.396         	6.625          	2.954
MS.397         	6.615          	2.884
MS.398         	6.6            	2.775
MS.399         	6.585          	2.813
MS.400         	6.575          	2.673
MS.401         	6.56           	2.508
MS.402         	6.545          	2.532
MS.403         	6.535          	2.653
MS.404         	6.52           	2.455
MS.405         	6.51           	2.672
MS.406         	6.495          	2.449
MS.407         	6.48           	2.386
MS.408         	6.47           	2.502
MS.409         	6.455          	2.388
MS.410         	6.445          	2.454
MS.411         	6.43           	2.321
MS.412         	6.42           	2.142
MS.413         	6.405          	2.141
MS.414         	6.39           	2.145
MS.415         	6.38           	2.028
MS.416         	6.365          	2.055
MS.417         	6.355          	2.061
MS.418         	6.34           	2.074
MS.419         	6.33           	1.813
MS.420         	6.315          	1.821
MS.421         	6.305          	1.943
MS.422         	6.29           	1.607
MS.423         	6.28           	1.586
MS.424         	6.265          	1.763
MS.425         	6.255          	1.605
MS.426         	6.24           	1.638
MS.427         	6.23           	1.454
MS.428         	6.215          	1.407
MS.429         	6.205          	1.58
MS.430         	6.19           	1.29
MS.431         	6.18           	1.375
MS.432         	6.165          	1.372
MS.433         	6.155          	1.257
MS.434         	6.14           	1.232
MS.435         	6.13           	1.188
MS.436         	6.115          	1.077
MS.437         	6.105          	1.052
MS.438         	6.09           	1.031
MS.439         	6.08           	1.033
MS.440         	6.07           	0.937
MS.441         	6.055          	0.893
MS.442         	6.045          	0.941
MS.443         	6.03           	0.953
MS.444         	6.02           	0.982
MS.445         	6.01           	0.899
MS.446         	5.995          	0.873
MS.447         	5.985          	0.919
MS.448         	5.97           	0.906
MS.449         	5.96           	0.742
MS.450         	5.95           	0.793
MS.451         	5.935          	0.805
MS.452         	5.925          	0.794
MS.453         	5.91           	0.79
MS.454         	5.9            	0.707
MS.455         	5.89           	0.657
MS.456         	5.875          	0.614
MS.457         	5.865          	0.609
MS.458         	5.855          	0.649
MS.459         	5.84           	0.61
MS.460         	5.83           	0.601
MS.461         	5.82           	0.568
MS.462         	5.805          	0.568
MS.463         	5.795          	0.515
MS.464         	5.785          	0.59
MS.465         	5.77           	0.531
MS.466         	5.76           	0.526
MS.467         	5.75           	0.472
MS.468         	5.74           	0.467
MS.469         	5.725          	0.493
MS.470         	5.715          	0.393
MS.471         	5.705          	0.41
MS.472         	5.69           	0.413
MS.473         	5.68           	0.365
MS.474         	5.67           	0.377
MS.475         	5.66           	0.405
MS.476         	5.645          	0.344
MS.477         	5.635          	0.327
MS.478         	5.625          	0.332
MS.479         	5.615          	0.397
MS.480         	5.6            	0.282
MS.481         	5.59           	0.314
MS.482         	5.58           	0.303
MS.483         	5.57           	0.226
MS.484         	5.555          	0.251
MS.485         	5.545          	0.336
MS.486         	5.535          	0.28
MS.487         	5.525          	0.217
MS.488         	5.515          	0.178
MS.489         	5.5            	0.157
MS.490         	5.49           	0.167
MS.491         	5.48           	0.078
MS.492         	5.47           	0.095
MS.493         	5.46           	0.14
MS.494         	5.445          	0.16
MS.495         	5.435          	0.135
MS.496         	5.425          	0.099
MS.497         	5.415          	0.077
