File:              	C:\Qtrac\Data\CKMC01116C.QZD
Name:              	DK.COP.NC.10.1
Protocol:          	MSCAN-R2
Date:              	16/11/20
Start time:        	14:17:01
Age:               	24
Sex:               	M
Temperature:       	37.4
S/R sites:         	LUln Wr-ADQ
NC/disease:        	NC
Operator:          	CK
Comments:          	CG 0.2%
M-SCAN DATA (6.1-1.4m)
Scanpts: 180, 190, 492, 511
Stim. (mA)     	Amp. (mV)
MS.1           	10             	7.324
MS.2           	10             	7.322
MS.3           	10             	7.306
MS.4           	10             	7.318
MS.5           	10             	7.326
MS.6           	10             	7.316
MS.7           	10             	7.34
MS.8           	10             	7.349
MS.9           	10             	7.38
MS.10          	10             	7.366
MS.11          	10             	7.363
MS.12          	10             	7.38
MS.13          	10             	7.399
MS.14          	10             	7.39
MS.15          	10             	7.406
MS.16          	10             	7.382
MS.17          	10             	7.39
MS.18          	10             	7.415
MS.19          	10             	7.407
MS.20          	10             	7.414
MS.21          	10             	7.402
MS.22          	10             	7.424
MS.23          	10             	7.411
MS.24          	9.96           	7.407
MS.25          	9.94           	7.393
MS.26          	9.92           	7.409
MS.27          	9.9            	7.393
MS.28          	9.88           	7.392
MS.29          	9.86           	7.408
MS.30          	9.84           	7.43
MS.31          	9.82           	7.457
MS.32          	9.8            	7.412
MS.33          	9.78           	7.413
MS.34          	9.765          	7.43
MS.35          	9.745          	7.415
MS.36          	9.725          	7.432
MS.37          	9.705          	7.444
MS.38          	9.685          	7.389
MS.39          	9.665          	7.421
MS.40          	9.645          	7.451
MS.41          	9.625          	7.422
MS.42          	9.61           	7.452
MS.43          	9.59           	7.433
MS.44          	9.57           	7.449
MS.45          	9.55           	7.418
MS.46          	9.53           	7.452
MS.47          	9.51           	7.427
MS.48          	9.495          	7.411
MS.49          	9.475          	7.416
MS.50          	9.455          	7.432
MS.51          	9.435          	7.426
MS.52          	9.42           	7.413
MS.53          	9.4            	7.449
MS.54          	9.38           	7.422
MS.55          	9.36           	7.43
MS.56          	9.345          	7.427
MS.57          	9.325          	7.396
MS.58          	9.305          	7.412
MS.59          	9.285          	7.405
MS.60          	9.27           	7.427
MS.61          	9.25           	7.424
MS.62          	9.23           	7.428
MS.63          	9.215          	7.437
MS.64          	9.195          	7.393
MS.65          	9.175          	7.406
MS.66          	9.16           	7.421
MS.67          	9.14           	7.427
MS.68          	9.12           	7.4
MS.69          	9.105          	7.401
MS.70          	9.085          	7.391
MS.71          	9.065          	7.422
MS.72          	9.05           	7.407
MS.73          	9.03           	7.378
MS.74          	9.01           	7.382
MS.75          	8.995          	7.419
MS.76          	8.975          	7.388
MS.77          	8.96           	7.38
MS.78          	8.94           	7.376
MS.79          	8.925          	7.31
MS.80          	8.905          	7.41
MS.81          	8.885          	7.344
MS.82          	8.87           	7.397
MS.83          	8.85           	7.332
MS.84          	8.835          	7.361
MS.85          	8.815          	7.324
MS.86          	8.8            	7.368
MS.87          	8.78           	7.339
MS.88          	8.765          	7.441
MS.89          	8.745          	7.254
MS.90          	8.73           	7.363
MS.91          	8.71           	7.305
MS.92          	8.695          	7.326
MS.93          	8.675          	7.303
MS.94          	8.66           	7.341
MS.95          	8.64           	7.307
MS.96          	8.625          	7.302
MS.97          	8.605          	7.221
MS.98          	8.59           	7.246
MS.99          	8.575          	7.26
MS.100         	8.555          	7.308
MS.101         	8.54           	7.238
MS.102         	8.52           	7.247
MS.103         	8.505          	7.259
MS.104         	8.485          	7.261
MS.105         	8.47           	7.242
MS.106         	8.455          	7.22
MS.107         	8.435          	7.246
MS.108         	8.42           	7.226
MS.109         	8.405          	7.197
MS.110         	8.385          	7.216
MS.111         	8.37           	7.234
MS.112         	8.355          	7.254
MS.113         	8.335          	7.195
MS.114         	8.32           	7.286
MS.115         	8.305          	7.252
MS.116         	8.285          	7.258
MS.117         	8.27           	7.222
MS.118         	8.255          	7.238
MS.119         	8.235          	7.278
MS.120         	8.22           	7.288
MS.121         	8.205          	7.256
MS.122         	8.185          	7.27
MS.123         	8.17           	7.264
MS.124         	8.155          	7.259
MS.125         	8.14           	7.266
MS.126         	8.12           	7.314
MS.127         	8.105          	7.288
MS.128         	8.09           	7.264
MS.129         	8.075          	7.315
MS.130         	8.055          	7.335
MS.131         	8.04           	7.291
MS.132         	8.025          	7.276
MS.133         	8.01           	7.283
MS.134         	7.995          	7.255
MS.135         	7.975          	7.29
MS.136         	7.96           	7.427
MS.137         	7.945          	7.274
MS.138         	7.93           	7.325
MS.139         	7.915          	7.355
MS.140         	7.9            	7.405
MS.141         	7.88           	7.321
MS.142         	7.865          	7.285
MS.143         	7.85           	7.274
MS.144         	7.835          	7.37
MS.145         	7.82           	7.275
MS.146         	7.805          	7.38
MS.147         	7.79           	7.349
MS.148         	7.77           	7.433
MS.149         	7.755          	7.372
MS.150         	7.74           	7.368
MS.151         	7.725          	7.34
MS.152         	7.71           	7.482
MS.153         	7.695          	7.44
MS.154         	7.68           	7.424
MS.155         	7.665          	7.517
MS.156         	7.65           	7.429
MS.157         	7.635          	7.504
MS.158         	7.62           	7.515
MS.159         	7.605          	7.488
MS.160         	7.59           	7.479
MS.161         	7.575          	7.511
MS.162         	7.56           	7.431
MS.163         	7.545          	7.524
MS.164         	7.53           	7.548
MS.165         	7.515          	7.571
MS.166         	7.5            	7.562
MS.167         	7.485          	7.557
MS.168         	7.47           	7.64
MS.169         	7.455          	7.56
MS.170         	7.44           	7.54
MS.171         	7.425          	7.54
MS.172         	7.41           	7.536
MS.173         	7.395          	7.486
MS.174         	7.38           	7.554
MS.175         	7.365          	7.579
MS.176         	7.35           	7.535
MS.177         	7.335          	7.574
MS.178         	7.32           	7.596
MS.179         	7.305          	7.565
MS.180         	7.29           	7.592
MS.181         	7.275          	7.565
MS.182         	7.26           	7.589
MS.183         	7.245          	7.569
MS.184         	7.23           	7.565
MS.185         	7.22           	7.542
MS.186         	7.205          	7.617
MS.187         	7.19           	7.544
MS.188         	7.175          	7.588
MS.189         	7.16           	7.566
MS.190         	7.145          	7.621
MS.191         	7.13           	7.582
MS.192         	7.12           	7.594
MS.193         	7.105          	7.624
MS.194         	7.09           	7.645
MS.195         	7.075          	7.668
MS.196         	7.06           	7.625
MS.197         	7.045          	7.652
MS.198         	7.035          	7.624
MS.199         	7.02           	7.639
MS.200         	7.005          	7.713
MS.201         	6.99           	7.565
MS.202         	6.975          	7.534
MS.203         	6.965          	7.722
MS.204         	6.95           	7.691
MS.205         	6.935          	7.777
MS.206         	6.92           	7.698
MS.207         	6.905          	7.739
MS.208         	6.895          	7.738
MS.209         	6.88           	7.842
MS.210         	6.865          	7.637
MS.211         	6.85           	7.759
MS.212         	6.84           	7.625
MS.213         	6.825          	7.669
MS.214         	6.81           	7.657
MS.215         	6.8            	7.634
MS.216         	6.785          	7.646
MS.217         	6.77           	7.823
MS.218         	6.755          	7.691
MS.219         	6.745          	7.628
MS.220         	6.73           	7.739
MS.221         	6.715          	7.741
MS.222         	6.705          	7.766
MS.223         	6.69           	7.693
MS.224         	6.675          	7.537
MS.225         	6.665          	7.698
MS.226         	6.65           	7.624
MS.227         	6.635          	7.786
MS.228         	6.625          	7.616
MS.229         	6.61           	7.861
MS.230         	6.595          	7.617
MS.231         	6.585          	7.531
MS.232         	6.57           	7.85
MS.233         	6.555          	7.721
MS.234         	6.545          	7.873
MS.235         	6.53           	7.671
MS.236         	6.52           	7.587
MS.237         	6.505          	7.464
MS.238         	6.49           	7.439
MS.239         	6.48           	7.558
MS.240         	6.465          	7.687
MS.241         	6.455          	7.248
MS.242         	6.44           	7.394
MS.243         	6.425          	7.532
MS.244         	6.415          	7.206
MS.245         	6.4            	7.071
MS.246         	6.39           	7.226
MS.247         	6.375          	7.13
MS.248         	6.365          	7.225
MS.249         	6.35           	7.155
MS.250         	6.34           	6.854
MS.251         	6.325          	6.938
MS.252         	6.315          	7.165
MS.253         	6.3            	7.072
MS.254         	6.29           	6.854
MS.255         	6.275          	6.782
MS.256         	6.265          	6.964
MS.257         	6.25           	6.834
MS.258         	6.24           	6.685
MS.259         	6.225          	6.81
MS.260         	6.215          	6.664
MS.261         	6.2            	7.17
MS.262         	6.19           	6.628
MS.263         	6.175          	6.57
MS.264         	6.165          	6.744
MS.265         	6.15           	6.614
MS.266         	6.14           	6.608
MS.267         	6.125          	6.08
MS.268         	6.115          	6.553
MS.269         	6.1            	6.559
MS.270         	6.09           	6.365
MS.271         	6.075          	5.93
MS.272         	6.065          	6.136
MS.273         	6.055          	5.8
MS.274         	6.04           	5.804
MS.275         	6.03           	5.995
MS.276         	6.015          	6.162
MS.277         	6.005          	5.587
MS.278         	5.995          	5.912
MS.279         	5.98           	5.605
MS.280         	5.97           	5.381
MS.281         	5.955          	5.815
MS.282         	5.945          	5.321
MS.283         	5.935          	5.711
MS.284         	5.92           	5.616
MS.285         	5.91           	5.195
MS.286         	5.9            	5.611
MS.287         	5.885          	5.574
MS.288         	5.875          	5.187
MS.289         	5.865          	5.249
MS.290         	5.85           	5.277
MS.291         	5.84           	5.068
MS.292         	5.825          	4.951
MS.293         	5.815          	5.023
MS.294         	5.805          	4.745
MS.295         	5.795          	5.104
MS.296         	5.78           	5.11
MS.297         	5.77           	4.964
MS.298         	5.76           	4.731
MS.299         	5.745          	4.832
MS.300         	5.735          	4.695
MS.301         	5.725          	4.429
MS.302         	5.71           	4.44
MS.303         	5.7            	4.531
MS.304         	5.69           	4.384
MS.305         	5.68           	4.426
MS.306         	5.665          	4.594
MS.307         	5.655          	4.51
MS.308         	5.645          	4.043
MS.309         	5.635          	4.294
MS.310         	5.62           	3.988
MS.311         	5.61           	4.356
MS.312         	5.6            	3.746
MS.313         	5.59           	3.918
MS.314         	5.575          	3.91
MS.315         	5.565          	3.9
MS.316         	5.555          	3.817
MS.317         	5.545          	3.849
MS.318         	5.53           	3.557
MS.319         	5.52           	3.845
MS.320         	5.51           	3.699
MS.321         	5.5            	3.555
MS.322         	5.49           	3.696
MS.323         	5.475          	3.917
MS.324         	5.465          	3.719
MS.325         	5.455          	3.317
MS.326         	5.445          	3.381
MS.327         	5.435          	3.577
MS.328         	5.425          	3.398
MS.329         	5.41           	3.533
MS.330         	5.4            	3.447
MS.331         	5.39           	3.348
MS.332         	5.38           	3.297
MS.333         	5.37           	3.334
MS.334         	5.36           	3.231
MS.335         	5.345          	3.19
MS.336         	5.335          	3.107
MS.337         	5.325          	3.104
MS.338         	5.315          	3.015
MS.339         	5.305          	3.016
MS.340         	5.295          	3.024
MS.341         	5.285          	2.937
MS.342         	5.275          	2.86
MS.343         	5.26           	2.679
MS.344         	5.25           	2.657
MS.345         	5.24           	2.471
MS.346         	5.23           	2.83
MS.347         	5.22           	2.687
MS.348         	5.21           	2.502
MS.349         	5.2            	2.692
MS.350         	5.19           	2.076
MS.351         	5.18           	2.025
MS.352         	5.17           	2.17
MS.353         	5.16           	2.22
MS.354         	5.15           	2.516
MS.355         	5.14           	1.83
MS.356         	5.125          	2.067
MS.357         	5.115          	1.59
MS.358         	5.105          	2.143
MS.359         	5.095          	1.746
MS.360         	5.085          	1.785
MS.361         	5.075          	1.866
MS.362         	5.065          	1.675
MS.363         	5.055          	1.656
MS.364         	5.045          	1.556
MS.365         	5.035          	1.935
MS.366         	5.025          	1.686
MS.367         	5.015          	1.664
MS.368         	5.005          	1.486
MS.369         	4.995          	1.374
MS.370         	4.985          	1.475
MS.371         	4.975          	1.614
MS.372         	4.965          	1.315
MS.373         	4.955          	1.472
MS.374         	4.945          	1.392
MS.375         	4.935          	1.259
MS.376         	4.925          	1.281
MS.377         	4.915          	1.161
MS.378         	4.905          	1.245
MS.379         	4.895          	1.254
MS.380         	4.885          	1.15
MS.381         	4.875          	1.072
MS.382         	4.87           	1.105
MS.383         	4.86           	1.227
MS.384         	4.85           	1.19
MS.385         	4.84           	1.122
MS.386         	4.83           	1.175
MS.387         	4.82           	1.064
MS.388         	4.81           	1.038
MS.389         	4.8            	1.074
MS.390         	4.79           	1.003
MS.391         	4.78           	0.883
MS.392         	4.77           	0.869
MS.393         	4.76           	0.934
MS.394         	4.75           	0.811
MS.395         	4.745          	0.875
MS.396         	4.735          	0.848
MS.397         	4.725          	0.701
MS.398         	4.715          	0.815
MS.399         	4.705          	0.783
MS.400         	4.695          	0.615
MS.401         	4.685          	0.824
MS.402         	4.675          	0.642
MS.403         	4.665          	0.668
MS.404         	4.66           	0.591
MS.405         	4.65           	0.704
MS.406         	4.64           	0.507
MS.407         	4.63           	0.521
MS.408         	4.62           	0.544
MS.409         	4.61           	0.557
MS.410         	4.6            	0.406
MS.411         	4.595          	0.599
MS.412         	4.585          	0.551
MS.413         	4.575          	0.455
MS.414         	4.565          	0.434
MS.415         	4.555          	0.338
MS.416         	4.55           	0.261
MS.417         	4.54           	0.413
MS.418         	4.53           	0.283
MS.419         	4.52           	0.253
MS.420         	4.51           	0.252
MS.421         	4.5            	0.236
MS.422         	4.495          	0.23
MS.423         	4.485          	0.261
MS.424         	4.475          	0.146
MS.425         	4.465          	0.164
MS.426         	4.455          	0.147
MS.427         	4.45           	0.189
MS.428         	4.44           	0.15
MS.429         	4.43           	0.073
MS.430         	4.42           	0.198
MS.431         	4.415          	0.206
MS.432         	4.405          	0.081
MS.433         	4.395          	0.02
MS.434         	4.385          	0.135
MS.435         	4.38           	0.049
MS.436         	4.37           	-0.009
MS.437         	4.36           	0.039
MS.438         	4.35           	0.087
MS.439         	4.345          	0.024
MS.440         	4.335          	0.068
MS.441         	4.325          	-0.065
MS.442         	4.315          	0.005
MS.443         	4.31           	0.003
MS.444         	4.3            	-0.031
MS.445         	4.29           	-0.038
MS.446         	4.285          	-0.027
MS.447         	4.275          	-0.078
MS.448         	4.265          	-0.031
MS.449         	4.255          	-0.083
MS.450         	4.25           	-0.015
MS.451         	4.24           	-0.037
MS.452         	4.23           	-0.045
MS.453         	4.225          	-0.085
MS.454         	4.215          	-0.08
MS.455         	4.205          	-0.08
MS.456         	4.2            	-0.078
MS.457         	4.19           	-0.034
MS.458         	4.18           	-0.083
MS.459         	4.175          	-0.081
MS.460         	4.165          	-0.065
MS.461         	4.155          	-0.079
MS.462         	4.15           	-0.079
MS.463         	4.14           	-0.08
MS.464         	4.13           	-0.074
MS.465         	4.125          	-0.076
MS.466         	4.115          	-0.079
MS.467         	4.105          	-0.074
MS.468         	4.1            	-0.082
MS.469         	4.09           	-0.082
MS.470         	4.08           	-0.076
MS.471         	4.075          	-0.078
MS.472         	4.065          	-0.078
MS.473         	4.06           	-0.079
MS.474         	4.05           	-0.077
MS.475         	4.04           	-0.071
MS.476         	4.035          	-0.076
MS.477         	4.025          	-0.073
MS.478         	4.015          	-0.072
MS.479         	4.01           	-0.077
MS.480         	4              	-0.081
MS.481         	3.995          	-0.071
MS.482         	3.985          	-0.075
MS.483         	3.975          	-0.07
MS.484         	3.97           	-0.074
MS.485         	3.96           	-0.076
MS.486         	3.955          	-0.074
MS.487         	3.945          	-0.072
MS.488         	3.94           	-0.072
MS.489         	3.93           	-0.069
MS.490         	3.92           	-0.068
MS.491         	3.915          	-0.074
MS.492         	3.905          	-0.068
MS.493         	3.9            	-0.069
MS.494         	3.89           	-0.073
MS.495         	3.885          	-0.072
MS.496         	3.875          	-0.074
MS.497         	3.865          	-0.071
MS.498         	3.86           	-0.074
MS.499         	3.85           	-0.074
MS.500         	3.845          	-0.065
MS.501         	3.835          	-0.063
