File:              	C:\Qtrac\Data\Daniel M Sørensen\MScan multicentre study\Data from centres\Newcastle\Processed data\SMC00226B.QZD
Name:              	UK.NEW.NC.4.2
Protocol:          	MSCAN-R2
Date:              	26/2/20
Start time:        	09:47:04
Age:               	49
Sex:               	M
Temperature:       	35.9
S/R sites:         	ADM
NC/disease:        	NC
Operator:          	SM
Comments:
M-SCAN DATA (8.5-3.3m)
Scanpts: 65, 79, 543, 565
Stim. (mA)     	Amp. (mV)
MS.1           	26             	8.472
MS.2           	26             	8.518
MS.3           	26             	8.53
MS.4           	26             	8.568
MS.5           	26             	8.455
MS.6           	26             	8.413
MS.7           	26             	8.586
MS.8           	26             	8.55
MS.9           	26             	8.542
MS.10          	26             	8.548
MS.11          	26             	8.552
MS.12          	26             	8.623
MS.13          	26             	8.629
MS.14          	26             	8.609
MS.15          	26             	8.613
MS.16          	26             	8.629
MS.17          	26             	8.611
MS.18          	26             	8.594
MS.19          	26             	8.594
MS.20          	26             	8.586
MS.21          	26             	8.617
MS.22          	26             	8.707
MS.23          	26             	8.697
MS.24          	25.895         	8.719
MS.25          	25.845         	8.693
MS.26          	25.792         	8.633
MS.27          	25.74          	8.675
MS.28          	25.69          	8.675
MS.29          	25.637         	8.705
MS.30          	25.587         	8.729
MS.31          	25.535         	8.729
MS.32          	25.485         	8.705
MS.33          	25.435         	8.717
MS.34          	25.382         	8.693
MS.35          	25.332         	8.739
MS.36          	25.282         	8.764
MS.37          	25.233         	8.756
MS.38          	25.18          	8.776
MS.39          	25.13          	8.82
MS.40          	25.08          	8.882
MS.41          	25.03          	8.947
MS.42          	24.98          	8.957
MS.43          	24.93          	9.025
MS.44          	24.88          	8.949
MS.45          	24.83          	8.909
MS.46          	24.782         	8.899
MS.47          	24.733         	8.925
MS.48          	24.682         	8.816
MS.49          	24.632         	8.878
MS.50          	24.585         	8.86
MS.51          	24.535         	8.874
MS.52          	24.485         	8.937
MS.53          	24.438         	8.901
MS.54          	24.387         	8.915
MS.55          	24.34          	8.876
MS.56          	24.29          	8.907
MS.57          	24.243         	8.895
MS.58          	24.192         	8.878
MS.59          	24.145         	8.895
MS.60          	24.097         	8.886
MS.61          	24.05          	8.933
MS.62          	24             	8.989
MS.63          	23.952         	8.979
MS.64          	23.905         	8.915
MS.65          	23.858         	8.987
MS.66          	23.81          	9.003
MS.67          	23.762         	8.846
MS.68          	23.715         	8.955
MS.69          	23.667         	8.951
MS.70          	23.62          	8.991
MS.71          	23.573         	9.034
MS.72          	23.525         	8.985
MS.73          	23.477         	9.126
MS.74          	23.432         	9.118
MS.75          	23.385         	9.156
MS.76          	23.337         	9.102
MS.77          	23.292         	9.019
MS.78          	23.245         	8.989
MS.79          	23.198         	9.054
MS.80          	23.153         	9.034
MS.81          	23.105         	9.074
MS.82          	23.06          	9.044
MS.83          	23.015         	8.901
MS.84          	22.967         	8.943
MS.85          	22.922         	8.903
MS.86          	22.875         	8.921
MS.87          	22.83          	8.854
MS.88          	22.785         	8.911
MS.89          	22.74          	8.832
MS.90          	22.695         	9.072
MS.91          	22.647         	8.983
MS.92          	22.602         	9.08
MS.93          	22.557         	8.882
MS.94          	22.512         	8.85
MS.95          	22.467         	8.81
MS.96          	22.422         	8.915
MS.97          	22.377         	8.804
MS.98          	22.332         	8.945
MS.99          	22.29          	8.897
MS.100         	22.245         	8.756
MS.101         	22.2           	8.756
MS.102         	22.155         	8.864
MS.103         	22.112         	8.75
MS.104         	22.067         	8.931
MS.105         	22.022         	8.762
MS.106         	21.98          	8.804
MS.107         	21.935         	8.723
MS.108         	21.892         	8.633
MS.109         	21.847         	8.84
MS.110         	21.805         	8.852
MS.111         	21.76          	8.949
MS.112         	21.717         	8.752
MS.113         	21.672         	8.77
MS.114         	21.63          	8.852
MS.115         	21.587         	8.774
MS.116         	21.545         	8.659
MS.117         	21.5           	8.983
MS.118         	21.458         	8.75
MS.119         	21.415         	8.782
MS.120         	21.372         	8.663
MS.121         	21.33          	8.542
MS.122         	21.288         	8.629
MS.123         	21.245         	8.899
MS.124         	21.202         	8.665
MS.125         	21.16          	8.631
MS.126         	21.118         	8.764
MS.127         	21.075         	8.57
MS.128         	21.032         	8.649
MS.129         	20.99          	8.681
MS.130         	20.95          	8.625
MS.131         	20.907         	8.856
MS.132         	20.865         	8.596
MS.133         	20.823         	8.713
MS.134         	20.782         	8.78
MS.135         	20.74          	8.592
MS.136         	20.7           	8.562
MS.137         	20.657         	8.57
MS.138         	20.618         	8.353
MS.139         	20.575         	8.546
MS.140         	20.535         	8.598
MS.141         	20.493         	8.752
MS.142         	20.452         	8.451
MS.143         	20.413         	8.464
MS.144         	20.37          	8.538
MS.145         	20.33          	8.631
MS.146         	20.29          	8.397
MS.147         	20.247         	8.588
MS.148         	20.208         	8.365
MS.149         	20.167         	8.415
MS.150         	20.127         	8.361
MS.151         	20.087         	8.59
MS.152         	20.047         	8.492
MS.153         	20.007         	8.216
MS.154         	19.967         	8.254
MS.155         	19.927         	8.19
MS.156         	19.887         	8.357
MS.157         	19.847         	8.182
MS.158         	19.807         	8.169
MS.159         	19.767         	8.371
MS.160         	19.73          	8.331
MS.161         	19.69          	8.357
MS.162         	19.65          	8.095
MS.163         	19.61          	8.349
MS.164         	19.573         	8
MS.165         	19.532         	8.212
MS.166         	19.493         	8.018
MS.167         	19.455         	7.956
MS.168         	19.415         	8.087
MS.169         	19.377         	7.614
MS.170         	19.337         	7.466
MS.171         	19.3           	8.216
MS.172         	19.26          	7.682
MS.173         	19.222         	8.051
MS.174         	19.185         	7.372
MS.175         	19.145         	7.976
MS.176         	19.108         	7.571
MS.177         	19.07          	7.505
MS.178         	19.032         	7.221
MS.179         	18.993         	7.428
MS.180         	18.955         	7.533
MS.181         	18.917         	7.392
MS.182         	18.88          	7.182
MS.183         	18.842         	7.134
MS.184         	18.805         	6.935
MS.185         	18.767         	7.243
MS.186         	18.73          	6.907
MS.187         	18.692         	7.144
MS.188         	18.655         	7.199
MS.189         	18.618         	6.782
MS.190         	18.58          	7.215
MS.191         	18.542         	6.723
MS.192         	18.505         	6.909
MS.193         	18.47          	6.762
MS.194         	18.432         	6.721
MS.195         	18.395         	6.969
MS.196         	18.358         	6.61
MS.197         	18.323         	6.86
MS.198         	18.285         	6.61
MS.199         	18.247         	6.615
MS.200         	18.212         	6.59
MS.201         	18.175         	6.623
MS.202         	18.14          	6.617
MS.203         	18.102         	6.461
MS.204         	18.067         	6.564
MS.205         	18.03          	6.643
MS.206         	17.995         	6.679
MS.207         	17.96          	6.6
MS.208         	17.922         	6.413
MS.209         	17.887         	6.439
MS.210         	17.852         	6.258
MS.211         	17.815         	6.047
MS.212         	17.78          	5.899
MS.213         	17.745         	5.611
MS.214         	17.71          	6.053
MS.215         	17.675         	5.952
MS.216         	17.637         	5.891
MS.217         	17.602         	5.315
MS.218         	17.567         	5.932
MS.219         	17.532         	5.95
MS.220         	17.497         	5.656
MS.221         	17.462         	5.535
MS.222         	17.427         	5.418
MS.223         	17.392         	5.386
MS.224         	17.358         	5.837
MS.225         	17.325         	5.352
MS.226         	17.29          	5.362
MS.227         	17.255         	4.951
MS.228         	17.22          	4.848
MS.229         	17.185         	5.301
MS.230         	17.153         	5.331
MS.231         	17.118         	5.116
MS.232         	17.083         	4.838
MS.233         	17.05          	4.757
MS.234         	17.015         	4.558
MS.235         	16.98          	5.265
MS.236         	16.948         	4.55
MS.237         	16.913         	4.622
MS.238         	16.88          	4.453
MS.239         	16.845         	4.405
MS.240         	16.812         	4.026
MS.241         	16.778         	5.096
MS.242         	16.745         	4.546
MS.243         	16.712         	4.594
MS.244         	16.677         	4.306
MS.245         	16.645         	4.02
MS.246         	16.612         	3.656
MS.247         	16.577         	3.879
MS.248         	16.545         	4.014
MS.249         	16.512         	4.117
MS.250         	16.48          	3.901
MS.251         	16.445         	3.773
MS.252         	16.413         	3.809
MS.253         	16.38          	4.175
MS.254         	16.347         	3.732
MS.255         	16.315         	3.71
MS.256         	16.282         	3.126
MS.257         	16.25          	3.758
MS.258         	16.217         	3.45
MS.259         	16.185         	3.38
MS.260         	16.153         	2.971
MS.261         	16.12          	3.108
MS.262         	16.087         	3.555
MS.263         	16.055         	3.503
MS.264         	16.025         	3.154
MS.265         	15.992         	2.639
MS.266         	15.96          	3.215
MS.267         	15.927         	3.201
MS.268         	15.898         	3.049
MS.269         	15.865         	2.755
MS.270         	15.832         	2.542
MS.271         	15.802         	3.001
MS.272         	15.77          	2.699
MS.273         	15.737         	2.614
MS.274         	15.707         	2.365
MS.275         	15.675         	2.759
MS.276         	15.645         	2.776
MS.277         	15.612         	2.588
MS.278         	15.582         	2.338
MS.279         	15.55          	2.508
MS.280         	15.52          	2.447
MS.281         	15.487         	2.234
MS.282         	15.457         	2.322
MS.283         	15.427         	2.359
MS.284         	15.395         	2.254
MS.285         	15.365         	2.415
MS.286         	15.335         	2.443
MS.287         	15.302         	2.266
MS.288         	15.273         	2.159
MS.289         	15.242         	2.169
MS.290         	15.212         	2.004
MS.291         	15.182         	2.012
MS.292         	15.152         	1.976
MS.293         	15.12          	2.016
MS.294         	15.09          	1.768
MS.295         	15.06          	1.909
MS.296         	15.03          	1.627
MS.297         	15             	1.817
MS.298         	14.97          	1.809
MS.299         	14.94          	1.529
MS.300         	14.91          	1.724
MS.301         	14.88          	1.94
MS.302         	14.852         	1.668
MS.303         	14.822         	1.599
MS.304         	14.792         	1.789
MS.305         	14.762         	1.561
MS.306         	14.733         	1.795
MS.307         	14.702         	1.652
MS.308         	14.675         	1.247
MS.309         	14.645         	1.39
MS.310         	14.615         	1.404
MS.311         	14.587         	1.472
MS.312         	14.557         	1.313
MS.313         	14.527         	1.124
MS.314         	14.5           	1.273
MS.315         	14.47          	1.454
MS.316         	14.443         	1.07
MS.317         	14.412         	1.281
MS.318         	14.382         	1.196
MS.319         	14.355         	1.325
MS.320         	14.325         	1.096
MS.321         	14.297         	1.166
MS.322         	14.27          	1.021
MS.323         	14.24          	1.078
MS.324         	14.212         	0.975
MS.325         	14.182         	1.043
MS.326         	14.155         	0.965
MS.327         	14.127         	0.951
MS.328         	14.1           	0.874
MS.329         	14.07          	0.852
MS.330         	14.042         	0.872
MS.331         	14.015         	0.806
MS.332         	13.987         	0.902
MS.333         	13.957         	0.824
MS.334         	13.93          	0.812
MS.335         	13.903         	0.777
MS.336         	13.875         	0.763
MS.337         	13.847         	0.645
MS.338         	13.82          	0.753
MS.339         	13.792         	0.693
MS.340         	13.765         	0.606
MS.341         	13.737         	0.572
MS.342         	13.71          	0.641
MS.343         	13.682         	0.602
MS.344         	13.655         	0.679
MS.345         	13.627         	0.508
MS.346         	13.6           	0.558
MS.347         	13.572         	0.608
MS.348         	13.545         	0.546
MS.349         	13.52          	0.562
MS.350         	13.492         	0.576
MS.351         	13.465         	0.413
MS.352         	13.438         	0.487
MS.353         	13.41          	0.389
MS.354         	13.385         	0.514
MS.355         	13.358         	0.411
MS.356         	13.33          	0.425
MS.357         	13.305         	0.437
MS.358         	13.278         	0.395
MS.359         	13.252         	0.419
MS.360         	13.225         	0.385
MS.361         	13.197         	0.443
MS.362         	13.172         	0.483
MS.363         	13.145         	0.379
MS.364         	13.12          	0.399
MS.365         	13.092         	0.318
MS.366         	13.068         	0.361
MS.367         	13.04          	0.361
MS.368         	13.015         	0.363
MS.369         	12.99          	0.381
MS.370         	12.962         	0.264
MS.371         	12.938         	0.332
MS.372         	12.91          	0.322
MS.373         	12.885         	0.33
MS.374         	12.86          	0.3
MS.375         	12.835         	0.304
MS.376         	12.807         	0.318
MS.377         	12.782         	0.296
MS.378         	12.757         	0.232
MS.379         	12.733         	0.234
MS.380         	12.705         	0.292
MS.381         	12.68          	0.203
MS.382         	12.655         	0.254
MS.383         	12.63          	0.232
MS.384         	12.605         	0.264
MS.385         	12.58          	0.256
MS.386         	12.555         	0.256
MS.387         	12.53          	0.222
MS.388         	12.505         	0.205
MS.389         	12.48          	0.246
MS.390         	12.455         	0.22
MS.391         	12.43          	0.193
MS.392         	12.405         	0.207
MS.393         	12.38          	0.214
MS.394         	12.355         	0.191
MS.395         	12.33          	0.175
MS.396         	12.305         	0.169
MS.397         	12.282         	0.157
MS.398         	12.257         	0.175
MS.399         	12.233         	0.201
MS.400         	12.207         	0.183
MS.401         	12.182         	0.165
MS.402         	12.16          	0.165
MS.403         	12.135         	0.153
MS.404         	12.11          	0.155
MS.405         	12.087         	0.159
MS.406         	12.062         	0.175
MS.407         	12.037         	0.151
MS.408         	12.015         	0.161
MS.409         	11.99          	0.153
MS.410         	11.967         	0.167
MS.411         	11.943         	0.171
MS.412         	11.917         	0.167
MS.413         	11.895         	0.151
MS.414         	11.87          	0.159
MS.415         	11.847         	0.167
MS.416         	11.822         	0.145
MS.417         	11.8           	0.159
MS.418         	11.778         	0.151
MS.419         	11.752         	0.159
MS.420         	11.73          	0.139
MS.421         	11.705         	0.137
MS.422         	11.682         	0.149
MS.423         	11.66          	0.129
MS.424         	11.635         	0.133
MS.425         	11.613         	0.151
MS.426         	11.59          	0.141
MS.427         	11.568         	0.123
MS.428         	11.542         	0.127
MS.429         	11.52          	0.135
MS.430         	11.497         	0.097
MS.431         	11.475         	0.109
MS.432         	11.45          	0.075
MS.433         	11.427         	0.107
MS.434         	11.405         	0.097
MS.435         	11.382         	0.103
MS.436         	11.36          	0.093
MS.437         	11.337         	0.091
MS.438         	11.315         	0.085
MS.439         	11.292         	0.081
MS.440         	11.27          	0.077
MS.441         	11.247         	0.109
MS.442         	11.225         	0.087
MS.443         	11.202         	0.111
MS.444         	11.18          	0.087
MS.445         	11.157         	0.066
MS.446         	11.135         	0.073
MS.447         	11.113         	0.113
MS.448         	11.09          	0.054
MS.449         	11.068         	0.058
MS.450         	11.047         	0.054
MS.451         	11.025         	0.05
MS.452         	11.002         	0.054
MS.453         	10.98          	0.032
MS.454         	10.957         	0.05
MS.455         	10.938         	0.054
MS.456         	10.915         	0.042
MS.457         	10.892         	0.05
MS.458         	10.87          	0.04
MS.459         	10.85          	0.056
MS.460         	10.827         	0.056
MS.461         	10.805         	0.052
MS.462         	10.785         	0.046
MS.463         	10.762         	0.036
MS.464         	10.742         	0.034
MS.465         	10.72          	0.032
MS.466         	10.698         	0.044
MS.467         	10.677         	0.028
MS.468         	10.655         	0.032
MS.469         	10.635         	0.032
MS.470         	10.613         	0.03
MS.471         	10.592         	0.038
MS.472         	10.57          	0.034
MS.473         	10.55          	0.03
MS.474         	10.528         	0.036
MS.475         	10.507         	0.024
MS.476         	10.488         	0.028
MS.477         	10.465         	0.028
MS.478         	10.445         	0.028
MS.479         	10.425         	0.034
MS.480         	10.403         	0.034
MS.481         	10.382         	0.036
MS.482         	10.363         	0.034
MS.483         	10.34          	0.028
MS.484         	10.32          	0.032
MS.485         	10.3           	0.028
MS.486         	10.28          	0.036
MS.487         	10.257         	0.032
MS.488         	10.238         	0.032
MS.489         	10.217         	0.03
MS.490         	10.198         	0.02
MS.491         	10.177         	0.02
MS.492         	10.157         	0.026
MS.493         	10.135         	0.016
MS.494         	10.115         	0.018
MS.495         	10.095         	0.036
MS.496         	10.075         	0.022
MS.497         	10.055         	0.02
MS.498         	10.035         	0.018
MS.499         	10.015         	0.02
MS.500         	9.995          	0.02
MS.501         	9.975          	0.02
