File:              	C:\Qtrac\Data\Daniel M Sørensen\MScan multicentre study\Data from centres\Newcastle\Processed data\SMC00226E.QZD
Name:              	UK.NEW.NC.8.1
Protocol:          	MSCAN-R2
Date:              	26/2/20
Start time:        	11:54:12
Age:               	62
Sex:               	M
Temperature:       	33.7
S/R sites:         	ADM
NC/disease:        	NC
Operator:          	SM
Comments:
M-SCAN DATA (7.4-1.4m)
Scanpts: 28, 35, 579, 599
Stim. (mA)     	Amp. (mV)
MS.1           	20             	13.187
MS.2           	20             	13.265
MS.3           	20             	13.205
MS.4           	20             	13.253
MS.5           	20             	13.283
MS.6           	20             	13.31
MS.7           	20             	13.251
MS.8           	20             	13.281
MS.9           	20             	13.287
MS.10          	20             	13.326
MS.11          	20             	13.332
MS.12          	20             	13.354
MS.13          	20             	13.35
MS.14          	20             	13.34
MS.15          	20             	13.394
MS.16          	20             	13.396
MS.17          	20             	13.384
MS.18          	20             	13.412
MS.19          	20             	13.434
MS.20          	20             	13.4
MS.21          	20             	13.412
MS.22          	20             	13.42
MS.23          	20             	13.416
MS.24          	19.92          	13.501
MS.25          	19.88          	13.479
MS.26          	19.84          	13.426
MS.27          	19.8           	13.451
MS.28          	19.762         	13.436
MS.29          	19.722         	13.434
MS.30          	19.682         	13.491
MS.31          	19.642         	13.445
MS.32          	19.605         	13.481
MS.33          	19.565         	13.424
MS.34          	19.525         	13.432
MS.35          	19.487         	13.479
MS.36          	19.448         	13.465
MS.37          	19.41          	13.489
MS.38          	19.37          	13.281
MS.39          	19.333         	13.451
MS.40          	19.292         	13.249
MS.41          	19.255         	13.304
MS.42          	19.215         	13.302
MS.43          	19.177         	13.259
MS.44          	19.14          	13.289
MS.45          	19.1           	13.316
MS.46          	19.062         	13.299
MS.47          	19.025         	13.308
MS.48          	18.987         	13.219
MS.49          	18.948         	13.179
MS.50          	18.91          	13.138
MS.51          	18.872         	13.271
MS.52          	18.835         	13.175
MS.53          	18.797         	13.199
MS.54          	18.76          	13.219
MS.55          	18.722         	13.187
MS.56          	18.685         	13.279
MS.57          	18.647         	13.217
MS.58          	18.61          	13.255
MS.59          	18.573         	13.187
MS.60          	18.535         	13.213
MS.61          	18.5           	13.173
MS.62          	18.462         	13.219
MS.63          	18.425         	13.217
MS.64          	18.387         	13.181
MS.65          	18.352         	13.207
MS.66          	18.315         	13.165
MS.67          	18.278         	13.207
MS.68          	18.243         	13.187
MS.69          	18.205         	13.207
MS.70          	18.17          	13.205
MS.71          	18.132         	13.159
MS.72          	18.097         	13.243
MS.73          	18.06          	13.209
MS.74          	18.025         	13.187
MS.75          	17.987         	13.185
MS.76          	17.952         	13.161
MS.77          	17.917         	13.126
MS.78          	17.88          	13.07
MS.79          	17.845         	13.15
MS.80          	17.81          	13.05
MS.81          	17.775         	13.138
MS.82          	17.737         	13.08
MS.83          	17.702         	13.078
MS.84          	17.667         	13.052
MS.85          	17.632         	13.026
MS.86          	17.597         	13.118
MS.87          	17.562         	12.959
MS.88          	17.528         	13.11
MS.89          	17.493         	12.987
MS.90          	17.458         	13.011
MS.91          	17.422         	12.87
MS.92          	17.387         	13.032
MS.93          	17.352         	12.915
MS.94          	17.317         	12.905
MS.95          	17.282         	12.899
MS.96          	17.247         	12.949
MS.97          	17.215         	12.828
MS.98          	17.18          	12.868
MS.99          	17.145         	12.881
MS.100         	17.11          	12.826
MS.101         	17.077         	12.772
MS.102         	17.042         	12.766
MS.103         	17.01          	12.8
MS.104         	16.975         	12.788
MS.105         	16.94          	12.671
MS.106         	16.907         	12.707
MS.107         	16.872         	12.582
MS.108         	16.84          	12.508
MS.109         	16.805         	12.599
MS.110         	16.772         	12.524
MS.111         	16.74          	12.468
MS.112         	16.705         	12.47
MS.113         	16.672         	12.578
MS.114         	16.637         	12.466
MS.115         	16.605         	12.371
MS.116         	16.573         	12.359
MS.117         	16.54          	12.552
MS.118         	16.505         	12.292
MS.119         	16.472         	12.329
MS.120         	16.44          	12.262
MS.121         	16.407         	12.244
MS.122         	16.375         	12.101
MS.123         	16.342         	12.043
MS.124         	16.31          	12.01
MS.125         	16.278         	12.131
MS.126         	16.245         	12.047
MS.127         	16.212         	11.936
MS.128         	16.18          	11.801
MS.129         	16.147         	12.135
MS.130         	16.115         	11.801
MS.131         	16.083         	12.021
MS.132         	16.05          	11.984
MS.133         	16.017         	11.898
MS.134         	15.985         	11.94
MS.135         	15.955         	12.008
MS.136         	15.922         	11.823
MS.137         	15.89          	11.585
MS.138         	15.86          	11.765
MS.139         	15.827         	11.656
MS.140         	15.795         	11.563
MS.141         	15.765         	11.559
MS.142         	15.733         	11.563
MS.143         	15.7           	11.404
MS.144         	15.67          	11.549
MS.145         	15.637         	11.477
MS.146         	15.608         	11.563
MS.147         	15.575         	11.384
MS.148         	15.545         	11.261
MS.149         	15.515         	11.088
MS.150         	15.483         	11.43
MS.151         	15.452         	11.213
MS.152         	15.42          	11.171
MS.153         	15.39          	11.312
MS.154         	15.36          	11.297
MS.155         	15.327         	11.338
MS.156         	15.297         	11.048
MS.157         	15.267         	11.064
MS.158         	15.237         	10.788
MS.159         	15.207         	11.04
MS.160         	15.175         	11.017
MS.161         	15.145         	11.225
MS.162         	15.115         	10.951
MS.163         	15.085         	11.136
MS.164         	15.055         	10.552
MS.165         	15.025         	10.848
MS.166         	14.995         	10.655
MS.167         	14.965         	10.51
MS.168         	14.935         	10.566
MS.169         	14.905         	10.776
MS.170         	14.875         	10.451
MS.171         	14.845         	10.411
MS.172         	14.818         	10.27
MS.173         	14.787         	10.27
MS.174         	14.757         	10.24
MS.175         	14.727         	10.226
MS.176         	14.697         	10.196
MS.177         	14.67          	10.385
MS.178         	14.64          	10.228
MS.179         	14.61          	10.004
MS.180         	14.58          	9.843
MS.181         	14.552         	9.795
MS.182         	14.523         	10.014
MS.183         	14.495         	9.831
MS.184         	14.465         	9.759
MS.185         	14.435         	9.509
MS.186         	14.407         	9.499
MS.187         	14.377         	9.851
MS.188         	14.35          	9.442
MS.189         	14.32          	9.418
MS.190         	14.292         	9.293
MS.191         	14.265         	9.229
MS.192         	14.235         	9.392
MS.193         	14.207         	9.277
MS.194         	14.177         	9.307
MS.195         	14.15          	9.281
MS.196         	14.122         	9.166
MS.197         	14.092         	9.185
MS.198         	14.065         	9.219
MS.199         	14.037         	9.144
MS.200         	14.01          	9.102
MS.201         	13.983         	8.838
MS.202         	13.952         	9.142
MS.203         	13.925         	9.027
MS.204         	13.898         	8.973
MS.205         	13.87          	8.8
MS.206         	13.842         	8.961
MS.207         	13.815         	8.816
MS.208         	13.787         	8.929
MS.209         	13.76          	8.713
MS.210         	13.733         	8.623
MS.211         	13.705         	8.752
MS.212         	13.677         	8.484
MS.213         	13.65          	8.627
MS.214         	13.622         	8.411
MS.215         	13.595         	8.55
MS.216         	13.568         	8.586
MS.217         	13.54          	8.494
MS.218         	13.515         	8.445
MS.219         	13.487         	8.478
MS.220         	13.46          	8.411
MS.221         	13.432         	8.375
MS.222         	13.407         	8.224
MS.223         	13.38          	8.224
MS.224         	13.352         	8.308
MS.225         	13.325         	8.129
MS.226         	13.3           	8.153
MS.227         	13.273         	8.127
MS.228         	13.247         	8.099
MS.229         	13.22          	8.101
MS.230         	13.193         	8.051
MS.231         	13.167         	8.043
MS.232         	13.14          	8.028
MS.233         	13.115         	7.968
MS.234         	13.087         	7.994
MS.235         	13.062         	7.914
MS.236         	13.035         	7.938
MS.237         	13.01          	7.869
MS.238         	12.985         	7.648
MS.239         	12.957         	7.815
MS.240         	12.932         	7.769
MS.241         	12.907         	7.642
MS.242         	12.88          	7.797
MS.243         	12.855         	7.68
MS.244         	12.83          	7.481
MS.245         	12.802         	7.587
MS.246         	12.778         	7.521
MS.247         	12.752         	7.765
MS.248         	12.727         	7.765
MS.249         	12.702         	7.426
MS.250         	12.675         	7.537
MS.251         	12.65          	7.446
MS.252         	12.625         	7.511
MS.253         	12.6           	7.319
MS.254         	12.575         	7.291
MS.255         	12.55          	7.374
MS.256         	12.525         	7.18
MS.257         	12.5           	7.205
MS.258         	12.475         	7.174
MS.259         	12.45          	7.269
MS.260         	12.425         	7.203
MS.261         	12.4           	7.148
MS.262         	12.375         	7.06
MS.263         	12.35          	7.132
MS.264         	12.325         	7.054
MS.265         	12.302         	7.07
MS.266         	12.278         	6.973
MS.267         	12.252         	6.909
MS.268         	12.227         	7.009
MS.269         	12.202         	6.832
MS.270         	12.18          	6.981
MS.271         	12.155         	6.731
MS.272         	12.13          	6.86
MS.273         	12.108         	6.731
MS.274         	12.082         	6.556
MS.275         	12.057         	6.852
MS.276         	12.035         	6.661
MS.277         	12.01          	5.912
MS.278         	11.985         	5.728
MS.279         	11.962         	6.401
MS.280         	11.938         	5.767
MS.281         	11.915         	6.328
MS.282         	11.89          	6.21
MS.283         	11.867         	6.258
MS.284         	11.842         	6.179
MS.285         	11.82          	6.25
MS.286         	11.795         	6.133
MS.287         	11.773         	5.65
MS.288         	11.747         	5.593
MS.289         	11.725         	5.577
MS.290         	11.702         	5.503
MS.291         	11.677         	5.444
MS.292         	11.655         	5.599
MS.293         	11.632         	5.527
MS.294         	11.608         	5.261
MS.295         	11.585         	5.422
MS.296         	11.562         	5.378
MS.297         	11.54          	5.205
MS.298         	11.515         	5.422
MS.299         	11.492         	4.929
MS.300         	11.47          	5.295
MS.301         	11.447         	4.961
MS.302         	11.425         	5.188
MS.303         	11.403         	5.005
MS.304         	11.377         	4.677
MS.305         	11.355         	4.641
MS.306         	11.332         	5.052
MS.307         	11.31          	4.486
MS.308         	11.287         	4.788
MS.309         	11.265         	4.431
MS.310         	11.242         	4.677
MS.311         	11.22          	4.665
MS.312         	11.197         	4.332
MS.313         	11.175         	4.498
MS.314         	11.153         	4.463
MS.315         	11.13          	4.115
MS.316         	11.108         	4.059
MS.317         	11.087         	4.117
MS.318         	11.065         	3.482
MS.319         	11.042         	4.341
MS.320         	11.02          	3.732
MS.321         	10.997         	3.777
MS.322         	10.975         	3.869
MS.323         	10.955         	3.178
MS.324         	10.932         	3.19
MS.325         	10.91          	3.372
MS.326         	10.887         	3.011
MS.327         	10.867         	2.955
MS.328         	10.845         	3.068
MS.329         	10.823         	2.522
MS.330         	10.802         	2.997
MS.331         	10.78          	2.792
MS.332         	10.76          	2.685
MS.333         	10.738         	2.925
MS.334         	10.715         	2.556
MS.335         	10.695         	2.739
MS.336         	10.672         	2.504
MS.337         	10.653         	2.637
MS.338         	10.63          	2.298
MS.339         	10.61          	2.538
MS.340         	10.587         	2.733
MS.341         	10.568         	2.258
MS.342         	10.545         	2.467
MS.343         	10.525         	2.5
MS.344         	10.502         	2.433
MS.345         	10.483         	2.206
MS.346         	10.462         	2.268
MS.347         	10.44          	2.371
MS.348         	10.42          	2.155
MS.349         	10.4           	1.909
MS.350         	10.377         	1.954
MS.351         	10.358         	2.024
MS.352         	10.337         	1.859
MS.353         	10.318         	1.851
MS.354         	10.295         	1.909
MS.355         	10.275         	1.841
MS.356         	10.255         	1.77
MS.357         	10.235         	1.704
MS.358         	10.212         	1.656
MS.359         	10.193         	1.67
MS.360         	10.172         	1.597
MS.361         	10.153         	1.541
MS.362         	10.132         	1.549
MS.363         	10.113         	1.625
MS.364         	10.092         	1.482
MS.365         	10.073         	1.345
MS.366         	10.052         	1.148
MS.367         	10.032         	1.509
MS.368         	10.012         	1.424
MS.369         	9.992          	1.223
MS.370         	9.972          	1.311
MS.371         	9.952          	1.043
MS.372         	9.932          	1.237
MS.373         	9.912          	0.918
MS.374         	9.892          	1.088
MS.375         	9.872          	0.896
MS.376         	9.852          	1.376
MS.377         	9.832          	0.894
MS.378         	9.812          	0.884
MS.379         	9.792          	1.007
MS.380         	9.775          	0.745
MS.381         	9.755          	0.866
MS.382         	9.735          	0.769
MS.383         	9.715          	0.872
MS.384         	9.695          	0.745
MS.385         	9.677          	0.705
MS.386         	9.657          	0.751
MS.387         	9.637          	0.612
MS.388         	9.62           	0.731
MS.389         	9.6            	0.691
MS.390         	9.58           	0.705
MS.391         	9.562          	0.608
MS.392         	9.542          	0.643
MS.393         	9.523          	0.679
MS.394         	9.505          	0.536
MS.395         	9.485          	0.592
MS.396         	9.465          	0.544
MS.397         	9.448          	0.556
MS.398         	9.427          	0.58
MS.399         	9.41           	0.526
MS.400         	9.39           	0.534
MS.401         	9.372          	0.512
MS.402         	9.352          	0.552
MS.403         	9.335          	0.528
MS.404         	9.315          	0.508
MS.405         	9.297          	0.526
MS.406         	9.28           	0.546
MS.407         	9.26           	0.532
MS.408         	9.242          	0.532
MS.409         	9.222          	0.52
MS.410         	9.205          	0.5
MS.411         	9.188          	0.449
MS.412         	9.167          	0.397
MS.413         	9.15           	0.493
MS.414         	9.132          	0.429
MS.415         	9.113          	0.528
MS.416         	9.095          	0.421
MS.417         	9.077          	0.461
MS.418         	9.057          	0.35
MS.419         	9.04           	0.411
MS.420         	9.023          	0.461
MS.421         	9.005          	0.415
MS.422         	8.988          	0.411
MS.423         	8.967          	0.403
MS.424         	8.95           	0.348
MS.425         	8.932          	0.401
MS.426         	8.915          	0.383
MS.427         	8.898          	0.399
MS.428         	8.88           	0.256
MS.429         	8.863          	0.306
MS.430         	8.845          	0.334
MS.431         	8.825          	0.338
MS.432         	8.807          	0.322
MS.433         	8.79           	0.35
MS.434         	8.773          	0.276
MS.435         	8.755          	0.274
MS.436         	8.738          	0.31
MS.437         	8.72           	0.342
MS.438         	8.702          	0.314
MS.439         	8.685          	0.294
MS.440         	8.67           	0.288
MS.441         	8.653          	0.314
MS.442         	8.635          	0.252
MS.443         	8.617          	0.238
MS.444         	8.6            	0.252
MS.445         	8.582          	0.191
MS.446         	8.565          	0.228
MS.447         	8.547          	0.224
MS.448         	8.53           	0.185
MS.449         	8.515          	0.185
MS.450         	8.497          	0.181
MS.451         	8.48           	0.193
MS.452         	8.462          	0.189
MS.453         	8.448          	0.189
MS.454         	8.43           	0.224
MS.455         	8.412          	0.177
MS.456         	8.395          	0.187
MS.457         	8.38           	0.216
MS.458         	8.363          	0.191
MS.459         	8.345          	0.185
MS.460         	8.33           	0.189
MS.461         	8.312          	0.187
MS.462         	8.295          	0.143
MS.463         	8.28           	0.171
MS.464         	8.262          	0.185
MS.465         	8.245          	0.179
MS.466         	8.23           	0.175
MS.467         	8.212          	0.163
MS.468         	8.198          	0.175
MS.469         	8.18           	0.119
MS.470         	8.165          	0.173
MS.471         	8.148          	0.161
MS.472         	8.132          	0.119
MS.473         	8.115          	0.143
MS.474         	8.1            	0.117
MS.475         	8.082          	0.151
MS.476         	8.068          	0.121
MS.477         	8.05           	0.117
MS.478         	8.035          	0.095
MS.479         	8.017          	0.125
MS.480         	8.002          	0.093
MS.481         	7.987          	0.099
MS.482         	7.97           	0.121
MS.483         	7.955          	0.091
MS.484         	7.938          	0.087
MS.485         	7.922          	0.089
MS.486         	7.907          	0.089
MS.487         	7.89           	0.125
MS.488         	7.875          	0.101
MS.489         	7.86           	0.085
MS.490         	7.845          	0.089
MS.491         	7.827          	0.089
MS.492         	7.812          	0.095
MS.493         	7.797          	0.099
MS.494         	7.782          	0.077
MS.495         	7.765          	0.085
MS.496         	7.75           	0.079
