File:              	C:\Qtrac\Data\Daniel M Sørensen\MScan multicentre study\Data from centres\Newcastle\Processed data\SMC00303B.QZD
Name:              	UK.NEW.NC.6.2
Protocol:          	MSCAN-R2
Date:              	3/3/20
Start time:        	12:49:28
Age:               	54
Sex:               	F
Temperature:       	31.7
S/R sites:         	ADM
NC/disease:        	NC
Operator:          	SM
Comments:          	High resistance
M-SCAN DATA (3.1-0.0m)
Scanpts: 13, 23, 564, 587
Stim. (mA)     	Amp. (mV)
MS.1           	25.5           	6.806
MS.2           	25.5           	6.846
MS.3           	25.397         	6.832
MS.4           	25.347         	6.8
MS.5           	25.297         	6.79
MS.6           	25.245         	6.755
MS.7           	25.195         	6.778
MS.8           	25.145         	6.788
MS.9           	25.095         	6.822
MS.10          	25.045         	6.782
MS.11          	24.995         	6.77
MS.12          	24.945         	6.762
MS.13          	24.895         	6.753
MS.14          	24.845         	6.78
MS.15          	24.795         	6.806
MS.16          	24.747         	6.772
MS.17          	24.698         	6.76
MS.18          	24.647         	6.721
MS.19          	24.597         	6.745
MS.20          	24.55          	6.751
MS.21          	24.5           	6.774
MS.22          	24.45          	6.776
MS.23          	24.403         	6.743
MS.24          	24.352         	6.719
MS.25          	24.305         	6.725
MS.26          	24.257         	6.721
MS.27          	24.207         	6.713
MS.28          	24.16          	6.758
MS.29          	24.11          	6.723
MS.30          	24.062         	6.713
MS.31          	24.015         	6.687
MS.32          	23.967         	6.711
MS.33          	23.92          	6.709
MS.34          	23.87          	6.727
MS.35          	23.823         	6.707
MS.36          	23.775         	6.659
MS.37          	23.727         	6.673
MS.38          	23.68          	6.655
MS.39          	23.632         	6.637
MS.40          	23.587         	6.707
MS.41          	23.54          	6.701
MS.42          	23.493         	6.675
MS.43          	23.445         	6.657
MS.44          	23.397         	6.655
MS.45          	23.352         	6.629
MS.46          	23.305         	6.617
MS.47          	23.257         	6.669
MS.48          	23.212         	6.685
MS.49          	23.165         	6.633
MS.50          	23.12          	6.641
MS.51          	23.073         	6.655
MS.52          	23.028         	6.655
MS.53          	22.98          	6.665
MS.54          	22.935         	6.683
MS.55          	22.89          	6.635
MS.56          	22.842         	6.631
MS.57          	22.797         	6.608
MS.58          	22.752         	6.625
MS.59          	22.707         	6.655
MS.60          	22.663         	6.631
MS.61          	22.618         	6.612
MS.62          	22.57          	6.612
MS.63          	22.525         	6.596
MS.64          	22.48          	6.584
MS.65          	22.435         	6.558
MS.66          	22.392         	6.617
MS.67          	22.347         	6.615
MS.68          	22.302         	6.588
MS.69          	22.257         	6.57
MS.70          	22.212         	6.588
MS.71          	22.167         	6.562
MS.72          	22.125         	6.552
MS.73          	22.08          	6.586
MS.74          	22.035         	6.582
MS.75          	21.993         	6.558
MS.76          	21.948         	6.562
MS.77          	21.905         	6.518
MS.78          	21.86          	6.552
MS.79          	21.817         	6.522
MS.80          	21.772         	6.524
MS.81          	21.73          	6.548
MS.82          	21.685         	6.546
MS.83          	21.642         	6.502
MS.84          	21.6           	6.496
MS.85          	21.557         	6.48
MS.86          	21.512         	6.486
MS.87          	21.47          	6.463
MS.88          	21.427         	6.492
MS.89          	21.385         	6.482
MS.90          	21.342         	6.459
MS.91          	21.3           	6.455
MS.92          	21.257         	6.439
MS.93          	21.215         	6.437
MS.94          	21.172         	6.441
MS.95          	21.13          	6.457
MS.96          	21.087         	6.445
MS.97          	21.045         	6.439
MS.98          	21.002         	6.467
MS.99          	20.96          	6.478
MS.100         	20.92          	6.49
MS.101         	20.877         	6.488
MS.102         	20.835         	6.461
MS.103         	20.795         	6.465
MS.104         	20.752         	6.514
MS.105         	20.71          	6.516
MS.106         	20.67          	6.474
MS.107         	20.627         	6.49
MS.108         	20.587         	6.476
MS.109         	20.545         	6.506
MS.110         	20.505         	6.471
MS.111         	20.465         	6.451
MS.112         	20.422         	6.502
MS.113         	20.382         	6.502
MS.114         	20.342         	6.469
MS.115         	20.3           	6.474
MS.116         	20.26          	6.449
MS.117         	20.22          	6.514
MS.118         	20.18          	6.48
MS.119         	20.14          	6.461
MS.120         	20.1           	6.453
MS.121         	20.06          	6.441
MS.122         	20.02          	6.443
MS.123         	19.98          	6.474
MS.124         	19.94          	6.439
MS.125         	19.9           	6.449
MS.126         	19.86          	6.443
MS.127         	19.82          	6.451
MS.128         	19.78          	6.337
MS.129         	19.74          	6.453
MS.130         	19.7           	6.423
MS.131         	19.663         	6.463
MS.132         	19.622         	6.455
MS.133         	19.583         	6.49
MS.134         	19.545         	6.459
MS.135         	19.505         	6.431
MS.136         	19.465         	6.457
MS.137         	19.427         	6.461
MS.138         	19.387         	6.379
MS.139         	19.35          	6.361
MS.140         	19.31          	6.349
MS.141         	19.272         	6.312
MS.142         	19.235         	6.429
MS.143         	19.195         	6.345
MS.144         	19.157         	6.345
MS.145         	19.12          	6.324
MS.146         	19.08          	6.341
MS.147         	19.042         	6.331
MS.148         	19.005         	6.343
MS.149         	18.967         	6.314
MS.150         	18.927         	6.351
MS.151         	18.89          	6.32
MS.152         	18.852         	6.333
MS.153         	18.815         	6.343
MS.154         	18.778         	6.355
MS.155         	18.74          	6.345
MS.156         	18.702         	6.361
MS.157         	18.665         	6.339
MS.158         	18.628         	6.373
MS.159         	18.59          	6.337
MS.160         	18.555         	6.322
MS.161         	18.517         	6.351
MS.162         	18.48          	6.371
MS.163         	18.442         	6.363
MS.164         	18.405         	6.357
MS.165         	18.37          	6.381
MS.166         	18.333         	6.365
MS.167         	18.295         	6.389
MS.168         	18.26          	6.385
MS.169         	18.222         	6.373
MS.170         	18.188         	6.365
MS.171         	18.15          	6.389
MS.172         	18.115         	6.395
MS.173         	18.077         	6.331
MS.174         	18.042         	6.337
MS.175         	18.005         	6.395
MS.176         	17.97          	6.316
MS.177         	17.932         	6.421
MS.178         	17.897         	6.433
MS.179         	17.862         	6.192
MS.180         	17.827         	6.379
MS.181         	17.79          	6.349
MS.182         	17.755         	6.367
MS.183         	17.72          	6.391
MS.184         	17.685         	6.322
MS.185         	17.65          	6.175
MS.186         	17.612         	6.363
MS.187         	17.577         	6.167
MS.188         	17.542         	6.171
MS.189         	17.507         	6.365
MS.190         	17.472         	6.335
MS.191         	17.438         	6.21
MS.192         	17.403         	6.185
MS.193         	17.37          	6.177
MS.194         	17.335         	6.173
MS.195         	17.3           	5.845
MS.196         	17.265         	6.355
MS.197         	17.23          	6.183
MS.198         	17.195         	6.02
MS.199         	17.163         	6.188
MS.200         	17.128         	5.996
MS.201         	17.092         	5.946
MS.202         	17.06          	6.028
MS.203         	17.025         	6.018
MS.204         	16.99          	5.851
MS.205         	16.958         	5.97
MS.206         	16.922         	5.763
MS.207         	16.89          	5.946
MS.208         	16.855         	5.964
MS.209         	16.823         	5.841
MS.210         	16.788         	5.781
MS.211         	16.755         	5.726
MS.212         	16.72          	5.638
MS.213         	16.688         	5.787
MS.214         	16.655         	5.771
MS.215         	16.62          	5.901
MS.216         	16.587         	5.799
MS.217         	16.555         	5.626
MS.218         	16.522         	5.634
MS.219         	16.487         	5.771
MS.220         	16.455         	5.646
MS.221         	16.422         	5.642
MS.222         	16.39          	5.611
MS.223         	16.358         	5.694
MS.224         	16.325         	5.47
MS.225         	16.292         	5.694
MS.226         	16.26          	5.752
MS.227         	16.227         	5.765
MS.228         	16.195         	5.613
MS.229         	16.163         	5.686
MS.230         	16.13          	5.382
MS.231         	16.097         	5.509
MS.232         	16.065         	5.529
MS.233         	16.032         	5.533
MS.234         	16.003         	5.609
MS.235         	15.97          	5.567
MS.236         	15.938         	5.446
MS.237         	15.905         	5.472
MS.238         	15.875         	5.509
MS.239         	15.842         	5.505
MS.240         	15.81          	5.557
MS.241         	15.78          	5.436
MS.242         	15.747         	5.479
MS.243         	15.715         	5.487
MS.244         	15.685         	5.388
MS.245         	15.652         	5.565
MS.246         	15.622         	5.565
MS.247         	15.59          	5.392
MS.248         	15.56          	5.42
MS.249         	15.527         	5.269
MS.250         	15.497         	5.172
MS.251         	15.467         	5.412
MS.252         	15.435         	5.412
MS.253         	15.405         	5.468
MS.254         	15.375         	5.323
MS.255         	15.342         	5.168
MS.256         	15.312         	5.462
MS.257         	15.282         	5.319
MS.258         	15.252         	5.215
MS.259         	15.22          	5.219
MS.260         	15.19          	5.299
MS.261         	15.16          	4.937
MS.262         	15.13          	5.132
MS.263         	15.1           	5.374
MS.264         	15.07          	5.279
MS.265         	15.04          	4.997
MS.266         	15.01          	5.035
MS.267         	14.98          	5.273
MS.268         	14.95          	4.995
MS.269         	14.92          	5.211
MS.270         	14.89          	5.052
MS.271         	14.86          	5.09
MS.272         	14.83          	5.041
MS.273         	14.8           	5.06
MS.274         	14.77          	4.786
MS.275         	14.742         	5.088
MS.276         	14.712         	5.082
MS.277         	14.682         	5.017
MS.278         	14.652         	4.87
MS.279         	14.625         	4.772
MS.280         	14.595         	4.816
MS.281         	14.565         	5.07
MS.282         	14.537         	4.701
MS.283         	14.507         	4.816
MS.284         	14.477         	4.723
MS.285         	14.45          	4.612
MS.286         	14.42          	4.794
MS.287         	14.392         	4.637
MS.288         	14.362         	4.768
MS.289         	14.335         	4.681
MS.290         	14.305         	4.608
MS.291         	14.278         	4.691
MS.292         	14.25          	4.616
MS.293         	14.22          	4.673
MS.294         	14.193         	4.639
MS.295         	14.162         	4.625
MS.296         	14.135         	4.627
MS.297         	14.108         	4.484
MS.298         	14.08          	4.57
MS.299         	14.05          	4.622
MS.300         	14.023         	4.54
MS.301         	13.995         	4.629
MS.302         	13.967         	4.363
MS.303         	13.94          	4.328
MS.304         	13.91          	4.564
MS.305         	13.882         	4.405
MS.306         	13.855         	4.411
MS.307         	13.827         	4.375
MS.308         	13.8           	4.306
MS.309         	13.773         	4.332
MS.310         	13.745         	4.397
MS.311         	13.717         	4.429
MS.312         	13.69          	4.171
MS.313         	13.662         	4.383
MS.314         	13.635         	4.246
MS.315         	13.608         	4.23
MS.316         	13.58          	4.067
MS.317         	13.555         	4.31
MS.318         	13.528         	4.159
MS.319         	13.5           	3.877
MS.320         	13.472         	3.998
MS.321         	13.445         	3.682
MS.322         	13.42          	4.113
MS.323         	13.392         	4.052
MS.324         	13.365         	3.932
MS.325         	13.34          	3.573
MS.326         	13.312         	4.087
MS.327         	13.285         	3.853
MS.328         	13.26          	3.787
MS.329         	13.233         	3.507
MS.330         	13.205         	3.535
MS.331         	13.18          	3.754
MS.332         	13.153         	3.525
MS.333         	13.127         	3.454
MS.334         	13.1           	3.418
MS.335         	13.075         	3.426
MS.336         	13.047         	3.372
MS.337         	13.023         	3.611
MS.338         	12.997         	3.529
MS.339         	12.97          	3.339
MS.340         	12.945         	3.269
MS.341         	12.917         	3.384
MS.342         	12.892         	3.225
MS.343         	12.867         	3.489
MS.344         	12.842         	3.422
MS.345         	12.815         	3.283
MS.346         	12.79          	3.444
MS.347         	12.765         	3.364
MS.348         	12.74          	3.142
MS.349         	12.712         	3.215
MS.350         	12.688         	3.062
MS.351         	12.662         	3.239
MS.352         	12.637         	3.38
MS.353         	12.613         	3.352
MS.354         	12.587         	3.404
MS.355         	12.562         	3.251
MS.356         	12.537         	2.739
MS.357         	12.512         	3.045
MS.358         	12.488         	3.013
MS.359         	12.462         	2.973
MS.360         	12.438         	3.118
MS.361         	12.412         	3.005
MS.362         	12.387         	3.086
MS.363         	12.363         	2.945
MS.364         	12.337         	2.604
MS.365         	12.312         	3.031
MS.366         	12.287         	2.86
MS.367         	12.265         	2.884
MS.368         	12.24          	2.814
MS.369         	12.215         	2.778
MS.370         	12.19          	2.743
MS.371         	12.167         	2.737
MS.372         	12.142         	2.582
MS.373         	12.117         	2.912
MS.374         	12.092         	2.624
MS.375         	12.07          	2.584
MS.376         	12.045         	2.663
MS.377         	12.02          	2.381
MS.378         	11.997         	2.433
MS.379         	11.972         	2.608
MS.380         	11.95          	2.536
MS.381         	11.925         	2.449
MS.382         	11.903         	2.506
MS.383         	11.877         	2.145
MS.384         	11.855         	2.53
MS.385         	11.83          	2.467
MS.386         	11.807         	2.201
MS.387         	11.782         	2.57
MS.388         	11.76          	2.175
MS.389         	11.735         	2.014
MS.390         	11.712         	2.242
MS.391         	11.69          	2.101
MS.392         	11.665         	2.395
MS.393         	11.642         	2.334
MS.394         	11.62          	1.984
MS.395         	11.595         	2.014
MS.396         	11.572         	2.032
MS.397         	11.55          	1.768
MS.398         	11.528         	2.002
MS.399         	11.505         	2.147
MS.400         	11.48          	2.018
MS.401         	11.457         	1.98
MS.402         	11.435         	1.698
MS.403         	11.412         	1.772
MS.404         	11.39          	1.823
MS.405         	11.367         	1.581
MS.406         	11.345         	1.93
MS.407         	11.32          	1.742
MS.408         	11.297         	1.541
MS.409         	11.275         	1.704
MS.410         	11.252         	1.458
MS.411         	11.23          	1.402
MS.412         	11.207         	1.674
MS.413         	11.185         	1.509
MS.414         	11.165         	1.779
MS.415         	11.142         	1.527
MS.416         	11.12          	1.343
MS.417         	11.097         	1.362
MS.418         	11.075         	1.122
MS.419         	11.052         	1.364
MS.420         	11.03          	1.505
MS.421         	11.007         	1.136
MS.422         	10.988         	1.249
MS.423         	10.965         	1.458
MS.424         	10.943         	1.007
MS.425         	10.92          	1.237
MS.426         	10.9           	1.287
MS.427         	10.877         	1.38
MS.428         	10.855         	1.331
MS.429         	10.835         	1.192
MS.430         	10.812         	1.11
MS.431         	10.79          	1.16
MS.432         	10.77          	0.987
MS.433         	10.747         	1.287
MS.434         	10.725         	1.124
MS.435         	10.705         	0.961
MS.436         	10.682         	1.051
MS.437         	10.662         	0.904
MS.438         	10.64          	0.981
MS.439         	10.62          	0.943
MS.440         	10.597         	1.049
MS.441         	10.577         	1.023
MS.442         	10.555         	0.916
MS.443         	10.535         	0.86
MS.444         	10.512         	0.91
MS.445         	10.492         	0.866
MS.446         	10.472         	0.826
MS.447         	10.45          	0.894
MS.448         	10.43          	0.868
MS.449         	10.41          	0.846
MS.450         	10.387         	0.781
MS.451         	10.367         	0.743
MS.452         	10.347         	0.908
MS.453         	10.325         	0.82
MS.454         	10.305         	0.729
MS.455         	10.285         	0.796
MS.456         	10.265         	0.731
MS.457         	10.245         	0.711
MS.458         	10.222         	0.81
MS.459         	10.202         	0.691
MS.460         	10.182         	0.858
MS.461         	10.162         	0.713
MS.462         	10.142         	0.568
MS.463         	10.122         	0.683
MS.464         	10.102         	0.588
MS.465         	10.08          	0.516
MS.466         	10.06          	0.659
MS.467         	10.04          	0.614
MS.468         	10.02          	0.689
MS.469         	10             	0.643
MS.470         	9.98           	0.485
MS.471         	9.96           	0.602
MS.472         	9.94           	0.677
MS.473         	9.92           	0.657
MS.474         	9.903          	0.554
MS.475         	9.882          	0.614
MS.476         	9.863          	0.689
MS.477         	9.842          	0.481
MS.478         	9.823          	0.375
MS.479         	9.802          	0.447
MS.480         	9.782          	0.318
MS.481         	9.762          	0.371
MS.482         	9.745          	0.32
MS.483         	9.725          	0.296
MS.484         	9.705          	0.457
MS.485         	9.685          	0.32
MS.486         	9.667          	0.473
MS.487         	9.648          	0.346
MS.488         	9.627          	0.252
MS.489         	9.608          	0.296
MS.490         	9.59           	0.173
MS.491         	9.57           	0.226
MS.492         	9.552          	0.292
MS.493         	9.532          	0.332
MS.494         	9.512          	0.252
MS.495         	9.495          	0.161
MS.496         	9.475          	0.274
MS.497         	9.455          	0.189
MS.498         	9.438          	0.145
MS.499         	9.417          	0.211
MS.500         	9.4            	0.141
