File:              	C:\Qtrac\Data\Daniel M Sørensen\MScan multicentre study\Data from centres\Oslo\IronKey\Oslo_NC_first examination\SZC00610C.QZD
Name:              	NO.OSL.NC.17.1
Protocol:          	MSCAN-R2
Date:              	10/6/20
Start time:        	16:18:03
Age:               	52
Sex:               	F
Temperature:       	34.4
S/R sites:         	Ulnar Wr-ADM
NC/disease:        	NC17
Operator:          	SZ
Comments:          	Test1
M-SCAN DATA (10.9-4.6m)
Scanpts: 23, 31, 646, 655
Stim. (mA)     	Amp. (mV)
MS.1           	17.5           	10.516
MS.2           	17.5           	10.49
MS.3           	17.5           	10.486
MS.4           	17.5           	10.508
MS.5           	17.5           	10.504
MS.6           	17.5           	10.496
MS.7           	17.5           	10.492
MS.8           	17.5           	10.482
MS.9           	17.5           	10.5
MS.10          	17.5           	10.524
MS.11          	17.5           	10.502
MS.12          	17.5           	10.49
MS.13          	17.5           	10.484
MS.14          	17.5           	10.512
MS.15          	17.5           	10.502
MS.16          	17.5           	10.53
MS.17          	17.5           	10.522
MS.18          	17.5           	10.54
MS.19          	17.5           	10.528
MS.20          	17.5           	10.51
MS.21          	17.5           	10.542
MS.22          	17.5           	10.522
MS.23          	17.5           	10.528
MS.24          	17.43          	10.506
MS.25          	17.395         	10.538
MS.26          	17.36          	10.534
MS.27          	17.325         	10.534
MS.28          	17.29          	10.51
MS.29          	17.257         	10.528
MS.30          	17.222         	10.522
MS.31          	17.188         	10.518
MS.32          	17.153         	10.534
MS.33          	17.12          	10.51
MS.34          	17.085         	10.534
MS.35          	17.05          	10.494
MS.36          	17.017         	10.522
MS.37          	16.983         	10.556
MS.38          	16.95          	10.564
MS.39          	16.915         	10.476
MS.40          	16.88          	10.514
MS.41          	16.847         	10.528
MS.42          	16.812         	10.556
MS.43          	16.78          	10.56
MS.44          	16.747         	10.524
MS.45          	16.712         	10.54
MS.46          	16.68          	10.53
MS.47          	16.647         	10.496
MS.48          	16.612         	10.49
MS.49          	16.58          	10.492
MS.50          	16.547         	10.468
MS.51          	16.515         	10.48
MS.52          	16.48          	10.482
MS.53          	16.448         	10.482
MS.54          	16.415         	10.504
MS.55          	16.382         	10.476
MS.56          	16.35          	10.468
MS.57          	16.317         	10.54
MS.58          	16.285         	10.474
MS.59          	16.253         	10.474
MS.60          	16.22          	10.478
MS.61          	16.188         	10.439
MS.62          	16.155         	10.476
MS.63          	16.122         	10.49
MS.64          	16.09          	10.474
MS.65          	16.057         	10.468
MS.66          	16.025         	10.462
MS.67          	15.992         	10.478
MS.68          	15.962         	10.468
MS.69          	15.93          	10.462
MS.70          	15.898         	10.441
MS.71          	15.867         	10.379
MS.72          	15.835         	10.472
MS.73          	15.802         	10.437
MS.74          	15.773         	10.472
MS.75          	15.74          	10.395
MS.76          	15.707         	10.373
MS.77          	15.677         	10.331
MS.78          	15.645         	10.373
MS.79          	15.615         	10.403
MS.80          	15.582         	10.353
MS.81          	15.552         	10.339
MS.82          	15.52          	10.357
MS.83          	15.49          	10.371
MS.84          	15.46          	10.371
MS.85          	15.427         	10.333
MS.86          	15.398         	10.347
MS.87          	15.367         	10.343
MS.88          	15.335         	10.373
MS.89          	15.305         	10.389
MS.90          	15.275         	10.389
MS.91          	15.245         	10.351
MS.92          	15.212         	10.335
MS.93          	15.182         	10.387
MS.94          	15.152         	10.365
MS.95          	15.122         	10.409
MS.96          	15.092         	10.357
MS.97          	15.062         	10.369
MS.98          	15.032         	10.385
MS.99          	15.002         	10.381
MS.100         	14.972         	10.381
MS.101         	14.943         	10.387
MS.102         	14.912         	10.361
MS.103         	14.882         	10.371
MS.104         	14.852         	10.361
MS.105         	14.822         	10.363
MS.106         	14.792         	10.363
MS.107         	14.765         	10.323
MS.108         	14.735         	10.345
MS.109         	14.705         	10.387
MS.110         	14.675         	10.399
MS.111         	14.648         	10.401
MS.112         	14.617         	10.369
MS.113         	14.587         	10.363
MS.114         	14.56          	10.355
MS.115         	14.53          	10.341
MS.116         	14.5           	10.381
MS.117         	14.472         	10.357
MS.118         	14.443         	10.355
MS.119         	14.415         	10.345
MS.120         	14.385         	10.357
MS.121         	14.358         	10.306
MS.122         	14.327         	10.343
MS.123         	14.3           	10.319
MS.124         	14.27          	10.321
MS.125         	14.242         	10.341
MS.126         	14.212         	10.3
MS.127         	14.185         	10.325
MS.128         	14.157         	10.252
MS.129         	14.127         	10.288
MS.130         	14.1           	10.359
MS.131         	14.072         	10.347
MS.132         	14.045         	10.31
MS.133         	14.015         	10.317
MS.134         	13.987         	10.258
MS.135         	13.96          	10.341
MS.136         	13.932         	10.262
MS.137         	13.905         	10.272
MS.138         	13.877         	10.266
MS.139         	13.85          	10.24
MS.140         	13.82          	10.27
MS.141         	13.792         	10.264
MS.142         	13.765         	10.248
MS.143         	13.737         	10.31
MS.144         	13.71          	10.268
MS.145         	13.682         	10.236
MS.146         	13.655         	10.232
MS.147         	13.63          	10.228
MS.148         	13.602         	10.256
MS.149         	13.575         	10.23
MS.150         	13.547         	10.157
MS.151         	13.52          	10.19
MS.152         	13.492         	10.188
MS.153         	13.467         	10.25
MS.154         	13.44          	10.222
MS.155         	13.412         	10.196
MS.156         	13.385         	10.214
MS.157         	13.36          	10.196
MS.158         	13.332         	10.218
MS.159         	13.305         	10.169
MS.160         	13.28          	10.182
MS.161         	13.252         	10.18
MS.162         	13.225         	10.22
MS.163         	13.2           	10.212
MS.164         	13.172         	10.192
MS.165         	13.148         	10.018
MS.166         	13.12          	10.129
MS.167         	13.095         	10.016
MS.168         	13.068         	10.135
MS.169         	13.042         	10.165
MS.170         	13.015         	10.033
MS.171         	12.99          	10.035
MS.172         	12.965         	10.008
MS.173         	12.938         	10.053
MS.174         	12.912         	10.024
MS.175         	12.887         	10.041
MS.176         	12.86          	10.031
MS.177         	12.835         	9.956
MS.178         	12.81          	10.035
MS.179         	12.785         	9.98
MS.180         	12.757         	9.976
MS.181         	12.733         	10.041
MS.182         	12.707         	9.998
MS.183         	12.682         	9.992
MS.184         	12.657         	9.946
MS.185         	12.632         	9.936
MS.186         	12.608         	9.964
MS.187         	12.58          	10.029
MS.188         	12.555         	9.922
MS.189         	12.53          	9.978
MS.190         	12.505         	9.942
MS.191         	12.48          	9.962
MS.192         	12.455         	9.829
MS.193         	12.43          	9.938
MS.194         	12.405         	9.894
MS.195         	12.382         	9.906
MS.196         	12.358         	9.894
MS.197         	12.332         	9.759
MS.198         	12.307         	9.928
MS.199         	12.282         	9.726
MS.200         	12.257         	9.753
MS.201         	12.233         	9.523
MS.202         	12.21          	9.606
MS.203         	12.185         	9.69
MS.204         	12.16          	9.662
MS.205         	12.135         	9.426
MS.206         	12.113         	9.479
MS.207         	12.087         	9.404
MS.208         	12.062         	9.454
MS.209         	12.04          	9.41
MS.210         	12.015         	9.555
MS.211         	11.992         	9.573
MS.212         	11.967         	9.428
MS.213         	11.943         	9.428
MS.214         	11.92          	9.378
MS.215         	11.895         	9.287
MS.216         	11.872         	9.35
MS.217         	11.847         	9.17
MS.218         	11.825         	9.326
MS.219         	11.8           	9.324
MS.220         	11.778         	9.324
MS.221         	11.755         	9.249
MS.222         	11.73          	9.271
MS.223         	11.707         	9.201
MS.224         	11.682         	9.164
MS.225         	11.66          	9.096
MS.226         	11.637         	9.052
MS.227         	11.615         	9.094
MS.228         	11.59          	9.092
MS.229         	11.568         	9.128
MS.230         	11.545         	9.166
MS.231         	11.523         	9.05
MS.232         	11.497         	8.884
MS.233         	11.475         	8.609
MS.234         	11.452         	8.935
MS.235         	11.43          	9.148
MS.236         	11.407         	8.55
MS.237         	11.385         	8.494
MS.238         	11.36          	8.415
MS.239         	11.337         	8.794
MS.240         	11.315         	8.58
MS.241         	11.292         	8.466
MS.242         	11.27          	8.433
MS.243         	11.247         	8.506
MS.244         	11.225         	8.337
MS.245         	11.202         	8.423
MS.246         	11.18          	8.453
MS.247         	11.157         	8.151
MS.248         	11.135         	8.218
MS.249         	11.115         	8.188
MS.250         	11.092         	8.196
MS.251         	11.07          	8.169
MS.252         	11.047         	8.194
MS.253         	11.025         	8.256
MS.254         	11.002         	8.161
MS.255         	10.983         	8.214
MS.256         	10.96          	8.115
MS.257         	10.938         	7.936
MS.258         	10.915         	8.081
MS.259         	10.895         	8
MS.260         	10.872         	7.867
MS.261         	10.85          	7.863
MS.262         	10.827         	7.885
MS.263         	10.807         	7.66
MS.264         	10.785         	7.815
MS.265         	10.765         	7.821
MS.266         	10.742         	7.462
MS.267         	10.72          	7.517
MS.268         	10.7           	7.354
MS.269         	10.677         	7.652
MS.270         	10.657         	7.398
MS.271         	10.635         	7.36
MS.272         	10.615         	7.336
MS.273         	10.592         	7.241
MS.274         	10.573         	7.227
MS.275         	10.55          	6.931
MS.276         	10.53          	6.959
MS.277         	10.507         	7.156
MS.278         	10.488         	7.035
MS.279         	10.467         	6.651
MS.280         	10.445         	6.874
MS.281         	10.425         	6.411
MS.282         	10.405         	6.369
MS.283         	10.382         	6.381
MS.284         	10.363         	6.574
MS.285         	10.342         	6.401
MS.286         	10.32          	6.298
MS.287         	10.3           	6.351
MS.288         	10.28          	6.19
MS.289         	10.26          	6.381
MS.290         	10.24          	6.153
MS.291         	10.217         	5.567
MS.292         	10.198         	5.295
MS.293         	10.177         	5.499
MS.294         	10.157         	5.624
MS.295         	10.137         	5.881
MS.296         	10.117         	5.579
MS.297         	10.097         	5.39
MS.298         	10.077         	5.539
MS.299         	10.057         	5.281
MS.300         	10.035         	5.541
MS.301         	10.015         	5.378
MS.302         	9.995          	5.281
MS.303         	9.975          	5.164
MS.304         	9.955          	4.913
MS.305         	9.938          	4.896
MS.306         	9.917          	5.092
MS.307         	9.898          	4.987
MS.308         	9.877          	4.768
MS.309         	9.858          	4.84
MS.310         	9.837          	4.477
MS.311         	9.818          	4.61
MS.312         	9.797          	4.407
MS.313         	9.778          	4.665
MS.314         	9.76           	4.508
MS.315         	9.74           	4.421
MS.316         	9.72           	4.332
MS.317         	9.7            	4.341
MS.318         	9.682          	4.453
MS.319         	9.662          	4.385
MS.320         	9.642          	3.96
MS.321         	9.622          	4.008
MS.322         	9.605          	4.069
MS.323         	9.585          	3.748
MS.324         	9.565          	3.944
MS.325         	9.547          	3.903
MS.326         	9.528          	3.559
MS.327         	9.507          	3.752
MS.328         	9.49           	3.682
MS.329         	9.47           	3.69
MS.330         	9.452          	3.771
MS.331         	9.432          	3.36
MS.332         	9.415          	3.583
MS.333         	9.395          	3.478
MS.334         	9.377          	3.337
MS.335         	9.358          	3.531
MS.336         	9.34           	3.184
MS.337         	9.32           	2.921
MS.338         	9.302          	3.311
MS.339         	9.283          	3.11
MS.340         	9.265          	3.404
MS.341         	9.245          	2.87
MS.342         	9.227          	2.78
MS.343         	9.21           	2.755
MS.344         	9.19           	2.763
MS.345         	9.172          	2.26
MS.346         	9.155          	2.252
MS.347         	9.135          	2.268
MS.348         	9.117          	2.234
MS.349         	9.1            	2.294
MS.350         	9.08           	2.252
MS.351         	9.062          	2.135
MS.352         	9.045          	2.048
MS.353         	9.028          	2.137
MS.354         	9.01           	2.155
MS.355         	8.99           	2.125
MS.356         	8.972          	1.954
MS.357         	8.955          	2.137
MS.358         	8.938          	2.123
MS.359         	8.92           	2.179
MS.360         	8.903          	1.956
MS.361         	8.882          	1.736
MS.362         	8.865          	1.907
MS.363         	8.847          	2.028
MS.364         	8.83           	1.766
MS.365         	8.812          	1.879
MS.366         	8.795          	1.809
MS.367         	8.778          	1.672
MS.368         	8.76           	1.652
MS.369         	8.742          	1.656
MS.370         	8.725          	1.581
MS.371         	8.707          	1.309
MS.372         	8.69           	1.511
MS.373         	8.672          	1.69
MS.374         	8.655          	1.444
MS.375         	8.637          	1.337
MS.376         	8.62           	1.311
MS.377         	8.602          	1.253
MS.378         	8.587          	1.223
MS.379         	8.57           	1.315
MS.380         	8.552          	1.217
MS.381         	8.535          	1.249
MS.382         	8.517          	1.186
MS.383         	8.5            	1.206
MS.384         	8.485          	1.227
MS.385         	8.467          	1.092
MS.386         	8.45           	1.182
MS.387         	8.432          	1.215
MS.388         	8.417          	1.196
MS.389         	8.4            	1.112
MS.390         	8.382          	1.13
MS.391         	8.365          	1.186
MS.392         	8.35           	1.023
MS.393         	8.332          	1.132
MS.394         	8.315          	1.011
MS.395         	8.3            	1.158
MS.396         	8.283          	1.08
MS.397         	8.267          	0.993
MS.398         	8.25           	1.15
MS.399         	8.233          	0.868
MS.400         	8.217          	0.888
MS.401         	8.2            	0.931
MS.402         	8.185          	0.983
MS.403         	8.167          	0.781
MS.404         	8.153          	0.858
MS.405         	8.135          	0.703
MS.406         	8.12           	0.777
MS.407         	8.102          	0.85
MS.408         	8.087          	0.775
MS.409         	8.07           	0.669
MS.410         	8.055          	0.765
MS.411         	8.037          	0.636
MS.412         	8.023          	0.618
MS.413         	8.005          	0.788
MS.414         	7.99           	0.701
MS.415         	7.975          	0.747
MS.416         	7.957          	0.681
MS.417         	7.942          	0.83
MS.418         	7.927          	0.634
MS.419         	7.91           	0.636
MS.420         	7.895          	0.632
MS.421         	7.88           	0.628
MS.422         	7.862          	0.634
MS.423         	7.847          	0.628
MS.424         	7.832          	0.638
MS.425         	7.815          	0.636
MS.426         	7.8            	0.614
MS.427         	7.785          	0.626
MS.428         	7.77           	0.616
MS.429         	7.755          	0.602
MS.430         	7.737          	0.641
MS.431         	7.722          	0.612
MS.432         	7.707          	0.598
MS.433         	7.692          	0.612
MS.434         	7.677          	0.622
MS.435         	7.662          	0.618
MS.436         	7.645          	0.564
MS.437         	7.63           	0.62
MS.438         	7.615          	0.576
MS.439         	7.6            	0.57
MS.440         	7.585          	0.588
MS.441         	7.57           	0.576
MS.442         	7.555          	0.564
MS.443         	7.54           	0.576
MS.444         	7.525          	0.56
MS.445         	7.51           	0.552
MS.446         	7.495          	0.56
MS.447         	7.48           	0.56
MS.448         	7.465          	0.542
MS.449         	7.45           	0.544
MS.450         	7.435          	0.532
MS.451         	7.42           	0.532
MS.452         	7.405          	0.512
MS.453         	7.39           	0.493
MS.454         	7.375          	0.475
MS.455         	7.36           	0.516
MS.456         	7.347          	0.522
MS.457         	7.332          	0.429
MS.458         	7.317          	0.469
MS.459         	7.302          	0.506
MS.460         	7.287          	0.391
MS.461         	7.273          	0.425
MS.462         	7.257          	0.451
MS.463         	7.245          	0.459
MS.464         	7.23           	0.439
MS.465         	7.215          	0.387
MS.466         	7.2            	0.431
MS.467         	7.188          	0.423
MS.468         	7.172          	0.423
MS.469         	7.157          	0.423
MS.470         	7.142          	0.423
MS.471         	7.13           	0.421
MS.472         	7.115          	0.401
MS.473         	7.1            	0.397
MS.474         	7.087          	0.429
MS.475         	7.072          	0.401
MS.476         	7.057          	0.387
MS.477         	7.045          	0.385
MS.478         	7.03           	0.381
MS.479         	7.015          	0.346
MS.480         	7.003          	0.375
MS.481         	6.987          	0.381
MS.482         	6.975          	0.322
MS.483         	6.96           	0.336
MS.484         	6.945          	0.33
MS.485         	6.932          	0.328
MS.486         	6.918          	0.322
MS.487         	6.905          	0.328
MS.488         	6.89           	0.314
MS.489         	6.878          	0.361
MS.490         	6.862          	0.332
MS.491         	6.85           	0.328
MS.492         	6.835          	0.369
MS.493         	6.822          	0.322
MS.494         	6.807          	0.328
MS.495         	6.795          	0.324
MS.496         	6.782          	0.328
