File:              	C:\Qtrac\Data\Daniel M Sørensen\MScan multicentre study\Data from centres\Oslo\IronKey\Oslo_NC_first examination\SZC00519B.QZD
Name:              	NO.OSL.NC.12.1
Protocol:          	MSCAN-R2
Date:              	19/5/20
Start time:        	16:32:27
Age:               	53
Sex:               	F
Temperature:       	30.8
S/R sites:         	Ulnar Wr-ADM
NC/disease:        	NC12
Operator:          	SZ
Comments:          	Test1
M-SCAN DATA (9.2-3.4m)
Scanpts: 1, 23, 598, 619
Stim. (mA)     	Amp. (mV)
MS.1           	16             	10.482
MS.2           	16             	10.478
MS.3           	16             	10.445
MS.4           	16             	10.447
MS.5           	16             	10.48
MS.6           	16             	10.5
MS.7           	16             	10.506
MS.8           	16             	10.524
MS.9           	16             	10.498
MS.10          	16             	10.482
MS.11          	16             	10.502
MS.12          	16             	10.502
MS.13          	16             	10.514
MS.14          	16             	10.512
MS.15          	16             	10.524
MS.16          	16             	10.534
MS.17          	16             	10.542
MS.18          	16             	10.536
MS.19          	16             	10.544
MS.20          	16             	10.538
MS.21          	16             	10.542
MS.22          	16             	10.544
MS.23          	16             	10.518
MS.24          	15.905         	10.554
MS.25          	15.872         	10.55
MS.26          	15.84          	10.548
MS.27          	15.81          	10.552
MS.28          	15.777         	10.544
MS.29          	15.745         	10.548
MS.30          	15.715         	10.536
MS.31          	15.682         	10.548
MS.32          	15.652         	10.546
MS.33          	15.62          	10.552
MS.34          	15.59          	10.53
MS.35          	15.557         	10.546
MS.36          	15.527         	10.536
MS.37          	15.495         	10.548
MS.38          	15.465         	10.532
MS.39          	15.435         	10.538
MS.40          	15.402         	10.542
MS.41          	15.372         	10.538
MS.42          	15.342         	10.552
MS.43          	15.31          	10.542
MS.44          	15.28          	10.552
MS.45          	15.25          	10.54
MS.46          	15.22          	10.542
MS.47          	15.19          	10.54
MS.48          	15.16          	10.542
MS.49          	15.127         	10.55
MS.50          	15.097         	10.556
MS.51          	15.068         	10.558
MS.52          	15.037         	10.558
MS.53          	15.007         	10.548
MS.54          	14.977         	10.556
MS.55          	14.947         	10.564
MS.56          	14.917         	10.546
MS.57          	14.887         	10.544
MS.58          	14.858         	10.55
MS.59          	14.83          	10.554
MS.60          	14.8           	10.558
MS.61          	14.77          	10.562
MS.62          	14.74          	10.546
MS.63          	14.71          	10.56
MS.64          	14.682         	10.542
MS.65          	14.652         	10.572
MS.66          	14.622         	10.548
MS.67          	14.592         	10.544
MS.68          	14.565         	10.534
MS.69          	14.535         	10.542
MS.70          	14.507         	10.546
MS.71          	14.477         	10.544
MS.72          	14.447         	10.55
MS.73          	14.42          	10.54
MS.74          	14.39          	10.548
MS.75          	14.362         	10.548
MS.76          	14.332         	10.552
MS.77          	14.305         	10.54
MS.78          	14.275         	10.54
MS.79          	14.247         	10.528
MS.80          	14.22          	10.542
MS.81          	14.19          	10.542
MS.82          	14.162         	10.524
MS.83          	14.135         	10.538
MS.84          	14.105         	10.536
MS.85          	14.077         	10.554
MS.86          	14.05          	10.546
MS.87          	14.023         	10.492
MS.88          	13.992         	10.552
MS.89          	13.965         	10.526
MS.90          	13.938         	10.544
MS.91          	13.91          	10.476
MS.92          	13.882         	10.482
MS.93          	13.855         	10.48
MS.94          	13.827         	10.496
MS.95          	13.8           	10.552
MS.96          	13.773         	10.5
MS.97          	13.745         	10.476
MS.98          	13.717         	10.504
MS.99          	13.69          	10.484
MS.100         	13.662         	10.502
MS.101         	13.635         	10.51
MS.102         	13.608         	10.504
MS.103         	13.58          	10.5
MS.104         	13.552         	10.504
MS.105         	13.525         	10.498
MS.106         	13.497         	10.474
MS.107         	13.472         	10.48
MS.108         	13.445         	10.492
MS.109         	13.417         	10.468
MS.110         	13.39          	10.494
MS.111         	13.365         	10.486
MS.112         	13.337         	10.474
MS.113         	13.31          	10.47
MS.114         	13.285         	10.486
MS.115         	13.257         	10.498
MS.116         	13.233         	10.476
MS.117         	13.205         	10.47
MS.118         	13.177         	10.474
MS.119         	13.153         	10.478
MS.120         	13.125         	10.484
MS.121         	13.1           	10.51
MS.122         	13.072         	10.478
MS.123         	13.047         	10.49
MS.124         	13.023         	10.502
MS.125         	12.995         	10.498
MS.126         	12.97          	10.466
MS.127         	12.943         	10.476
MS.128         	12.917         	10.476
MS.129         	12.892         	10.482
MS.130         	12.865         	10.49
MS.131         	12.84          	10.476
MS.132         	12.815         	10.478
MS.133         	12.79          	10.478
MS.134         	12.762         	10.476
MS.135         	12.738         	10.49
MS.136         	12.712         	10.484
MS.137         	12.688         	10.48
MS.138         	12.662         	10.47
MS.139         	12.637         	10.484
MS.140         	12.61          	10.474
MS.141         	12.585         	10.474
MS.142         	12.56          	10.458
MS.143         	12.535         	10.462
MS.144         	12.51          	10.472
MS.145         	12.485         	10.464
MS.146         	12.46          	10.456
MS.147         	12.435         	10.449
MS.148         	12.41          	10.486
MS.149         	12.385         	10.47
MS.150         	12.363         	10.468
MS.151         	12.337         	10.478
MS.152         	12.312         	10.445
MS.153         	12.287         	10.447
MS.154         	12.262         	10.458
MS.155         	12.238         	10.439
MS.156         	12.215         	10.449
MS.157         	12.19          	10.439
MS.158         	12.165         	10.411
MS.159         	12.14          	10.433
MS.160         	12.117         	10.433
MS.161         	12.092         	10.421
MS.162         	12.068         	10.427
MS.163         	12.045         	10.411
MS.164         	12.02          	10.399
MS.165         	11.995         	10.387
MS.166         	11.972         	10.397
MS.167         	11.947         	10.389
MS.168         	11.925         	10.379
MS.169         	11.9           	10.393
MS.170         	11.877         	10.385
MS.171         	11.852         	10.371
MS.172         	11.83          	10.327
MS.173         	11.805         	10.3
MS.174         	11.782         	10.302
MS.175         	11.757         	10.26
MS.176         	11.735         	10.325
MS.177         	11.712         	10.329
MS.178         	11.688         	10.312
MS.179         	11.665         	10.276
MS.180         	11.642         	10.29
MS.181         	11.617         	10.288
MS.182         	11.595         	10.24
MS.183         	11.572         	10.252
MS.184         	11.55          	10.254
MS.185         	11.525         	10.258
MS.186         	11.502         	10.31
MS.187         	11.48          	10.286
MS.188         	11.457         	10.27
MS.189         	11.435         	10.264
MS.190         	11.41          	10.248
MS.191         	11.387         	10.212
MS.192         	11.365         	10.214
MS.193         	11.342         	10.202
MS.194         	11.32          	10.214
MS.195         	11.297         	10.258
MS.196         	11.275         	10.218
MS.197         	11.252         	10.182
MS.198         	11.23          	10.188
MS.199         	11.207         	10.208
MS.200         	11.185         	10.186
MS.201         	11.162         	10.178
MS.202         	11.14          	10.172
MS.203         	11.117         	10.105
MS.204         	11.095         	10.135
MS.205         	11.075         	10.147
MS.206         	11.052         	10.159
MS.207         	11.03          	10.143
MS.208         	11.007         	10.111
MS.209         	10.985         	10.151
MS.210         	10.962         	10.081
MS.211         	10.943         	10.081
MS.212         	10.92          	10.101
MS.213         	10.898         	10.085
MS.214         	10.877         	10.109
MS.215         	10.855         	10.089
MS.216         	10.832         	10.053
MS.217         	10.81          	10.091
MS.218         	10.79          	10.123
MS.219         	10.767         	10.047
MS.220         	10.747         	10.059
MS.221         	10.725         	10.079
MS.222         	10.702         	9.996
MS.223         	10.682         	10.055
MS.224         	10.66          	10.033
MS.225         	10.64          	10.033
MS.226         	10.617         	10.026
MS.227         	10.597         	10.018
MS.228         	10.575         	10.026
MS.229         	10.555         	10.041
MS.230         	10.535         	10.031
MS.231         	10.512         	10.018
MS.232         	10.492         	10.024
MS.233         	10.47          	10.008
MS.234         	10.45          	9.984
MS.235         	10.43          	9.998
MS.236         	10.407         	9.98
MS.237         	10.387         	9.946
MS.238         	10.367         	9.958
MS.239         	10.345         	9.972
MS.240         	10.325         	9.942
MS.241         	10.305         	9.93
MS.242         	10.285         	9.946
MS.243         	10.262         	9.902
MS.244         	10.242         	9.968
MS.245         	10.222         	9.877
MS.246         	10.202         	9.871
MS.247         	10.182         	9.849
MS.248         	10.162         	9.857
MS.249         	10.14          	9.914
MS.250         	10.12          	9.859
MS.251         	10.1           	9.867
MS.252         	10.08          	9.873
MS.253         	10.06          	9.847
MS.254         	10.04          	9.622
MS.255         	10.02          	9.849
MS.256         	10             	9.606
MS.257         	9.98           	9.602
MS.258         	9.96           	9.801
MS.259         	9.94           	9.801
MS.260         	9.92           	9.567
MS.261         	9.9            	9.771
MS.262         	9.88           	9.779
MS.263         	9.86           	9.465
MS.264         	9.842          	9.533
MS.265         	9.823          	9.511
MS.266         	9.802          	9.549
MS.267         	9.782          	9.467
MS.268         	9.762          	9.479
MS.269         	9.742          	9.42
MS.270         	9.725          	9.422
MS.271         	9.705          	9.458
MS.272         	9.685          	9.34
MS.273         	9.665          	9.432
MS.274         	9.648          	9.458
MS.275         	9.627          	9.068
MS.276         	9.608          	9.088
MS.277         	9.587          	9.034
MS.278         	9.57           	9.106
MS.279         	9.55           	9.072
MS.280         	9.532          	9.007
MS.281         	9.512          	9.088
MS.282         	9.492          	9.025
MS.283         	9.475          	8.901
MS.284         	9.455          	9.025
MS.285         	9.438          	9.027
MS.286         	9.417          	8.794
MS.287         	9.4            	8.975
MS.288         	9.38           	8.905
MS.289         	9.363          	8.745
MS.290         	9.342          	8.758
MS.291         	9.325          	8.794
MS.292         	9.305          	8.524
MS.293         	9.287          	8.494
MS.294         	9.267          	8.713
MS.295         	9.25           	8.534
MS.296         	9.23           	8.685
MS.297         	9.212          	8.417
MS.298         	9.195          	8.707
MS.299         	9.175          	8.441
MS.300         	9.158          	8.435
MS.301         	9.14           	8.76
MS.302         	9.12           	8.677
MS.303         	9.102          	8.449
MS.304         	9.085          	8.455
MS.305         	9.068          	8.373
MS.306         	9.047          	8.409
MS.307         	9.03           	7.95
MS.308         	9.012          	8.439
MS.309         	8.995          	8.109
MS.310         	8.977          	8.48
MS.311         	8.957          	8.236
MS.312         	8.94           	7.883
MS.313         	8.922          	8.101
MS.314         	8.905          	7.841
MS.315         	8.887          	7.978
MS.316         	8.87           	7.75
MS.317         	8.852          	7.672
MS.318         	8.835          	7.803
MS.319         	8.815          	7.666
MS.320         	8.797          	7.275
MS.321         	8.78           	7.479
MS.322         	8.762          	7.493
MS.323         	8.745          	7.535
MS.324         	8.727          	7.414
MS.325         	8.71           	7.448
MS.326         	8.693          	7.344
MS.327         	8.675          	7.426
MS.328         	8.66           	7.295
MS.329         	8.642          	7.394
MS.330         	8.625          	7.104
MS.331         	8.608          	7.001
MS.332         	8.59           	7.076
MS.333         	8.573          	7.076
MS.334         	8.555          	6.981
MS.335         	8.537          	6.919
MS.336         	8.523          	6.967
MS.337         	8.505          	6.753
MS.338         	8.488          	6.719
MS.339         	8.47           	6.582
MS.340         	8.452          	6.681
MS.341         	8.438          	6.836
MS.342         	8.42           	6.685
MS.343         	8.403          	6.633
MS.344         	8.385          	6.606
MS.345         	8.37           	6.701
MS.346         	8.352          	6.445
MS.347         	8.335          	6.548
MS.348         	8.32           	6.556
MS.349         	8.302          	6.562
MS.350         	8.285          	6.391
MS.351         	8.27           	6.435
MS.352         	8.252          	6.244
MS.353         	8.238          	6.246
MS.354         	8.22           	6.407
MS.355         	8.202          	6.083
MS.356         	8.188          	6.057
MS.357         	8.17           	5.897
MS.358         	8.155          	5.863
MS.359         	8.137          	5.841
MS.360         	8.122          	5.595
MS.361         	8.105          	5.541
MS.362         	8.09           	5.507
MS.363         	8.073          	5.64
MS.364         	8.057          	5.491
MS.365         	8.042          	5.142
MS.366         	8.025          	5.648
MS.367         	8.01           	5.46
MS.368         	7.992          	5.321
MS.369         	7.977          	5.142
MS.370         	7.96           	4.588
MS.371         	7.945          	4.77
MS.372         	7.93           	4.661
MS.373         	7.912          	5.112
MS.374         	7.898          	4.848
MS.375         	7.882          	4.778
MS.376         	7.867          	4.568
MS.377         	7.85           	4.488
MS.378         	7.835          	4.27
MS.379         	7.82           	4.298
MS.380         	7.802          	4.719
MS.381         	7.787          	4.397
MS.382         	7.773          	4.177
MS.383         	7.757          	4.244
MS.384         	7.742          	4.379
MS.385         	7.725          	3.829
MS.386         	7.71           	3.899
MS.387         	7.695          	3.996
MS.388         	7.68           	3.99
MS.389         	7.665          	3.414
MS.390         	7.65           	3.43
MS.391         	7.635          	3.468
MS.392         	7.617          	3.331
MS.393         	7.602          	3.368
MS.394         	7.587          	3.134
MS.395         	7.572          	3.188
MS.396         	7.557          	3.186
MS.397         	7.543          	2.884
MS.398         	7.527          	3.178
MS.399         	7.512          	2.832
MS.400         	7.497          	2.951
MS.401         	7.482          	2.842
MS.402         	7.467          	2.739
MS.403         	7.452          	2.806
MS.404         	7.438          	2.58
MS.405         	7.422          	2.53
MS.406         	7.407          	2.512
MS.407         	7.392          	2.598
MS.408         	7.378          	2.608
MS.409         	7.365          	2.373
MS.410         	7.35           	2.457
MS.411         	7.335          	2.346
MS.412         	7.32           	2.481
MS.413         	7.305          	2.224
MS.414         	7.29           	2.201
MS.415         	7.275          	2.208
MS.416         	7.262          	2.139
MS.417         	7.247          	1.974
MS.418         	7.233          	2.054
MS.419         	7.217          	2.129
MS.420         	7.202          	1.859
MS.421         	7.19           	2.232
MS.422         	7.175          	1.716
MS.423         	7.16           	1.94
MS.424         	7.145          	1.7
MS.425         	7.132          	1.712
MS.426         	7.117          	1.807
MS.427         	7.102          	1.666
MS.428         	7.09           	1.754
MS.429         	7.075          	1.648
MS.430         	7.06           	1.535
MS.431         	7.047          	1.722
MS.432         	7.032          	1.543
MS.433         	7.017          	1.593
MS.434         	7.005          	1.662
MS.435         	6.99           	1.424
MS.436         	6.977          	1.571
MS.437         	6.962          	1.535
MS.438         	6.95           	1.597
MS.439         	6.935          	1.452
MS.440         	6.92           	1.267
MS.441         	6.907          	1.321
MS.442         	6.892          	1.366
MS.443         	6.88           	1.114
MS.444         	6.865          	1.323
MS.445         	6.852          	1.152
MS.446         	6.837          	1.146
MS.447         	6.825          	1.178
MS.448         	6.812          	1.104
MS.449         	6.797          	1.166
MS.450         	6.785          	1.104
MS.451         	6.77           	1.043
MS.452         	6.757          	0.961
MS.453         	6.742          	1.041
MS.454         	6.73           	0.818
MS.455         	6.717          	0.981
MS.456         	6.702          	0.955
MS.457         	6.69           	0.973
MS.458         	6.677          	0.838
MS.459         	6.662          	0.832
MS.460         	6.65           	0.87
MS.461         	6.637          	0.804
MS.462         	6.622          	0.781
MS.463         	6.61           	0.705
MS.464         	6.597          	0.663
MS.465         	6.582          	0.665
MS.466         	6.57           	0.826
MS.467         	6.557          	0.735
MS.468         	6.545          	0.781
MS.469         	6.53           	0.628
MS.470         	6.517          	0.641
MS.471         	6.505          	0.598
MS.472         	6.492          	0.719
MS.473         	6.48           	0.602
MS.474         	6.465          	0.528
MS.475         	6.452          	0.538
MS.476         	6.44           	0.59
MS.477         	6.427          	0.574
MS.478         	6.415          	0.481
MS.479         	6.402          	0.554
MS.480         	6.39           	0.558
MS.481         	6.378          	0.606
MS.482         	6.362          	0.391
MS.483         	6.35           	0.497
MS.484         	6.338          	0.58
MS.485         	6.325          	0.455
MS.486         	6.312          	0.415
MS.487         	6.3            	0.467
MS.488         	6.287          	0.55
MS.489         	6.275          	0.497
MS.490         	6.262          	0.423
MS.491         	6.25           	0.409
MS.492         	6.237          	0.514
MS.493         	6.225          	0.435
MS.494         	6.213          	0.216
