File:              	C:\Qtrac\Data\Daniel M Sørensen\MScan multicentre study\Data from centres\Oslo\Processed data\SZC00618H.QZD
Name:              	NO.OSL.NC.18.2
Protocol:          	MSCAN-R2
Date:              	18/6/20
Start time:        	17:02:24
Age:               	32
Sex:               	F
Temperature:       	34.3
S/R sites:         	ADM
NC/disease:        	NC18
Operator:          	SZ
Comments:          	Test1
M-SCAN DATA (6-2.2m)
Scanpts: 5, 11, 409, 428
Stim. (mA)     	Amp. (mV)
MS.1           	15.5           	13.825
MS.2           	15.5           	13.853
MS.3           	15.5           	13.765
MS.4           	15.5           	13.62
MS.5           	15.5           	13.704
MS.6           	15.5           	13.724
MS.7           	15.5           	13.737
MS.8           	15.5           	13.702
MS.9           	15.5           	13.755
MS.10          	15.5           	13.688
MS.11          	15.5           	13.704
MS.12          	15.5           	13.741
MS.13          	15.5           	13.763
MS.14          	15.5           	13.761
MS.15          	15.5           	13.785
MS.16          	15.5           	13.773
MS.17          	15.5           	13.668
MS.18          	15.5           	13.596
MS.19          	15.5           	13.61
MS.20          	15.5           	13.575
MS.21          	15.5           	13.71
MS.22          	15.5           	13.72
MS.23          	15.5           	13.71
MS.24          	15.438         	13.678
MS.25          	15.407         	13.606
MS.26          	15.377         	13.608
MS.27          	15.345         	13.571
MS.28          	15.315         	13.523
MS.29          	15.285         	13.646
MS.30          	15.255         	13.515
MS.31          	15.222         	13.551
MS.32          	15.193         	13.537
MS.33          	15.162         	13.507
MS.34          	15.132         	13.608
MS.35          	15.102         	13.557
MS.36          	15.072         	13.541
MS.37          	15.042         	13.443
MS.38          	15.012         	13.533
MS.39          	14.983         	13.499
MS.40          	14.952         	13.515
MS.41          	14.922         	13.531
MS.42          	14.892         	13.632
MS.43          	14.862         	13.557
MS.44          	14.832         	13.432
MS.45          	14.802         	13.485
MS.46          	14.773         	13.575
MS.47          	14.745         	13.499
MS.48          	14.715         	13.424
MS.49          	14.685         	13.302
MS.50          	14.655         	13.588
MS.51          	14.627         	13.573
MS.52          	14.597         	13.569
MS.53          	14.568         	13.577
MS.54          	14.54          	13.569
MS.55          	14.51          	13.41
MS.56          	14.48          	13.461
MS.57          	14.452         	13.449
MS.58          	14.422         	13.531
MS.59          	14.395         	13.541
MS.60          	14.365         	13.513
MS.61          	14.337         	13.583
MS.62          	14.307         	13.529
MS.63          	14.28          	13.551
MS.64          	14.25          	13.571
MS.65          	14.222         	13.549
MS.66          	14.195         	13.39
MS.67          	14.165         	13.372
MS.68          	14.137         	13.154
MS.69          	14.11          	13.173
MS.70          	14.08          	13.201
MS.71          	14.052         	13.173
MS.72          	14.025         	13.352
MS.73          	13.997         	13.328
MS.74          	13.97          	13.281
MS.75          	13.94          	13.285
MS.76          	13.912         	13.394
MS.77          	13.885         	13.324
MS.78          	13.858         	13.322
MS.79          	13.83          	13.306
MS.80          	13.802         	13.187
MS.81          	13.775         	13.251
MS.82          	13.747         	13.167
MS.83          	13.72          	13.088
MS.84          	13.693         	13.211
MS.85          	13.665         	13.068
MS.86          	13.637         	12.949
MS.87          	13.61          	13.048
MS.88          	13.582         	13.06
MS.89          	13.555         	13.001
MS.90          	13.53          	12.989
MS.91          	13.502         	12.951
MS.92          	13.475         	12.981
MS.93          	13.447         	13.011
MS.94          	13.42          	12.981
MS.95          	13.395         	12.808
MS.96          	13.367         	12.844
MS.97          	13.34          	12.808
MS.98          	13.315         	12.838
MS.99          	13.287         	12.856
MS.100         	13.26          	12.953
MS.101         	13.235         	12.79
MS.102         	13.207         	12.913
MS.103         	13.182         	12.788
MS.104         	13.155         	12.802
MS.105         	13.13          	12.83
MS.106         	13.102         	12.613
MS.107         	13.077         	12.701
MS.108         	13.05          	12.663
MS.109         	13.025         	12.661
MS.110         	12.997         	12.582
MS.111         	12.972         	12.631
MS.112         	12.947         	12.46
MS.113         	12.92          	12.58
MS.114         	12.895         	12.508
MS.115         	12.87          	12.613
MS.116         	12.842         	12.472
MS.117         	12.818         	12.528
MS.118         	12.792         	12.413
MS.119         	12.767         	12.445
MS.120         	12.74          	12.433
MS.121         	12.715         	12.139
MS.122         	12.69          	12.298
MS.123         	12.665         	12.28
MS.124         	12.64          	12.325
MS.125         	12.615         	12.498
MS.126         	12.59          	12.393
MS.127         	12.565         	12.232
MS.128         	12.54          	12.311
MS.129         	12.515         	12.423
MS.130         	12.49          	12.274
MS.131         	12.465         	12.131
MS.132         	12.44          	12.115
MS.133         	12.415         	12.107
MS.134         	12.39          	12.186
MS.135         	12.365         	11.976
MS.136         	12.34          	11.835
MS.137         	12.315         	11.922
MS.138         	12.29          	11.986
MS.139         	12.265         	12.041
MS.140         	12.242         	11.64
MS.141         	12.217         	11.922
MS.142         	12.193         	11.781
MS.143         	12.167         	11.66
MS.144         	12.145         	11.672
MS.145         	12.12          	11.819
MS.146         	12.095         	11.682
MS.147         	12.072         	11.581
MS.148         	12.047         	11.737
MS.149         	12.023         	11.871
MS.150         	12             	11.575
MS.151         	11.975         	11.672
MS.152         	11.95          	11.579
MS.153         	11.927         	11.434
MS.154         	11.903         	11.366
MS.155         	11.88          	11.495
MS.156         	11.855         	11.336
MS.157         	11.832         	11.243
MS.158         	11.807         	11.007
MS.159         	11.785         	11.046
MS.160         	11.762         	11.116
MS.161         	11.738         	10.937
MS.162         	11.715         	10.87
MS.163         	11.69          	11.038
MS.164         	11.667         	10.76
MS.165         	11.645         	10.915
MS.166         	11.622         	10.85
MS.167         	11.597         	10.923
MS.168         	11.575         	10.868
MS.169         	11.552         	10.617
MS.170         	11.528         	10.657
MS.171         	11.505         	10.641
MS.172         	11.483         	10.645
MS.173         	11.46          	10.423
MS.174         	11.438         	10.282
MS.175         	11.415         	10.274
MS.176         	11.39          	10.296
MS.177         	11.367         	10.302
MS.178         	11.345         	10.153
MS.179         	11.322         	10.093
MS.180         	11.3           	10.178
MS.181         	11.278         	10.115
MS.182         	11.255         	10.093
MS.183         	11.233         	9.994
MS.184         	11.21          	9.867
MS.185         	11.188         	9.72
MS.186         	11.165         	9.612
MS.187         	11.142         	9.604
MS.188         	11.12          	9.577
MS.189         	11.1           	9.485
MS.190         	11.077         	9.515
MS.191         	11.055         	9.164
MS.192         	11.032         	8.919
MS.193         	11.01          	8.721
MS.194         	10.988         	9.072
MS.195         	10.967         	9.102
MS.196         	10.945         	8.508
MS.197         	10.922         	8.909
MS.198         	10.9           	8.478
MS.199         	10.88          	8.409
MS.200         	10.858         	8.536
MS.201         	10.835         	8.353
MS.202         	10.815         	8.177
MS.203         	10.792         	8.184
MS.204         	10.77          	8.063
MS.205         	10.75          	7.97
MS.206         	10.727         	7.549
MS.207         	10.707         	7.771
MS.208         	10.685         	7.567
MS.209         	10.662         	7.45
MS.210         	10.642         	7.189
MS.211         	10.62          	7.326
MS.212         	10.6           	7.517
MS.213         	10.577         	7.285
MS.214         	10.557         	7.229
MS.215         	10.537         	6.999
MS.216         	10.515         	7.132
MS.217         	10.495         	6.925
MS.218         	10.472         	7.142
MS.219         	10.452         	7.176
MS.220         	10.432         	6.727
MS.221         	10.41          	6.814
MS.222         	10.39          	6.941
MS.223         	10.37          	6.766
MS.224         	10.347         	6.82
MS.225         	10.327         	6.625
MS.226         	10.307         	6.83
MS.227         	10.287         	6.665
MS.228         	10.265         	6.361
MS.229         	10.245         	6.679
MS.230         	10.225         	6.137
MS.231         	10.205         	6.296
MS.232         	10.185         	6.111
MS.233         	10.165         	6.218
MS.234         	10.142         	5.974
MS.235         	10.122         	6.369
MS.236         	10.102         	5.561
MS.237         	10.082         	5.934
MS.238         	10.062         	5.829
MS.239         	10.042         	5.664
MS.240         	10.023         	5.585
MS.241         	10.002         	5.799
MS.242         	9.983          	5.138
MS.243         	9.962          	5.34
MS.244         	9.943          	4.878
MS.245         	9.922          	4.637
MS.246         	9.903          	4.911
MS.247         	9.882          	4.701
MS.248         	9.863          	5.178
MS.249         	9.842          	4.852
MS.250         	9.825          	4.492
MS.251         	9.805          	4.393
MS.252         	9.785          	4.526
MS.253         	9.765          	4.633
MS.254         	9.745          	4.306
MS.255         	9.727          	4.526
MS.256         	9.707          	4.397
MS.257         	9.688          	4.308
MS.258         	9.667          	3.851
MS.259         	9.65           	3.911
MS.260         	9.63           	3.752
MS.261         	9.61           	3.839
MS.262         	9.59           	3.644
MS.263         	9.573          	3.67
MS.264         	9.552          	3.603
MS.265         	9.532          	3.432
MS.266         	9.515          	3.398
MS.267         	9.495          	3.341
MS.268         	9.477          	3.442
MS.269         	9.457          	3.388
MS.270         	9.44           	3.152
MS.271         	9.42           	3.158
MS.272         	9.4            	3.317
MS.273         	9.382          	3.06
MS.274         	9.363          	3.025
MS.275         	9.345          	2.949
MS.276         	9.327          	2.931
MS.277         	9.307          	3.114
MS.278         	9.29           	3.092
MS.279         	9.27           	2.89
MS.280         	9.252          	2.78
MS.281         	9.233          	2.917
MS.282         	9.215          	2.614
MS.283         	9.198          	2.844
MS.284         	9.177          	2.677
MS.285         	9.16           	2.564
MS.286         	9.142          	2.584
MS.287         	9.122          	2.133
MS.288         	9.105          	2.357
MS.289         	9.087          	2.101
MS.290         	9.07           	2.079
MS.291         	9.05           	2.292
MS.292         	9.033          	2.342
MS.293         	9.015          	1.93
MS.294         	8.997          	2.125
MS.295         	8.977          	1.841
MS.296         	8.96           	1.887
MS.297         	8.943          	1.94
MS.298         	8.925          	1.907
MS.299         	8.908          	1.917
MS.300         	8.89           	1.706
MS.301         	8.872          	1.539
MS.302         	8.852          	1.652
MS.303         	8.835          	1.712
MS.304         	8.818          	1.442
MS.305         	8.8            	1.118
MS.306         	8.783          	1.418
MS.307         	8.765          	1.215
MS.308         	8.747          	1.329
MS.309         	8.73           	1.215
MS.310         	8.712          	1.104
MS.311         	8.695          	1.243
MS.312         	8.677          	1.231
MS.313         	8.66           	1.229
MS.314         	8.642          	1.092
MS.315         	8.627          	0.951
MS.316         	8.61           	1.241
MS.317         	8.592          	1.1
MS.318         	8.575          	1.086
MS.319         	8.557          	0.661
MS.320         	8.54           	0.775
MS.321         	8.523          	1.025
MS.322         	8.507          	0.733
MS.323         	8.49           	0.957
MS.324         	8.472          	0.63
MS.325         	8.455          	0.739
MS.326         	8.44           	0.647
MS.327         	8.422          	0.775
MS.328         	8.405          	0.578
MS.329         	8.387          	0.55
MS.330         	8.372          	0.687
MS.331         	8.355          	0.548
MS.332         	8.337          	0.33
MS.333         	8.323          	0.588
MS.334         	8.305          	0.612
MS.335         	8.287          	0.294
MS.336         	8.273          	0.387
MS.337         	8.255          	0.316
MS.338         	8.238          	0.296
MS.339         	8.222          	0.491
MS.340         	8.205          	0.506
MS.341         	8.19           	0.344
MS.342         	8.172          	0.304
MS.343         	8.158          	0.443
MS.344         	8.14           	0.471
MS.345         	8.125          	0.288
MS.346         	8.108          	0.218
MS.347         	8.092          	0.23
MS.348         	8.075          	0.238
MS.349         	8.06           	0.173
MS.350         	8.042          	0.211
MS.351         	8.028          	0.183
MS.352         	8.01           	0.173
MS.353         	7.995          	0.201
MS.354         	7.98           	0.161
MS.355         	7.962          	0.161
MS.356         	7.947          	0.171
MS.357         	7.932          	0.163
MS.358         	7.915          	0.103
MS.359         	7.9            	0.216
MS.360         	7.885          	0.119
MS.361         	7.867          	0.097
MS.362         	7.852          	0.107
MS.363         	7.837          	0.145
MS.364         	7.82           	0.125
MS.365         	7.805          	0.125
MS.366         	7.79           	0.133
MS.367         	7.775          	0.113
MS.368         	7.76           	0.109
MS.369         	7.742          	0.149
MS.370         	7.727          	0.093
MS.371         	7.712          	0.119
MS.372         	7.697          	0.117
MS.373         	7.682          	0.157
MS.374         	7.668          	0.091
MS.375         	7.65           	0.083
MS.376         	7.635          	0.091
MS.377         	7.62           	0.115
MS.378         	7.605          	0.081
MS.379         	7.59           	0.083
MS.380         	7.575          	0.093
MS.381         	7.56           	0.107
MS.382         	7.545          	0.085
MS.383         	7.53           	0.095
MS.384         	7.515          	0.089
MS.385         	7.5            	0.133
MS.386         	7.485          	0.105
MS.387         	7.47           	0.093
MS.388         	7.455          	0.133
MS.389         	7.44           	0.093
MS.390         	7.425          	0.109
MS.391         	7.41           	0.038
MS.392         	7.395          	0.038
MS.393         	7.38           	0.091
MS.394         	7.365          	0.083
MS.395         	7.35           	0.093
MS.396         	7.337          	0.04
MS.397         	7.322          	0.095
MS.398         	7.307          	0.095
MS.399         	7.293          	0.089
MS.400         	7.277          	0.091
MS.401         	7.262          	0.042
MS.402         	7.25           	0.042
MS.403         	7.235          	0.04
MS.404         	7.22           	0.042
MS.405         	7.205          	0.046
MS.406         	7.19           	0.042
MS.407         	7.177          	0.091
MS.408         	7.162          	0.04
MS.409         	7.148          	0.042
MS.410         	7.132          	0.044
MS.411         	7.12           	0.044
MS.412         	7.105          	0.044
MS.413         	7.09           	0.044
MS.414         	7.077          	0.046
MS.415         	7.062          	0.044
MS.416         	7.047          	0.044
MS.417         	7.035          	0.046
MS.418         	7.02           	0.044
MS.419         	7.007          	0.046
MS.420         	6.992          	0.046
MS.421         	6.977          	0.044
MS.422         	6.965          	0.052
MS.423         	6.95           	0.048
MS.424         	6.938          	0.046
MS.425         	6.922          	0.042
MS.426         	6.91           	0.05
MS.427         	6.895          	0.044
MS.428         	6.882          	0.048
DERIVED EXCITABILITY VARIABLES
Program = QTracP 3/4/2020
Threshold method = 6 (optimised for CAP, using data for present condition only)
SR method = 1 (using actual data values)
6.                 	0.000               	Peak response\(mV)
9.                 	34.3                	Temperature ( C)
17.                	32                  	Age (years)
18.                	2                   	Sex (M=1, F=2)

EXTRA VARIABLES

MScPeak(mV) = 13.67
MScS5(mA) = 8.45
MScS50(mA) = 10.41
MScS95(mA) = 13.54
MScNSteps = 2
MScSteps(%) = 5.2
MScStepMax(%) = 2.9
MScD50 = 47
MScSlope = 5.57
MSFPeakAmp(mV) = 13.7
MSFNUnits = 183
MSFMeanUnitAmp(uV) = 74.7
MSFHuntTime(m) = 3.02
MSFError(%) = 3.55
MSFNLarge = 59.55
MSFMedianAmp(%) = 0.484
MSFMedianAmp(mV) = 0.0661
MSFHalfAmpAmp(%) = 0.539
MSFHalfAmpAmp(mV) = 0.0737
MSFLargestAmp(%) = 2.6
MSFLargestAmp(mV) = 0.355
MSFMeanRS(%) = 2
MSFOpts = 10106121
MScDuration(min) = 3.8
MSFTraces = 424
MSFSizeLimit(uV) = 34.2
MSFLimitType = 1
MSFSmallestAmp(uV) = 34.4

EXTRA WAVEFORMS


!MScan Model
!183
	1	7.39	0.36	2
	2	7.86	0.31	2
	3	8.02	0.56	2
	4	8.09	0.39	2
	5	8.24	1.02	2
	6	8.31	0.82	2
	7	8.39	0.71	2
	8	8.44	0.67	2
	9	8.48	0.75	2
	10	8.53	0.49	2
	11	8.58	0.85	2
	12	8.65	0.85	2
	13	8.72	1.16	2
	14	8.75	0.42	2
	15	8.77	0.39	2
	16	8.79	0.51	2
	17	8.81	0.42	2
	18	8.83	0.51	2
	19	8.87	0.51	2
	20	8.89	0.51	2
	21	8.91	0.48	2
	22	8.95	0.91	2
	23	8.98	0.65	2
	24	9.01	0.43	2
	25	9.03	0.53	2
	26	9.05	0.78	2
	27	9.08	0.47	2
	28	9.1	0.55	2
	29	9.12	0.45	2
	30	9.15	0.5	2
	31	9.17	0.61	2
	32	9.2	0.69	2
	33	9.22	0.45	2
	34	9.25	0.54	2
	35	9.28	0.58	2
	36	9.31	0.77	2
	37	9.35	0.57	2
	38	9.37	0.31	2
	39	9.39	0.32	2
	40	9.41	0.45	2
	41	9.43	0.42	2
	42	9.45	0.31	2
	43	9.48	0.54	2
	44	9.49	0.25	2
	45	9.51	0.33	2
	46	9.52	0.35	2
	47	9.53	0.34	2
	48	9.55	0.33	2
	49	9.56	0.35	2
	50	9.57	0.38	2
	51	9.6	0.55	2
	52	9.61	0.36	2
	53	9.62	0.39	2
	54	9.64	0.39	2
	55	9.65	0.39	2
	56	9.67	0.58	2
	57	9.69	0.67	2
	58	9.71	0.45	2
	59	9.73	0.65	2
	60	9.8	2.6	2
	61	9.86	1.04	2
	62	9.89	0.89	2
	63	9.92	1	2
	64	9.95	0.9	2
	65	9.98	0.89	2
	66	10	0.94	2
	67	10.03	0.93	2
	68	10.06	0.98	2
	69	10.09	1.12	2
	70	10.12	0.92	2
	71	10.15	0.89	2
	72	10.18	0.86	2
	73	10.21	0.66	2
	74	10.24	0.82	2
	75	10.27	0.71	2
	76	10.3	0.72	2
	77	10.33	0.47	2
	78	10.36	0.62	2
	79	10.4	0.74	2
	80	10.43	0.59	2
	81	10.48	1.12	2
	82	10.53	0.38	2
	83	10.53	0.25	2
	84	10.57	0.67	2
	85	10.6	0.46	2
	86	10.62	0.57	2
	87	10.63	0.35	2
	88	10.64	0.35	2
	89	10.65	0.35	2
	90	10.67	0.36	2
	91	10.68	0.4	2
	92	10.69	0.45	2
	93	10.71	0.49	2
