File:              	C:\Qtrac\Data\Daniel M Sørensen\MScan multicentre study\Data from centres\Oslo\IronKey\Oslo_NC_first examination\SZC00618B.QZD
Name:              	NO.OSL.NC.19.1
Protocol:          	MSCAN-R2
Date:              	18/6/20
Start time:        	10:00:27
Age:               	39
Sex:               	M
Temperature:       	35.5
S/R sites:         	Ulnar Wr-ADM
NC/disease:        	NC19
Operator:          	SZ
Comments:          	Test1
M-SCAN DATA (7.1-2m)
Scanpts: 13, 22, 532, 553
Stim. (mA)     	Amp. (mV)
MS.1           	19.5           	11.712
MS.2           	19.5           	11.72
MS.3           	19.5           	11.743
MS.4           	19.5           	11.761
MS.5           	19.5           	11.793
MS.6           	19.5           	11.781
MS.7           	19.5           	11.747
MS.8           	19.5           	11.739
MS.9           	19.5           	11.684
MS.10          	19.5           	11.726
MS.11          	19.5           	11.698
MS.12          	19.5           	11.724
MS.13          	19.5           	11.747
MS.14          	19.5           	11.726
MS.15          	19.5           	11.71
MS.16          	19.5           	11.706
MS.17          	19.5           	11.712
MS.18          	19.5           	11.728
MS.19          	19.5           	11.712
MS.20          	19.5           	11.712
MS.21          	19.5           	11.726
MS.22          	19.5           	11.692
MS.23          	19.5           	11.71
MS.24          	19.382         	11.704
MS.25          	19.345         	11.724
MS.26          	19.305         	11.674
MS.27          	19.267         	11.724
MS.28          	19.23          	11.64
MS.29          	19.19          	11.686
MS.30          	19.153         	11.648
MS.31          	19.115         	11.632
MS.32          	19.075         	11.692
MS.33          	19.038         	11.65
MS.34          	19             	11.656
MS.35          	18.962         	11.658
MS.36          	18.922         	11.65
MS.37          	18.885         	11.68
MS.38          	18.847         	11.614
MS.39          	18.81          	11.638
MS.40          	18.772         	11.656
MS.41          	18.735         	11.638
MS.42          	18.698         	11.664
MS.43          	18.66          	11.626
MS.44          	18.622         	11.575
MS.45          	18.585         	11.628
MS.46          	18.55          	11.618
MS.47          	18.512         	11.64
MS.48          	18.475         	11.62
MS.49          	18.438         	11.61
MS.50          	18.4           	11.624
MS.51          	18.365         	11.608
MS.52          	18.327         	11.634
MS.53          	18.29          	11.616
MS.54          	18.255         	11.616
MS.55          	18.217         	11.587
MS.56          	18.182         	11.638
MS.57          	18.145         	11.616
MS.58          	18.11          	11.606
MS.59          	18.073         	11.624
MS.60          	18.038         	11.624
MS.61          	18             	11.628
MS.62          	17.965         	11.6
MS.63          	17.93          	11.589
MS.64          	17.892         	11.602
MS.65          	17.858         	11.624
MS.66          	17.823         	11.585
MS.67          	17.785         	11.587
MS.68          	17.75          	11.585
MS.69          	17.715         	11.596
MS.70          	17.68          	11.608
MS.71          	17.645         	11.569
MS.72          	17.61          	11.537
MS.73          	17.575         	11.581
MS.74          	17.538         	11.589
MS.75          	17.503         	11.596
MS.76          	17.467         	11.62
MS.77          	17.435         	11.594
MS.78          	17.4           	11.581
MS.79          	17.365         	11.622
MS.80          	17.33          	11.594
MS.81          	17.295         	11.575
MS.82          	17.26          	11.581
MS.83          	17.225         	11.559
MS.84          	17.192         	11.622
MS.85          	17.157         	11.614
MS.86          	17.122         	11.618
MS.87          	17.087         	11.587
MS.88          	17.055         	11.596
MS.89          	17.02          	11.626
MS.90          	16.987         	11.606
MS.91          	16.952         	11.602
MS.92          	16.917         	11.596
MS.93          	16.885         	11.587
MS.94          	16.85          	11.638
MS.95          	16.817         	11.598
MS.96          	16.782         	11.549
MS.97          	16.75          	11.567
MS.98          	16.717         	11.567
MS.99          	16.682         	11.602
MS.100         	16.65          	11.501
MS.101         	16.618         	11.533
MS.102         	16.583         	11.501
MS.103         	16.55          	11.545
MS.104         	16.517         	11.507
MS.105         	16.485         	11.493
MS.106         	16.452         	11.487
MS.107         	16.417         	11.481
MS.108         	16.385         	11.469
MS.109         	16.352         	11.459
MS.110         	16.32          	11.428
MS.111         	16.288         	11.43
MS.112         	16.255         	11.448
MS.113         	16.222         	11.432
MS.114         	16.19          	11.346
MS.115         	16.157         	11.328
MS.116         	16.125         	11.394
MS.117         	16.092         	11.4
MS.118         	16.062         	11.348
MS.119         	16.03          	11.39
MS.120         	15.997         	11.412
MS.121         	15.965         	11.42
MS.122         	15.932         	11.307
MS.123         	15.902         	11.307
MS.124         	15.87          	11.32
MS.125         	15.837         	11.301
MS.126         	15.807         	11.227
MS.127         	15.775         	11.207
MS.128         	15.742         	11.183
MS.129         	15.712         	11.209
MS.130         	15.68          	11.279
MS.131         	15.65          	11.217
MS.132         	15.617         	11.169
MS.133         	15.587         	11.301
MS.134         	15.555         	11.094
MS.135         	15.525         	10.983
MS.136         	15.492         	11.154
MS.137         	15.462         	11.021
MS.138         	15.432         	10.945
MS.139         	15.4           	10.774
MS.140         	15.37          	11.094
MS.141         	15.34          	10.848
MS.142         	15.307         	10.905
MS.143         	15.277         	10.931
MS.144         	15.247         	11.062
MS.145         	15.217         	10.838
MS.146         	15.188         	10.846
MS.147         	15.155         	11.013
MS.148         	15.125         	10.594
MS.149         	15.095         	10.756
MS.150         	15.065         	10.856
MS.151         	15.035         	10.645
MS.152         	15.005         	10.768
MS.153         	14.975         	10.735
MS.154         	14.945         	10.528
MS.155         	14.915         	10.56
MS.156         	14.885         	10.609
MS.157         	14.855         	10.341
MS.158         	14.827         	10.169
MS.159         	14.797         	10.542
MS.160         	14.767         	10.288
MS.161         	14.737         	10.155
MS.162         	14.707         	10.26
MS.163         	14.68          	9.984
MS.164         	14.65          	10.071
MS.165         	14.62          	10.137
MS.166         	14.59          	10.216
MS.167         	14.562         	10
MS.168         	14.532         	9.855
MS.169         	14.505         	9.9
MS.170         	14.475         	9.904
MS.171         	14.445         	9.837
MS.172         	14.417         	9.912
MS.173         	14.387         	9.587
MS.174         	14.36          	9.642
MS.175         	14.33          	9.863
MS.176         	14.302         	9.565
MS.177         	14.273         	9.634
MS.178         	14.245         	9.732
MS.179         	14.217         	9.591
MS.180         	14.188         	9.43
MS.181         	14.16          	9.442
MS.182         	14.132         	9.44
MS.183         	14.102         	9.374
MS.184         	14.075         	9.263
MS.185         	14.047         	9.454
MS.186         	14.02          	9.313
MS.187         	13.99          	9.134
MS.188         	13.962         	9.229
MS.189         	13.935         	9.392
MS.190         	13.907         	9.211
MS.191         	13.88          	9.08
MS.192         	13.852         	8.639
MS.193         	13.825         	9.164
MS.194         	13.797         	9.06
MS.195         	13.77          	9.114
MS.196         	13.742         	9.11
MS.197         	13.715         	8.84
MS.198         	13.688         	8.389
MS.199         	13.66          	8.822
MS.200         	13.632         	8.816
MS.201         	13.605         	8.647
MS.202         	13.577         	8.59
MS.203         	13.55          	8.411
MS.204         	13.523         	8.607
MS.205         	13.495         	8.81
MS.206         	13.47          	8.516
MS.207         	13.443         	8.47
MS.208         	13.415         	8.286
MS.209         	13.387         	8.443
MS.210         	13.362         	8.314
MS.211         	13.335         	8.288
MS.212         	13.307         	8.218
MS.213         	13.282         	8.043
MS.214         	13.255         	8.135
MS.215         	13.23          	8.228
MS.216         	13.202         	8.091
MS.217         	13.175         	8.083
MS.218         	13.15          	8.079
MS.219         	13.122         	8.041
MS.220         	13.097         	7.908
MS.221         	13.07          	7.908
MS.222         	13.045         	7.682
MS.223         	13.02          	8.069
MS.224         	12.992         	7.9
MS.225         	12.967         	7.718
MS.226         	12.94          	7.581
MS.227         	12.915         	7.495
MS.228         	12.89          	7.557
MS.229         	12.862         	7.609
MS.230         	12.837         	7.845
MS.231         	12.812         	7.753
MS.232         	12.787         	7.277
MS.233         	12.76          	7.495
MS.234         	12.735         	7.525
MS.235         	12.71          	7.237
MS.236         	12.685         	7.257
MS.237         	12.66          	7.205
MS.238         	12.635         	7.156
MS.239         	12.61          	7.16
MS.240         	12.585         	7.158
MS.241         	12.557         	7.195
MS.242         	12.532         	7.164
MS.243         	12.507         	7.229
MS.244         	12.483         	6.937
MS.245         	12.457         	7.172
MS.246         	12.432         	6.997
MS.247         	12.41          	7.241
MS.248         	12.385         	7.172
MS.249         	12.36          	7.098
MS.250         	12.335         	7.126
MS.251         	12.31          	6.838
MS.252         	12.285         	6.941
MS.253         	12.26          	6.872
MS.254         	12.238         	6.872
MS.255         	12.212         	6.796
MS.256         	12.188         	6.755
MS.257         	12.162         	6.693
MS.258         	12.14          	6.874
MS.259         	12.115         	6.896
MS.260         	12.09          	6.826
MS.261         	12.065         	6.957
MS.262         	12.042         	6.856
MS.263         	12.017         	6.933
MS.264         	11.995         	6.921
MS.265         	11.97          	6.758
MS.266         	11.945         	6.774
MS.267         	11.922         	6.76
MS.268         	11.898         	6.584
MS.269         	11.875         	6.355
MS.270         	11.85          	6.433
MS.271         	11.827         	6.54
MS.272         	11.802         	6.389
MS.273         	11.78          	6.484
MS.274         	11.757         	6.272
MS.275         	11.733         	6.335
MS.276         	11.71          	6.258
MS.277         	11.685         	6.298
MS.278         	11.662         	6.057
MS.279         	11.64          	6.131
MS.280         	11.617         	6.169
MS.281         	11.592         	6.208
MS.282         	11.57          	5.972
MS.283         	11.547         	6.055
MS.284         	11.525         	5.853
MS.285         	11.5           	5.867
MS.286         	11.477         	5.652
MS.287         	11.455         	5.998
MS.288         	11.432         	5.767
MS.289         	11.41          	5.827
MS.290         	11.387         	5.992
MS.291         	11.363         	5.787
MS.292         	11.34          	5.537
MS.293         	11.318         	5.128
MS.294         	11.295         	5.678
MS.295         	11.273         	5.052
MS.296         	11.25          	5.487
MS.297         	11.227         	5.049
MS.298         	11.205         	4.812
MS.299         	11.182         	5.384
MS.300         	11.16          	4.822
MS.301         	11.137         	4.808
MS.302         	11.117         	4.657
MS.303         	11.095         	4.625
MS.304         	11.073         	4.818
MS.305         	11.05          	4.661
MS.306         	11.028         	4.709
MS.307         	11.005         	4.735
MS.308         	10.983         	4.429
MS.309         	10.962         	4.681
MS.310         	10.94          	4.504
MS.311         	10.917         	4.578
MS.312         	10.895         	4.195
MS.313         	10.875         	4.355
MS.314         	10.852         	4.322
MS.315         	10.83          	4.345
MS.316         	10.81          	4.183
MS.317         	10.787         	3.764
MS.318         	10.765         	3.706
MS.319         	10.745         	4.181
MS.320         	10.722         	3.875
MS.321         	10.702         	3.686
MS.322         	10.68          	3.893
MS.323         	10.66          	3.928
MS.324         	10.637         	3.567
MS.325         	10.617         	3.847
MS.326         	10.595         	3.545
MS.327         	10.575         	3.887
MS.328         	10.552         	3.74
MS.329         	10.532         	3.331
MS.330         	10.51          	3.573
MS.331         	10.49          	3.47
MS.332         	10.47          	3.416
MS.333         	10.448         	3.295
MS.334         	10.427         	3.219
MS.335         	10.407         	3.291
MS.336         	10.385         	3.017
MS.337         	10.365         	3.192
MS.338         	10.345         	3.035
MS.339         	10.323         	3.251
MS.340         	10.302         	3.209
MS.341         	10.282         	2.933
MS.342         	10.262         	3.021
MS.343         	10.24          	2.808
MS.344         	10.22          	2.733
MS.345         	10.2           	2.842
MS.346         	10.18          	2.763
MS.347         	10.16          	2.852
MS.348         	10.14          	2.778
MS.349         	10.12          	2.814
MS.350         	10.097         	1.952
MS.351         	10.077         	1.99
MS.352         	10.057         	2.58
MS.353         	10.037         	2.838
MS.354         	10.017         	2.479
MS.355         	9.997          	2.185
MS.356         	9.977          	2.624
MS.357         	9.957          	2.522
MS.358         	9.938          	2.5
MS.359         	9.917          	2.467
MS.360         	9.9            	2.475
MS.361         	9.88           	2.359
MS.362         	9.86           	2.387
MS.363         	9.84           	2.314
MS.364         	9.82           	2.445
MS.365         	9.8            	2.252
MS.366         	9.78           	1.648
MS.367         	9.76           	1.662
MS.368         	9.742          	1.648
MS.369         	9.722          	1.577
MS.370         	9.702          	1.654
MS.371         	9.682          	1.656
MS.372         	9.665          	1.71
MS.373         	9.645          	1.44
MS.374         	9.625          	1.41
MS.375         	9.605          	1.43
MS.376         	9.587          	1.513
MS.377         	9.568          	1.347
MS.378         	9.55           	1.374
MS.379         	9.53           	1.557
MS.380         	9.51           	1.279
MS.381         	9.492          	1.084
MS.382         	9.472          	1.227
MS.383         	9.452          	1.428
MS.384         	9.435          	0.886
MS.385         	9.415          	1.158
MS.386         	9.398          	0.775
MS.387         	9.377          	1.037
MS.388         	9.36           	0.8
MS.389         	9.34           	0.981
MS.390         	9.323          	0.733
MS.391         	9.302          	0.777
MS.392         	9.285          	0.922
MS.393         	9.267          	0.725
MS.394         	9.247          	0.592
MS.395         	9.23           	0.598
MS.396         	9.21           	0.594
MS.397         	9.193          	0.612
MS.398         	9.175          	0.655
MS.399         	9.155          	0.487
MS.400         	9.137          	0.578
MS.401         	9.12           	0.58
MS.402         	9.1            	0.663
MS.403         	9.082          	0.667
MS.404         	9.065          	0.759
MS.405         	9.047          	0.433
MS.406         	9.028          	0.508
MS.407         	9.01           	0.487
MS.408         	8.992          	0.5
MS.409         	8.975          	0.467
MS.410         	8.957          	0.447
MS.411         	8.94           	0.508
MS.412         	8.92           	0.429
MS.413         	8.903          	0.479
MS.414         	8.885          	0.481
MS.415         	8.867          	0.419
MS.416         	8.85           	0.449
MS.417         	8.832          	0.423
MS.418         	8.815          	0.405
MS.419         	8.797          	0.463
MS.420         	8.78           	0.348
MS.421         	8.762          	0.342
MS.422         	8.745          	0.294
MS.423         	8.727          	0.332
MS.424         	8.71           	0.399
MS.425         	8.693          	0.421
MS.426         	8.675          	0.34
MS.427         	8.658          	0.334
MS.428         	8.64           	0.405
MS.429         	8.622          	0.31
MS.430         	8.605          	0.361
MS.431         	8.587          	0.266
MS.432         	8.57           	0.322
MS.433         	8.555          	0.236
MS.434         	8.537          	0.216
MS.435         	8.52           	0.205
MS.436         	8.502          	0.278
MS.437         	8.485          	0.248
MS.438         	8.47           	0.24
MS.439         	8.452          	0.278
MS.440         	8.435          	0.308
MS.441         	8.417          	0.181
MS.442         	8.403          	0.242
MS.443         	8.385          	0.197
MS.444         	8.367          	0.177
MS.445         	8.35           	0.179
MS.446         	8.335          	0.165
MS.447         	8.318          	0.25
MS.448         	8.302          	0.22
MS.449         	8.285          	0.155
MS.450         	8.267          	0.177
MS.451         	8.252          	0.173
MS.452         	8.235          	0.054
MS.453         	8.217          	0.175
MS.454         	8.202          	0.151
MS.455         	8.185          	0.161
MS.456         	8.17           	0.151
MS.457         	8.153          	0.175
MS.458         	8.137          	0.175
MS.459         	8.12           	0.173
MS.460         	8.105          	0.159
MS.461         	8.087          	0.149
MS.462         	8.073          	0.175
MS.463         	8.055          	0.034
MS.464         	8.04           	0.153
MS.465         	8.025          	0.173
MS.466         	8.007          	0.157
MS.467         	7.992          	0.157
MS.468         	7.975          	0.173
MS.469         	7.96           	0.155
MS.470         	7.945          	0.153
MS.471         	7.927          	0.163
MS.472         	7.912          	0.155
MS.473         	7.898          	0.036
MS.474         	7.88           	0.048
MS.475         	7.865          	0.042
MS.476         	7.85           	0.163
MS.477         	7.832          	0.046
MS.478         	7.817          	0.046
MS.479         	7.802          	0.038
MS.480         	7.787          	0.036
MS.481         	7.77           	0.032
MS.482         	7.755          	0.04
MS.483         	7.74           	0.026
MS.484         	7.725          	0.034
MS.485         	7.71           	0.048
MS.486         	7.695          	0.038
MS.487         	7.677          	0.04
MS.488         	7.662          	0.034
MS.489         	7.648          	0.036
MS.490         	7.632          	0.167
MS.491         	7.617          	0.038
MS.492         	7.602          	0.038
MS.493         	7.587          	0.032
MS.494         	7.572          	0.036
MS.495         	7.557          	0.04
MS.496         	7.543          	0.03
