File:              	C:\Qtrac\Data\Daniel M Sørensen\MScan multicentre study\Data from centres\Oslo\Processed data\SZC00702E.QZD
Name:              	NO.OSL.NC.19.2
Protocol:          	MSCAN-R2
Date:              	2/7/20
Start time:        	10:34:53
Age:               	39
Sex:               	M
Temperature:       	35.3
S/R sites:         	ADM
NC/disease:        	NC19
Operator:          	SZ
Comments:          	Test2
M-SCAN DATA (5.9-2m)
Scanpts: 34, 40, 389, 414
Stim. (mA)     	Amp. (mV)
MS.1           	17             	12.01
MS.2           	17             	12.049
MS.3           	17             	12.081
MS.4           	17             	11.982
MS.5           	17             	11.998
MS.6           	17             	12.045
MS.7           	17             	12.012
MS.8           	17             	12.141
MS.9           	17             	12.107
MS.10          	17             	11.972
MS.11          	17             	12.123
MS.12          	17             	12.041
MS.13          	17             	12.107
MS.14          	17             	12
MS.15          	17             	12.025
MS.16          	17             	12.099
MS.17          	17             	12.018
MS.18          	17             	12.071
MS.19          	17             	12.023
MS.20          	17             	12.085
MS.21          	17             	12.137
MS.22          	17             	12.035
MS.23          	17             	12.018
MS.24          	16.932         	12.014
MS.25          	16.897         	12.129
MS.26          	16.865         	12.045
MS.27          	16.83          	12.006
MS.28          	16.797         	12.041
MS.29          	16.762         	12.115
MS.30          	16.73          	12.117
MS.31          	16.698         	12.004
MS.32          	16.663         	12.002
MS.33          	16.63          	11.99
MS.34          	16.597         	12.008
MS.35          	16.562         	12.069
MS.36          	16.53          	12.049
MS.37          	16.497         	12
MS.38          	16.465         	12.01
MS.39          	16.432         	11.99
MS.40          	16.4           	12.014
MS.41          	16.365         	12.023
MS.42          	16.333         	11.96
MS.43          	16.3           	11.986
MS.44          	16.267         	12.037
MS.45          	16.235         	12.006
MS.46          	16.202         	11.938
MS.47          	16.17          	11.97
MS.48          	16.137         	11.932
MS.49          	16.108         	11.906
MS.50          	16.075         	11.918
MS.51          	16.042         	11.849
MS.52          	16.01          	11.831
MS.53          	15.977         	11.807
MS.54          	15.945         	11.672
MS.55          	15.915         	11.96
MS.56          	15.882         	11.692
MS.57          	15.85          	11.807
MS.58          	15.82          	11.618
MS.59          	15.787         	11.63
MS.60          	15.755         	11.827
MS.61          	15.725         	11.702
MS.62          	15.693         	11.724
MS.63          	15.662         	11.585
MS.64          	15.63          	11.559
MS.65          	15.6           	11.565
MS.66          	15.568         	11.507
MS.67          	15.537         	11.43
MS.68          	15.505         	11.678
MS.69          	15.475         	11.686
MS.70          	15.445         	11.467
MS.71          	15.412         	11.41
MS.72          	15.382         	11.287
MS.73          	15.352         	11.519
MS.74          	15.32          	11.392
MS.75          	15.29          	11.515
MS.76          	15.26          	11.225
MS.77          	15.23          	11.386
MS.78          	15.197         	11.495
MS.79          	15.167         	11.577
MS.80          	15.137         	11.585
MS.81          	15.108         	11.531
MS.82          	15.077         	11.577
MS.83          	15.047         	11.652
MS.84          	15.017         	11.479
MS.85          	14.987         	11.414
MS.86          	14.957         	11.358
MS.87          	14.927         	11.471
MS.88          	14.898         	11.179
MS.89          	14.867         	11.36
MS.90          	14.837         	11.223
MS.91          	14.807         	11.253
MS.92          	14.78          	11.001
MS.93          	14.75          	11.015
MS.94          	14.72          	10.788
MS.95          	14.69          	10.913
MS.96          	14.662         	10.796
MS.97          	14.632         	10.814
MS.98          	14.602         	11.195
MS.99          	14.572         	10.617
MS.100         	14.545         	10.788
MS.101         	14.515         	10.053
MS.102         	14.487         	10.615
MS.103         	14.457         	10.576
MS.104         	14.427         	10.653
MS.105         	14.4           	10.306
MS.106         	14.37          	9.988
MS.107         	14.342         	10.141
MS.108         	14.312         	10.125
MS.109         	14.285         	9.521
MS.110         	14.257         	9.579
MS.111         	14.227         	10.043
MS.112         	14.2           	9.851
MS.113         	14.17          	9.207
MS.114         	14.142         	9.164
MS.115         	14.115         	9.563
MS.116         	14.087         	9.938
MS.117         	14.057         	9.444
MS.118         	14.03          	9.881
MS.119         	14.002         	9.287
MS.120         	13.975         	9.315
MS.121         	13.945         	9.11
MS.122         	13.917         	9.12
MS.123         	13.89          	9.354
MS.124         	13.862         	9.15
MS.125         	13.835         	9.12
MS.126         	13.807         	9.034
MS.127         	13.78          	9.128
MS.128         	13.752         	8.858
MS.129         	13.725         	8.953
MS.130         	13.697         	8.739
MS.131         	13.67          	8.905
MS.132         	13.642         	8.987
MS.133         	13.615         	8.627
MS.134         	13.587         	8.836
MS.135         	13.56          	8.717
MS.136         	13.535         	8.709
MS.137         	13.507         	8.794
MS.138         	13.48          	8.594
MS.139         	13.452         	8.363
MS.140         	13.425         	8.637
MS.141         	13.4           	8.645
MS.142         	13.372         	8.389
MS.143         	13.345         	8.895
MS.144         	13.32          	8.153
MS.145         	13.292         	8.2
MS.146         	13.265         	8.234
MS.147         	13.24          	8.274
MS.148         	13.212         	8.367
MS.149         	13.188         	7.783
MS.150         	13.16          	7.781
MS.151         	13.135         	7.571
MS.152         	13.108         	7.734
MS.153         	13.082         	7.821
MS.154         	13.055         	7.771
MS.155         	13.03          	7.603
MS.156         	13.002         	7.454
MS.157         	12.977         	7.46
MS.158         	12.952         	7.37
MS.159         	12.925         	7.509
MS.160         	12.9           	7.412
MS.161         	12.875         	7.279
MS.162         	12.847         	6.903
MS.163         	12.822         	6.955
MS.164         	12.797         	7.128
MS.165         	12.773         	6.798
MS.166         	12.745         	7.235
MS.167         	12.72          	6.909
MS.168         	12.695         	7.013
MS.169         	12.67          	6.87
MS.170         	12.645         	6.367
MS.171         	12.62          	6.76
MS.172         	12.595         	6.435
MS.173         	12.568         	6.236
MS.174         	12.542         	6.228
MS.175         	12.517         	5.99
MS.176         	12.492         	6.369
MS.177         	12.467         	5.938
MS.178         	12.443         	6.228
MS.179         	12.42          	5.922
MS.180         	12.395         	5.928
MS.181         	12.37          	5.644
MS.182         	12.345         	5.742
MS.183         	12.32          	6.034
MS.184         	12.295         	5.531
MS.185         	12.27          	5.646
MS.186         	12.245         	5.593
MS.187         	12.222         	5.714
MS.188         	12.197         	5.116
MS.189         	12.172         	5.118
MS.190         	12.148         	5.16
MS.191         	12.125         	5.052
MS.192         	12.1           	5.126
MS.193         	12.075         	4.808
MS.194         	12.052         	5.34
MS.195         	12.028         	4.727
MS.196         	12.002         	4.685
MS.197         	11.98          	4.677
MS.198         	11.955         	4.941
MS.199         	11.932         	4.437
MS.200         	11.907         	4.669
MS.201         	11.885         	4.721
MS.202         	11.86          	4.49
MS.203         	11.837         	4.62
MS.204         	11.812         	4.27
MS.205         	11.79          	4.087
MS.206         	11.765         	4.05
MS.207         	11.742         	3.899
MS.208         	11.72          	3.974
MS.209         	11.695         	4.133
MS.210         	11.672         	4.107
MS.211         	11.65          	3.599
MS.212         	11.625         	3.855
MS.213         	11.602         	3.607
MS.214         	11.58          	3.692
MS.215         	11.555         	3.493
MS.216         	11.532         	3.652
MS.217         	11.51          	3.406
MS.218         	11.488         	3.146
MS.219         	11.465         	3.801
MS.220         	11.44          	3.507
MS.221         	11.417         	3.513
MS.222         	11.395         	3.484
MS.223         	11.372         	3.503
MS.224         	11.35          	3.291
MS.225         	11.327         	3.19
MS.226         	11.305         	3.029
MS.227         	11.282         	3.327
MS.228         	11.26          	2.794
MS.229         	11.238         	3.188
MS.230         	11.215         	3.009
MS.231         	11.193         	3.082
MS.232         	11.17          	2.701
MS.233         	11.148         	2.931
MS.234         	11.125         	2.536
MS.235         	11.102         	2.276
MS.236         	11.08          	2.703
MS.237         	11.057         	2.431
MS.238         	11.037         	2.024
MS.239         	11.015         	2.228
MS.240         	10.992         	2.147
MS.241         	10.97          	1.998
MS.242         	10.948         	2.161
MS.243         	10.927         	1.909
MS.244         	10.905         	2.095
MS.245         	10.882         	1.934
MS.246         	10.863         	1.728
MS.247         	10.84          	1.686
MS.248         	10.818         	1.799
MS.249         	10.797         	1.746
MS.250         	10.775         	1.662
MS.251         	10.752         	1.627
MS.252         	10.733         	1.611
MS.253         	10.71          	1.738
MS.254         	10.69          	1.577
MS.255         	10.667         	1.672
MS.256         	10.648         	1.601
MS.257         	10.625         	1.533
MS.258         	10.605         	1.619
MS.259         	10.582         	1.464
MS.260         	10.562         	1.287
MS.261         	10.54          	1.4
MS.262         	10.52          	1.36
MS.263         	10.497         	1.227
MS.264         	10.477         	1.418
MS.265         	10.457         	1.257
MS.266         	10.435         	1.309
MS.267         	10.415         	1.164
MS.268         	10.395         	1.251
MS.269         	10.372         	1.045
MS.270         	10.352         	1.186
MS.271         	10.332         	1.074
MS.272         	10.31          	1.059
MS.273         	10.29          	1.16
MS.274         	10.27          	1.07
MS.275         	10.25          	0.989
MS.276         	10.23          	0.886
MS.277         	10.207         	0.943
MS.278         	10.188         	0.8
MS.279         	10.167         	0.743
MS.280         	10.148         	0.685
MS.281         	10.127         	0.699
MS.282         	10.108         	0.826
MS.283         	10.087         	0.626
MS.284         	10.068         	0.828
MS.285         	10.047         	0.669
MS.286         	10.028         	0.715
MS.287         	10.005         	0.683
MS.288         	9.988          	0.526
MS.289         	9.967          	0.562
MS.290         	9.948          	0.63
MS.291         	9.927          	0.594
MS.292         	9.907          	0.594
MS.293         	9.887          	0.542
MS.294         	9.867          	0.532
MS.295         	9.847          	0.479
MS.296         	9.827          	0.624
MS.297         	9.807          	0.546
MS.298         	9.787          	0.534
MS.299         	9.77           	0.473
MS.300         	9.75           	0.508
MS.301         	9.73           	0.53
MS.302         	9.71           	0.518
MS.303         	9.69           	0.528
MS.304         	9.672          	0.469
MS.305         	9.653          	0.447
MS.306         	9.632          	0.431
MS.307         	9.615          	0.5
MS.308         	9.595          	0.427
MS.309         	9.575          	0.429
MS.310         	9.557          	0.479
MS.311         	9.537          	0.371
MS.312         	9.517          	0.413
MS.313         	9.5            	0.479
MS.314         	9.48           	0.429
MS.315         	9.462          	0.373
MS.316         	9.443          	0.383
MS.317         	9.422          	0.431
MS.318         	9.405          	0.417
MS.319         	9.385          	0.361
MS.320         	9.367          	0.294
MS.321         	9.347          	0.419
MS.322         	9.33           	0.26
MS.323         	9.31           	0.344
MS.324         	9.292          	0.248
MS.325         	9.275          	0.254
MS.326         	9.255          	0.33
MS.327         	9.238          	0.224
MS.328         	9.217          	0.26
MS.329         	9.2            	0.23
MS.330         	9.182          	0.25
MS.331         	9.162          	0.23
MS.332         	9.145          	0.256
MS.333         	9.127          	0.262
MS.334         	9.108          	0.218
MS.335         	9.09           	0.232
MS.336         	9.073          	0.322
MS.337         	9.055          	0.224
MS.338         	9.035          	0.199
MS.339         	9.017          	0.216
MS.340         	9              	0.222
MS.341         	8.983          	0.209
MS.342         	8.965          	0.193
MS.343         	8.945          	0.193
MS.344         	8.927          	0.185
MS.345         	8.91           	0.159
MS.346         	8.892          	0.187
MS.347         	8.875          	0.173
MS.348         	8.858          	0.187
MS.349         	8.84           	0.179
MS.350         	8.823          	0.163
MS.351         	8.805          	0.155
MS.352         	8.787          	0.149
MS.353         	8.77           	0.117
MS.354         	8.752          	0.147
MS.355         	8.735          	0.113
MS.356         	8.717          	0.155
MS.357         	8.7            	0.161
MS.358         	8.682          	0.157
MS.359         	8.665          	0.153
MS.360         	8.648          	0.155
MS.361         	8.63           	0.119
MS.362         	8.613          	0.056
MS.363         	8.595          	0.105
MS.364         	8.577          	0.105
MS.365         	8.56           	0.101
MS.366         	8.545          	0.087
MS.367         	8.528          	0.109
MS.368         	8.51           	0.056
MS.369         	8.492          	0.127
MS.370         	8.475          	0.155
MS.371         	8.46           	0.06
MS.372         	8.443          	0.095
MS.373         	8.425          	0.046
MS.374         	8.408          	0.054
MS.375         	8.392          	0.044
MS.376         	8.375          	0.05
MS.377         	8.358          	0.093
MS.378         	8.34           	0.038
MS.379         	8.325          	0.04
MS.380         	8.307          	0.099
MS.381         	8.292          	0.046
MS.382         	8.275          	0.058
MS.383         	8.257          	0.046
MS.384         	8.242          	0.05
MS.385         	8.225          	0.034
MS.386         	8.21           	0.046
MS.387         	8.193          	0.046
MS.388         	8.175          	0.048
MS.389         	8.16           	0.038
MS.390         	8.142          	0.044
MS.391         	8.127          	0.038
MS.392         	8.11           	0.036
MS.393         	8.095          	0.044
MS.394         	8.077          	0.038
MS.395         	8.062          	0.038
MS.396         	8.047          	0.034
MS.397         	8.03           	0.03
MS.398         	8.015          	0.032
MS.399         	7.997          	0.048
MS.400         	7.982          	0.042
MS.401         	7.965          	0.044
MS.402         	7.95           	0.042
MS.403         	7.935          	0.032
MS.404         	7.918          	0.044
MS.405         	7.902          	0.052
MS.406         	7.887          	0.038
MS.407         	7.87           	0.038
MS.408         	7.855          	0.032
MS.409         	7.84           	0.032
MS.410         	7.825          	0.034
MS.411         	7.807          	0.04
MS.412         	7.793          	0.032
MS.413         	7.777          	0.026
MS.414         	7.762          	0.044
MS.415         	7.747          	0.034
MS.416         	7.73           	0.026
MS.417         	7.715          	0.038
MS.418         	7.7            	0.034
MS.419         	7.685          	0.036
MS.420         	7.67           	0.046
MS.421         	7.655          	0.038
MS.422         	7.637          	0.03
MS.423         	7.622          	0.032
MS.424         	7.607          	0.032
MS.425         	7.592          	0.032
MS.426         	7.577          	0.036
MS.427         	7.562          	0.028
MS.428         	7.547          	0.032
MS.429         	7.532          	0.022
MS.430         	7.517          	0.032
MS.431         	7.503          	0.028
MS.432         	7.487          	0.028
DERIVED EXCITABILITY VARIABLES
Program = QTracP 3/4/2020
Threshold method = 6 (optimised for CAP, using data for present condition only)
SR method = 1 (using actual data values)
6.                 	0.000               	Peak response\(mV)
9.                 	35.3                	Temperature ( C)
17.                	39                  	Age (years)
18.                	1                   	Sex (M=1, F=2)

EXTRA VARIABLES

MScPeak(mV) = 12.02
MScS5(mA) = 9.91
MScS50(mA) = 12.43
MScS95(mA) = 15.2
MScNSteps = 4
MScSteps(%) = 10
MScStepMax(%) = 2.8
MScD50 = 45
MScSlope = 4.91
MSFPeakAmp(mV) = 12
MSFNUnits = 133
MSFMeanUnitAmp(uV) = 90.1
MSFHuntTime(m) = 2.13
MSFError(%) = 4.66
MSFNLarge = 40.55
MSFMedianAmp(%) = 0.676
MSFMedianAmp(mV) = 0.081
MSFHalfAmpAmp(%) = 0.813
MSFHalfAmpAmp(mV) = 0.0975
MSFLargestAmp(%) = 2.38
MSFLargestAmp(mV) = 0.285
MSFMeanRS(%) = 2
MSFOpts = 10106121
MScDuration(min) = 3.9
MSFTraces = 381
MSFSizeLimit(uV) = 30
MSFLimitType = 1
MSFSmallestAmp(uV) = 31

EXTRA WAVEFORMS


!MScan Model
!133
	1	8.44	0.33	2
	2	8.62	0.33	2
	3	8.82	0.41	2
	4	8.96	0.31	2
	5	9.1	0.27	2
	6	9.3	0.75	2
	7	9.44	0.49	2
	8	9.54	0.45	2
	9	9.65	0.34	2
	10	9.79	0.45	2
	11	9.89	0.4	2
	12	9.98	0.47	2
	13	10.03	0.37	2
	14	10.09	0.5	2
	15	10.12	0.3	2
	16	10.14	0.34	2
	17	10.17	0.33	2
	18	10.22	0.52	2
	19	10.24	0.3	2
	20	10.27	0.36	2
	21	10.3	0.36	2
	22	10.32	0.32	2
	23	10.35	0.32	2
	24	10.38	0.32	2
	25	10.41	0.4	2
	26	10.44	0.53	2
	27	10.46	0.33	2
	28	10.49	0.37	2
	29	10.55	0.54	2
	30	10.58	0.37	2
	31	10.63	0.55	2
	32	10.67	0.48	2
	33	10.71	0.41	2
	34	10.75	0.77	2
	35	10.79	0.45	2
	36	10.83	0.48	2
	37	10.87	0.61	2
	38	10.9	0.5	2
	39	10.92	0.41	2
	40	10.94	0.44	2
	41	10.96	0.62	2
	42	10.99	0.59	2
	43	11.01	0.59	2
	44	11.04	0.69	2
	45	11.06	0.57	2
	46	11.09	0.63	2
	47	11.11	0.73	2
	48	11.14	0.74	2
	49	11.17	0.69	2
	50	11.2	0.68	2
	51	11.22	0.74	2
	52	11.27	1.29	2
	53	11.35	1.37	2
	54	11.42	1.27	2
	55	11.5	1.3	2
	56	11.58	1.49	2
	57	11.62	0.63	2
	58	11.65	0.28	2
	59	11.68	0.62	2
	60	11.71	0.73	2
	61	11.74	0.62	2
	62	11.77	0.89	2
	63	11.8	0.74	2
	64	11.83	0.77	2
	65	11.86	0.84	2
	66	11.9	0.53	2
	67	11.93	0.68	2
	68	11.97	1	2
	69	12.02	1.5	2
	70	12.07	1	2
	71	12.11	0.81	2
	72	12.14	0.81	2
	73	12.18	0.82	2
	74	12.21	0.72	2
	75	12.24	0.62	2
	76	12.27	0.58	2
	77	12.3	0.75	2
	78	12.33	0.8	2
	79	12.37	1.11	2
	80	12.41	0.99	2
	81	12.45	0.75	2
	82	12.48	0.78	2
	83	12.51	0.94	2
	84	12.55	0.81	2
	85	12.58	0.83	2
	86	12.61	0.73	2
	87	12.65	0.61	2
