File:              	C:\Qtrac\Data\Daniel M Sørensen\MScan multicentre study\Data from centres\Oslo\IronKey\Oslo_NC_first examination\SZC00508E.QZD
Name:              	NO.OSL.NC.9.1
Protocol:          	MSCAN-R2
Date:              	8/5/20
Start time:        	13:15:28
Age:               	20
Sex:               	F
Temperature:       	32.1
S/R sites:         	Ulnar Wr-ADM
NC/disease:        	NC9
Operator:          	SZ
Comments:          	Test1
M-SCAN DATA (7.4-2.3m)
Scanpts: 5, 10, 529, 551
Stim. (mA)     	Amp. (mV)
MS.1           	14.5           	11.938
MS.2           	14.5           	11.904
MS.3           	14.5           	11.922
MS.4           	14.5           	11.912
MS.5           	14.5           	11.896
MS.6           	14.5           	11.936
MS.7           	14.5           	11.94
MS.8           	14.5           	11.938
MS.9           	14.5           	11.93
MS.10          	14.5           	11.94
MS.11          	14.5           	11.93
MS.12          	14.5           	11.914
MS.13          	14.5           	11.849
MS.14          	14.5           	11.845
MS.15          	14.5           	11.865
MS.16          	14.5           	11.843
MS.17          	14.5           	11.825
MS.18          	14.5           	11.831
MS.19          	14.5           	11.849
MS.20          	14.5           	11.833
MS.21          	14.5           	11.779
MS.22          	14.5           	11.851
MS.23          	14.5           	11.795
MS.24          	14.443         	11.795
MS.25          	14.412         	11.791
MS.26          	14.385         	11.809
MS.27          	14.355         	11.791
MS.28          	14.327         	11.787
MS.29          	14.297         	11.769
MS.30          	14.27          	11.811
MS.31          	14.242         	11.813
MS.32          	14.212         	11.781
MS.33          	14.185         	11.793
MS.34          	14.155         	11.773
MS.35          	14.127         	11.751
MS.36          	14.1           	11.747
MS.37          	14.072         	11.767
MS.38          	14.042         	11.751
MS.39          	14.015         	11.775
MS.40          	13.987         	11.706
MS.41          	13.96          	11.684
MS.42          	13.932         	11.724
MS.43          	13.903         	11.747
MS.44          	13.875         	11.743
MS.45          	13.847         	11.739
MS.46          	13.82          	11.779
MS.47          	13.792         	11.781
MS.48          	13.765         	11.737
MS.49          	13.737         	11.767
MS.50          	13.71          	11.745
MS.51          	13.682         	11.753
MS.52          	13.655         	11.757
MS.53          	13.627         	11.749
MS.54          	13.6           	11.757
MS.55          	13.575         	11.761
MS.56          	13.547         	11.692
MS.57          	13.52          	11.716
MS.58          	13.492         	11.702
MS.59          	13.465         	11.67
MS.60          	13.44          	11.698
MS.61          	13.412         	11.7
MS.62          	13.385         	11.694
MS.63          	13.358         	11.714
MS.64          	13.332         	11.688
MS.65          	13.305         	11.666
MS.66          	13.278         	11.718
MS.67          	13.252         	11.712
MS.68          	13.225         	11.69
MS.69          	13.2           	11.706
MS.70          	13.172         	11.712
MS.71          	13.148         	11.694
MS.72          	13.12          	11.692
MS.73          	13.095         	11.696
MS.74          	13.068         	11.676
MS.75          	13.042         	11.7
MS.76          	13.015         	11.71
MS.77          	12.99          	11.702
MS.78          	12.962         	11.684
MS.79          	12.938         	11.682
MS.80          	12.912         	11.682
MS.81          	12.885         	11.698
MS.82          	12.86          	11.7
MS.83          	12.835         	11.68
MS.84          	12.81          	11.67
MS.85          	12.782         	11.682
MS.86          	12.757         	11.694
MS.87          	12.733         	11.704
MS.88          	12.707         	11.718
MS.89          	12.682         	11.696
MS.90          	12.655         	11.7
MS.91          	12.63          	11.67
MS.92          	12.605         	11.616
MS.93          	12.58          	11.666
MS.94          	12.555         	11.642
MS.95          	12.53          	11.628
MS.96          	12.505         	11.606
MS.97          	12.48          	11.632
MS.98          	12.455         	11.648
MS.99          	12.43          	11.596
MS.100         	12.405         	11.583
MS.101         	12.38          	11.535
MS.102         	12.355         	11.563
MS.103         	12.332         	11.549
MS.104         	12.307         	11.577
MS.105         	12.282         	11.527
MS.106         	12.257         	11.545
MS.107         	12.233         	11.531
MS.108         	12.207         	11.573
MS.109         	12.185         	11.533
MS.110         	12.16          	11.523
MS.111         	12.135         	11.549
MS.112         	12.113         	11.563
MS.113         	12.087         	11.507
MS.114         	12.062         	11.569
MS.115         	12.04          	11.569
MS.116         	12.015         	11.563
MS.117         	11.99          	11.541
MS.118         	11.967         	11.551
MS.119         	11.943         	11.483
MS.120         	11.92          	11.497
MS.121         	11.895         	11.573
MS.122         	11.872         	11.573
MS.123         	11.847         	11.531
MS.124         	11.825         	11.515
MS.125         	11.8           	11.517
MS.126         	11.778         	11.557
MS.127         	11.752         	11.527
MS.128         	11.73          	11.555
MS.129         	11.707         	11.545
MS.130         	11.682         	11.541
MS.131         	11.66          	11.527
MS.132         	11.637         	11.567
MS.133         	11.613         	11.563
MS.134         	11.59          	11.521
MS.135         	11.568         	11.479
MS.136         	11.545         	11.465
MS.137         	11.52          	11.414
MS.138         	11.497         	11.505
MS.139         	11.475         	11.469
MS.140         	11.452         	11.489
MS.141         	11.43          	11.495
MS.142         	11.405         	11.489
MS.143         	11.382         	11.495
MS.144         	11.36          	11.473
MS.145         	11.337         	11.523
MS.146         	11.315         	11.483
MS.147         	11.292         	11.424
MS.148         	11.27          	11.418
MS.149         	11.247         	11.438
MS.150         	11.225         	11.467
MS.151         	11.202         	11.404
MS.152         	11.18          	11.465
MS.153         	11.157         	11.442
MS.154         	11.135         	11.344
MS.155         	11.113         	11.461
MS.156         	11.09          	11.428
MS.157         	11.07          	11.396
MS.158         	11.047         	11.35
MS.159         	11.025         	11.386
MS.160         	11.002         	11.384
MS.161         	10.98          	11.225
MS.162         	10.96          	11.34
MS.163         	10.938         	11.269
MS.164         	10.915         	11.195
MS.165         	10.892         	11.291
MS.166         	10.872         	11.267
MS.167         	10.85          	11.144
MS.168         	10.827         	11.209
MS.169         	10.807         	11.167
MS.170         	10.785         	11.146
MS.171         	10.762         	11.177
MS.172         	10.742         	11.179
MS.173         	10.72          	11.203
MS.174         	10.7           	11.15
MS.175         	10.677         	11.108
MS.176         	10.655         	11.199
MS.177         	10.635         	11.187
MS.178         	10.613         	11.074
MS.179         	10.592         	11.084
MS.180         	10.573         	11.066
MS.181         	10.55          	11.144
MS.182         	10.53          	11.122
MS.183         	10.507         	11.146
MS.184         	10.488         	11.078
MS.185         	10.465         	11.034
MS.186         	10.445         	10.959
MS.187         	10.425         	11.092
MS.188         	10.403         	11.015
MS.189         	10.382         	10.997
MS.190         	10.363         	11.074
MS.191         	10.342         	10.804
MS.192         	10.32          	11.032
MS.193         	10.3           	10.937
MS.194         	10.28          	10.947
MS.195         	10.26          	10.925
MS.196         	10.238         	10.961
MS.197         	10.217         	10.635
MS.198         	10.198         	10.669
MS.199         	10.177         	10.393
MS.200         	10.157         	10.504
MS.201         	10.137         	10.403
MS.202         	10.117         	10.387
MS.203         	10.095         	10.526
MS.204         	10.075         	10.103
MS.205         	10.055         	10.373
MS.206         	10.035         	10.349
MS.207         	10.015         	10.548
MS.208         	9.995          	10.323
MS.209         	9.975          	10.288
MS.210         	9.955          	10.498
MS.211         	9.935          	10.192
MS.212         	9.915          	10.31
MS.213         	9.895          	10.031
MS.214         	9.877          	10.246
MS.215         	9.858          	10.039
MS.216         	9.837          	10.198
MS.217         	9.818          	10.188
MS.218         	9.797          	9.966
MS.219         	9.778          	10.196
MS.220         	9.757          	9.984
MS.221         	9.74           	9.996
MS.222         	9.72           	9.936
MS.223         	9.7            	9.996
MS.224         	9.68           	9.908
MS.225         	9.662          	10.018
MS.226         	9.642          	9.857
MS.227         	9.622          	9.797
MS.228         	9.602          	9.996
MS.229         	9.585          	9.9
MS.230         	9.565          	10.012
MS.231         	9.545          	9.841
MS.232         	9.528          	9.801
MS.233         	9.507          	9.747
MS.234         	9.49           	9.767
MS.235         	9.47           	9.745
MS.236         	9.45           	9.664
MS.237         	9.432          	9.644
MS.238         	9.412          	9.61
MS.239         	9.395          	9.632
MS.240         	9.375          	9.539
MS.241         	9.358          	9.501
MS.242         	9.337          	9.245
MS.243         	9.32           	9.162
MS.244         	9.3            	9.473
MS.245         	9.283          	9.513
MS.246         	9.265          	9.567
MS.247         	9.245          	9.458
MS.248         	9.227          	9.537
MS.249         	9.207          	9.599
MS.250         	9.19           	9.553
MS.251         	9.172          	9.541
MS.252         	9.153          	9.064
MS.253         	9.135          	8.862
MS.254         	9.117          	9.07
MS.255         	9.1            	8.709
MS.256         	9.08           	9.247
MS.257         	9.062          	9.136
MS.258         	9.045          	8.81
MS.259         	9.028          	8.766
MS.260         	9.007          	8.882
MS.261         	8.99           	8.689
MS.262         	8.972          	8.687
MS.263         	8.955          	8.828
MS.264         	8.938          	8.538
MS.265         	8.917          	8.546
MS.266         	8.9            	8.421
MS.267         	8.882          	8.377
MS.268         	8.865          	8.262
MS.269         	8.847          	8.353
MS.270         	8.83           	8.292
MS.271         	8.812          	8.248
MS.272         	8.795          	8.165
MS.273         	8.778          	8.169
MS.274         	8.76           	8.065
MS.275         	8.742          	7.984
MS.276         	8.725          	7.825
MS.277         	8.707          	7.831
MS.278         	8.69           	7.95
MS.279         	8.672          	7.887
MS.280         	8.655          	7.545
MS.281         	8.637          	7.972
MS.282         	8.62           	7.791
MS.283         	8.602          	7.928
MS.284         	8.585          	7.779
MS.285         	8.57           	7.98
MS.286         	8.552          	7.861
MS.287         	8.535          	7.249
MS.288         	8.517          	7.34
MS.289         	8.5            	7.265
MS.290         	8.483          	7.029
MS.291         	8.467          	7.299
MS.292         	8.45           	7.072
MS.293         	8.432          	7.037
MS.294         	8.415          	6.886
MS.295         	8.4            	6.997
MS.296         	8.382          	6.737
MS.297         	8.365          	6.635
MS.298         	8.35           	6.48
MS.299         	8.332          	6.5
MS.300         	8.315          	6.403
MS.301         	8.3            	6.486
MS.302         	8.283          	6.25
MS.303         	8.265          	6.153
MS.304         	8.25           	6.478
MS.305         	8.233          	6.018
MS.306         	8.217          	5.936
MS.307         	8.2            	5.988
MS.308         	8.182          	5.67
MS.309         	8.167          	5.883
MS.310         	8.15           	5.68
MS.311         	8.135          	5.664
MS.312         	8.117          	5.617
MS.313         	8.102          	5.255
MS.314         	8.085          	5.237
MS.315         	8.07           	5.154
MS.316         	8.055          	5.007
MS.317         	8.037          	4.705
MS.318         	8.023          	4.989
MS.319         	8.005          	4.772
MS.320         	7.99           	4.643
MS.321         	7.972          	4.725
MS.322         	7.957          	4.675
MS.323         	7.942          	4.508
MS.324         	7.925          	4.441
MS.325         	7.91           	4.524
MS.326         	7.895          	4.202
MS.327         	7.878          	4.022
MS.328         	7.862          	4.04
MS.329         	7.847          	4.131
MS.330         	7.832          	4.153
MS.331         	7.815          	3.952
MS.332         	7.8            	3.891
MS.333         	7.785          	3.922
MS.334         	7.77           	3.865
MS.335         	7.753          	3.764
MS.336         	7.737          	3.507
MS.337         	7.722          	3.559
MS.338         	7.707          	3.454
MS.339         	7.692          	3.484
MS.340         	7.677          	3.48
MS.341         	7.66           	3.358
MS.342         	7.645          	3.285
MS.343         	7.63           	3.323
MS.344         	7.615          	3.311
MS.345         	7.6            	3.062
MS.346         	7.585          	3.297
MS.347         	7.57           	3.154
MS.348         	7.555          	2.898
MS.349         	7.54           	2.959
MS.350         	7.525          	2.886
MS.351         	7.51           	2.757
MS.352         	7.495          	2.826
MS.353         	7.48           	2.836
MS.354         	7.465          	2.606
MS.355         	7.45           	2.487
MS.356         	7.435          	2.427
MS.357         	7.42           	2.51
MS.358         	7.405          	2.312
MS.359         	7.39           	2.145
MS.360         	7.375          	2.197
MS.361         	7.36           	2.175
MS.362         	7.345          	1.835
MS.363         	7.33           	2.097
MS.364         	7.317          	2.079
MS.365         	7.302          	2.238
MS.366         	7.287          	2.087
MS.367         	7.273          	1.952
MS.368         	7.257          	1.694
MS.369         	7.245          	1.672
MS.370         	7.23           	1.843
MS.371         	7.215          	2.067
MS.372         	7.2            	1.678
MS.373         	7.185          	1.726
MS.374         	7.172          	1.69
MS.375         	7.157          	1.492
MS.376         	7.142          	1.468
MS.377         	7.13           	1.295
MS.378         	7.115          	1.45
MS.379         	7.1            	1.251
MS.380         	7.085          	1.204
MS.381         	7.072          	1.293
MS.382         	7.057          	1.063
MS.383         	7.045          	1.168
MS.384         	7.03           	1.241
MS.385         	7.015          	1.128
MS.386         	7.003          	1.096
MS.387         	6.987          	1.001
MS.388         	6.972          	1.029
MS.389         	6.96           	0.951
MS.390         	6.945          	1.027
MS.391         	6.932          	1.132
MS.392         	6.918          	0.757
MS.393         	6.905          	0.81
MS.394         	6.89           	0.848
MS.395         	6.878          	0.882
MS.396         	6.862          	0.711
MS.397         	6.85           	0.715
MS.398         	6.835          	0.63
MS.399         	6.822          	0.8
MS.400         	6.807          	1.041
MS.401         	6.795          	0.777
MS.402         	6.78           	0.775
MS.403         	6.767          	0.715
MS.404         	6.755          	0.693
MS.405         	6.74           	0.622
MS.406         	6.727          	0.604
MS.407         	6.712          	0.518
MS.408         	6.7            	0.592
MS.409         	6.688          	0.526
MS.410         	6.672          	0.451
MS.411         	6.66           	0.481
MS.412         	6.648          	0.606
MS.413         	6.632          	0.407
MS.414         	6.62           	0.485
MS.415         	6.608          	0.546
MS.416         	6.595          	0.481
MS.417         	6.58           	0.457
MS.418         	6.567          	0.443
MS.419         	6.555          	0.419
MS.420         	6.543          	0.491
MS.421         	6.527          	0.429
MS.422         	6.515          	0.389
MS.423         	6.503          	0.365
MS.424         	6.49           	0.35
MS.425         	6.477          	0.33
MS.426         	6.462          	0.363
MS.427         	6.45           	0.373
MS.428         	6.438          	0.348
MS.429         	6.425          	0.334
MS.430         	6.412          	0.272
MS.431         	6.4            	0.32
MS.432         	6.385          	0.242
MS.433         	6.372          	0.256
MS.434         	6.36           	0.302
MS.435         	6.347          	0.28
MS.436         	6.335          	0.318
MS.437         	6.322          	0.232
MS.438         	6.31           	0.32
MS.439         	6.297          	0.232
MS.440         	6.285          	0.272
MS.441         	6.273          	0.24
MS.442         	6.26           	0.274
MS.443         	6.247          	0.276
MS.444         	6.235          	0.216
MS.445         	6.222          	0.216
MS.446         	6.21           	0.218
MS.447         	6.197          	0.209
MS.448         	6.185          	0.234
MS.449         	6.172          	0.236
MS.450         	6.16           	0.218
MS.451         	6.148          	0.24
MS.452         	6.135          	0.232
MS.453         	6.122          	0.222
MS.454         	6.112          	0.232
MS.455         	6.1            	0.224
MS.456         	6.088          	0.226
MS.457         	6.075          	0.22
MS.458         	6.062          	0.203
MS.459         	6.05           	0.23
MS.460         	6.037          	0.226
MS.461         	6.027          	0.236
MS.462         	6.015          	0.218
MS.463         	6.003          	0.197
MS.464         	5.99           	0.203
MS.465         	5.977          	0.185
MS.466         	5.967          	0.226
MS.467         	5.955          	0.193
MS.468         	5.942          	0.187
MS.469         	5.93           	0.216
MS.470         	5.92           	0.189
MS.471         	5.907          	0.191
MS.472         	5.895          	0.087
MS.473         	5.882          	0.205
MS.474         	5.872          	0.195
MS.475         	5.86           	0.04
MS.476         	5.847          	0.077
MS.477         	5.838          	0.064
MS.478         	5.825          	0.038
MS.479         	5.812          	0.04
MS.480         	5.802          	0.042
MS.481         	5.79           	0.077
MS.482         	5.777          	0.171
MS.483         	5.767          	0.038
MS.484         	5.755          	0.038
MS.485         	5.745          	0.073
MS.486         	5.733          	0.179
MS.487         	5.72           	0.036
MS.488         	5.71           	0.038
MS.489         	5.697          	0.04
MS.490         	5.688          	0.036
MS.491         	5.675          	0.042
MS.492         	5.665          	0.036
MS.493         	5.652          	0.034
MS.494         	5.642          	0.032
MS.495         	5.63           	0.036
