File:              	C:\Qtrac\Data\Daniel M Sørensen\MScan multicentre study\Data from centres\Oslo\Processed data\SZC00702B.QZD
Name:              	NO.OSL.NC.20.2
Protocol:          	MSCAN-R2
Date:              	2/7/20
Start time:        	09:08:22
Age:               	59
Sex:               	M
Temperature:       	34.3
S/R sites:         	ADM
NC/disease:        	NC20
Operator:          	SZ
Comments:          	Test2 muskelart at start
M-SCAN DATA (8.8-4.9m)
Scanpts: 27, 33, 393, 399
Stim. (mA)     	Amp. (mV)
MS.1           	14.5           	11.69
MS.2           	14.5           	11.698
MS.3           	14.5           	11.869
MS.4           	14.5           	12.047
MS.5           	14.5           	11.924
MS.6           	14.5           	11.92
MS.7           	14.5           	12.095
MS.8           	14.5           	12.419
MS.9           	14.5           	12.3
MS.10          	14.5           	12.361
MS.11          	14.5           	12.298
MS.12          	14.5           	12.226
MS.13          	14.5           	12.433
MS.14          	14.5           	12.307
MS.15          	14.5           	12.595
MS.16          	14.5           	12.635
MS.17          	14.5           	12.633
MS.18          	14.5           	12.433
MS.19          	14.5           	12.456
MS.20          	14.5           	12.468
MS.21          	14.5           	12.673
MS.22          	14.5           	12.667
MS.23          	14.5           	12.772
MS.24          	14.443         	12.351
MS.25          	14.412         	12.425
MS.26          	14.385         	12.385
MS.27          	14.355         	12.333
MS.28          	14.327         	12.363
MS.29          	14.297         	12.391
MS.30          	14.27          	12.383
MS.31          	14.242         	12.311
MS.32          	14.212         	12.395
MS.33          	14.185         	12.339
MS.34          	14.155         	12.294
MS.35          	14.127         	12.345
MS.36          	14.1           	12.29
MS.37          	14.072         	12.401
MS.38          	14.042         	12.353
MS.39          	14.015         	12.292
MS.40          	13.987         	12.317
MS.41          	13.96          	12.325
MS.42          	13.932         	12.206
MS.43          	13.903         	12.361
MS.44          	13.875         	12.079
MS.45          	13.847         	12.258
MS.46          	13.82          	12.367
MS.47          	13.792         	12.166
MS.48          	13.765         	11.61
MS.49          	13.737         	12.101
MS.50          	13.71          	11.898
MS.51          	13.682         	12.047
MS.52          	13.655         	12.063
MS.53          	13.627         	12.143
MS.54          	13.6           	11.743
MS.55          	13.575         	11.861
MS.56          	13.547         	12.073
MS.57          	13.52          	12.043
MS.58          	13.492         	11.825
MS.59          	13.465         	11.614
MS.60          	13.44          	11.396
MS.61          	13.412         	11.503
MS.62          	13.385         	11.303
MS.63          	13.358         	11.316
MS.64          	13.332         	11.577
MS.65          	13.305         	11.386
MS.66          	13.278         	11.463
MS.67          	13.252         	11.338
MS.68          	13.225         	11.251
MS.69          	13.2           	11.303
MS.70          	13.172         	11.352
MS.71          	13.148         	11.233
MS.72          	13.12          	11.11
MS.73          	13.095         	10.991
MS.74          	13.068         	11.193
MS.75          	13.042         	11.291
MS.76          	13.015         	10.768
MS.77          	12.99          	11.066
MS.78          	12.962         	10.987
MS.79          	12.938         	10.85
MS.80          	12.912         	10.806
MS.81          	12.885         	10.621
MS.82          	12.86          	10.633
MS.83          	12.835         	10.649
MS.84          	12.81          	10.506
MS.85          	12.782         	10.327
MS.86          	12.757         	10.043
MS.87          	12.733         	10.157
MS.88          	12.707         	9.823
MS.89          	12.682         	10.141
MS.90          	12.655         	9.795
MS.91          	12.63          	10.141
MS.92          	12.605         	9.813
MS.93          	12.58          	9.771
MS.94          	12.555         	9.742
MS.95          	12.53          	9.503
MS.96          	12.505         	9.755
MS.97          	12.48          	9.495
MS.98          	12.455         	9.827
MS.99          	12.43          	9.497
MS.100         	12.405         	9.811
MS.101         	12.38          	9.066
MS.102         	12.355         	9.501
MS.103         	12.332         	9.104
MS.104         	12.307         	9.172
MS.105         	12.282         	8.576
MS.106         	12.257         	8.987
MS.107         	12.233         	8.288
MS.108         	12.207         	8.725
MS.109         	12.185         	8.427
MS.110         	12.16          	8.47
MS.111         	12.135         	8.314
MS.112         	12.113         	7.944
MS.113         	12.087         	8.675
MS.114         	12.062         	7.994
MS.115         	12.04          	8.768
MS.116         	12.015         	7.755
MS.117         	11.99          	8.32
MS.118         	11.967         	7.891
MS.119         	11.943         	7.924
MS.120         	11.92          	7.446
MS.121         	11.895         	7.757
MS.122         	11.872         	7.4
MS.123         	11.847         	7.64
MS.124         	11.825         	7.676
MS.125         	11.8           	7.07
MS.126         	11.778         	7.527
MS.127         	11.752         	7.05
MS.128         	11.73          	7.249
MS.129         	11.707         	7.054
MS.130         	11.682         	6.826
MS.131         	11.66          	6.717
MS.132         	11.637         	6.842
MS.133         	11.613         	6.816
MS.134         	11.59          	6.6
MS.135         	11.568         	6.695
MS.136         	11.545         	6.369
MS.137         	11.52          	6.921
MS.138         	11.497         	6.212
MS.139         	11.475         	6.401
MS.140         	11.452         	6.363
MS.141         	11.43          	6.528
MS.142         	11.405         	6.224
MS.143         	11.382         	6.109
MS.144         	11.36          	6.302
MS.145         	11.337         	6.085
MS.146         	11.315         	6.244
MS.147         	11.292         	6.143
MS.148         	11.27          	6.032
MS.149         	11.247         	5.891
MS.150         	11.225         	5.906
MS.151         	11.202         	5.722
MS.152         	11.18          	5.791
MS.153         	11.157         	5.573
MS.154         	11.135         	5.632
MS.155         	11.113         	5.734
MS.156         	11.09          	5.638
MS.157         	11.07          	5.694
MS.158         	11.047         	5.241
MS.159         	11.025         	5.72
MS.160         	11.002         	5.368
MS.161         	10.98          	5.43
MS.162         	10.96          	5.122
MS.163         	10.938         	5.247
MS.164         	10.915         	5.19
MS.165         	10.892         	5.098
MS.166         	10.872         	5.082
MS.167         	10.85          	5.311
MS.168         	10.827         	5.271
MS.169         	10.807         	4.864
MS.170         	10.785         	5.237
MS.171         	10.762         	5.035
MS.172         	10.742         	4.844
MS.173         	10.72          	4.753
MS.174         	10.7           	4.999
MS.175         	10.677         	4.832
MS.176         	10.655         	4.868
MS.177         	10.635         	4.584
MS.178         	10.613         	4.592
MS.179         	10.592         	4.191
MS.180         	10.573         	4.729
MS.181         	10.55          	4.328
MS.182         	10.53          	4.328
MS.183         	10.507         	3.891
MS.184         	10.488         	4.139
MS.185         	10.465         	3.789
MS.186         	10.445         	4.038
MS.187         	10.425         	4.101
MS.188         	10.403         	3.887
MS.189         	10.382         	4.002
MS.190         	10.363         	3.768
MS.191         	10.342         	3.827
MS.192         	10.32          	3.909
MS.193         	10.3           	3.615
MS.194         	10.28          	3.344
MS.195         	10.26          	3.384
MS.196         	10.238         	3.207
MS.197         	10.217         	3.499
MS.198         	10.198         	3.247
MS.199         	10.177         	3.084
MS.200         	10.157         	3.468
MS.201         	10.137         	3.273
MS.202         	10.117         	3.015
MS.203         	10.095         	3.017
MS.204         	10.075         	3.176
MS.205         	10.055         	2.844
MS.206         	10.035         	3.076
MS.207         	10.015         	3.104
MS.208         	9.995          	3.104
MS.209         	9.975          	2.908
MS.210         	9.955          	2.882
MS.211         	9.935          	2.741
MS.212         	9.915          	2.862
MS.213         	9.895          	2.737
MS.214         	9.877          	2.637
MS.215         	9.858          	2.858
MS.216         	9.837          	2.554
MS.217         	9.818          	2.669
MS.218         	9.797          	2.389
MS.219         	9.778          	2.494
MS.220         	9.757          	2.586
MS.221         	9.74           	2.544
MS.222         	9.72           	2.361
MS.223         	9.7            	2.355
MS.224         	9.68           	2.353
MS.225         	9.662          	2.23
MS.226         	9.642          	2.222
MS.227         	9.622          	2.208
MS.228         	9.602          	2.226
MS.229         	9.585          	2.093
MS.230         	9.565          	2.129
MS.231         	9.545          	2.065
MS.232         	9.528          	2.173
MS.233         	9.507          	2.083
MS.234         	9.49           	2.218
MS.235         	9.47           	1.962
MS.236         	9.45           	1.99
MS.237         	9.432          	1.877
MS.238         	9.412          	2.04
MS.239         	9.395          	1.94
MS.240         	9.375          	1.982
MS.241         	9.358          	1.942
MS.242         	9.337          	1.895
MS.243         	9.32           	1.837
MS.244         	9.3            	1.754
MS.245         	9.283          	1.857
MS.246         	9.265          	1.728
MS.247         	9.245          	1.801
MS.248         	9.227          	1.68
MS.249         	9.207          	1.704
MS.250         	9.19           	1.704
MS.251         	9.172          	1.787
MS.252         	9.153          	1.736
MS.253         	9.135          	1.593
MS.254         	9.117          	1.631
MS.255         	9.1            	1.656
MS.256         	9.08           	1.573
MS.257         	9.062          	1.47
MS.258         	9.045          	1.581
MS.259         	9.028          	1.517
MS.260         	9.007          	1.362
MS.261         	8.99           	1.37
MS.262         	8.972          	1.553
MS.263         	8.955          	1.42
MS.264         	8.938          	1.339
MS.265         	8.917          	1.454
MS.266         	8.9            	1.372
MS.267         	8.882          	1.237
MS.268         	8.865          	1.388
MS.269         	8.847          	1.271
MS.270         	8.83           	1.327
MS.271         	8.812          	1.11
MS.272         	8.795          	1.17
MS.273         	8.778          	1.162
MS.274         	8.76           	0.991
MS.275         	8.742          	1.154
MS.276         	8.725          	1.037
MS.277         	8.707          	1.074
MS.278         	8.69           	1.106
MS.279         	8.672          	1.098
MS.280         	8.655          	0.86
MS.281         	8.637          	0.985
MS.282         	8.62           	0.908
MS.283         	8.602          	0.969
MS.284         	8.585          	0.802
MS.285         	8.57           	0.876
MS.286         	8.552          	0.906
MS.287         	8.535          	0.9
MS.288         	8.517          	0.854
MS.289         	8.5            	0.826
MS.290         	8.483          	0.818
MS.291         	8.467          	0.767
MS.292         	8.45           	0.814
MS.293         	8.432          	0.761
MS.294         	8.415          	0.667
MS.295         	8.4            	0.679
MS.296         	8.382          	0.729
MS.297         	8.365          	0.679
MS.298         	8.35           	0.731
MS.299         	8.332          	0.683
MS.300         	8.315          	0.715
MS.301         	8.3            	0.632
MS.302         	8.283          	0.582
MS.303         	8.265          	0.649
MS.304         	8.25           	0.709
MS.305         	8.233          	0.661
MS.306         	8.217          	0.608
MS.307         	8.2            	0.596
MS.308         	8.182          	0.643
MS.309         	8.167          	0.572
MS.310         	8.15           	0.596
MS.311         	8.135          	0.624
MS.312         	8.117          	0.556
MS.313         	8.102          	0.576
MS.314         	8.085          	0.614
MS.315         	8.07           	0.636
MS.316         	8.055          	0.56
MS.317         	8.037          	0.562
MS.318         	8.023          	0.616
MS.319         	8.005          	0.546
MS.320         	7.99           	0.5
MS.321         	7.972          	0.63
MS.322         	7.957          	0.556
MS.323         	7.942          	0.514
MS.324         	7.925          	0.385
MS.325         	7.91           	0.481
MS.326         	7.895          	0.441
MS.327         	7.878          	0.489
MS.328         	7.862          	0.56
MS.329         	7.847          	0.477
MS.330         	7.832          	0.487
MS.331         	7.815          	0.475
MS.332         	7.8            	0.431
MS.333         	7.785          	0.479
MS.334         	7.77           	0.443
MS.335         	7.753          	0.445
MS.336         	7.737          	0.439
MS.337         	7.722          	0.461
MS.338         	7.707          	0.443
MS.339         	7.692          	0.3
MS.340         	7.677          	0.389
MS.341         	7.66           	0.395
MS.342         	7.645          	0.35
MS.343         	7.63           	0.28
MS.344         	7.615          	0.312
MS.345         	7.6            	0.312
MS.346         	7.585          	0.359
MS.347         	7.57           	0.322
MS.348         	7.555          	0.369
MS.349         	7.54           	0.187
MS.350         	7.525          	0.209
MS.351         	7.51           	0.22
MS.352         	7.495          	0.236
MS.353         	7.48           	0.22
MS.354         	7.465          	0.31
MS.355         	7.45           	0.157
MS.356         	7.435          	0.173
MS.357         	7.42           	0.169
MS.358         	7.405          	0.173
MS.359         	7.39           	0.23
MS.360         	7.375          	0.205
MS.361         	7.36           	0.163
MS.362         	7.345          	0.165
MS.363         	7.33           	0.157
MS.364         	7.317          	0.167
MS.365         	7.302          	0.171
MS.366         	7.287          	0.159
MS.367         	7.273          	0.165
MS.368         	7.257          	0.171
MS.369         	7.245          	0.175
MS.370         	7.23           	0.177
MS.371         	7.215          	0.177
MS.372         	7.2            	0.173
MS.373         	7.185          	0.151
MS.374         	7.172          	0.145
MS.375         	7.157          	0.177
MS.376         	7.142          	0.165
MS.377         	7.13           	0.185
MS.378         	7.115          	0.167
MS.379         	7.1            	0.145
MS.380         	7.085          	0.155
MS.381         	7.072          	0.165
MS.382         	7.057          	0.163
MS.383         	7.045          	0.163
MS.384         	7.03           	0.147
MS.385         	7.015          	0.159
MS.386         	7.003          	0.129
MS.387         	6.987          	0.157
MS.388         	6.972          	0.187
MS.389         	6.96           	0.163
MS.390         	6.945          	0.153
MS.391         	6.932          	0.149
MS.392         	6.918          	0.145
MS.393         	6.905          	0.145
MS.394         	6.89           	0.159
MS.395         	6.878          	0.155
MS.396         	6.862          	0.163
MS.397         	6.85           	0.145
MS.398         	6.835          	0.147
MS.399         	6.822          	0.143
MS.400         	6.807          	0.149
MS.401         	6.795          	0.153
MS.402         	6.78           	0.153
MS.403         	6.767          	0.141
MS.404         	6.755          	0.153
MS.405         	6.74           	0.145
MS.406         	6.727          	0.145
MS.407         	6.712          	0.137
MS.408         	6.7            	0.133
MS.409         	6.688          	0.147
MS.410         	6.672          	0.117
MS.411         	6.66           	0.135
MS.412         	6.648          	0.139
MS.413         	6.632          	0.149
MS.414         	6.62           	0.143
MS.415         	6.608          	0.145
MS.416         	6.595          	0.139
MS.417         	6.58           	0.143
MS.418         	6.567          	0.119
MS.419         	6.555          	0.127
MS.420         	6.543          	0.097
MS.421         	6.527          	0.143
MS.422         	6.515          	0.091
MS.423         	6.503          	0.07
MS.424         	6.49           	0.123
MS.425         	6.477          	0.129
MS.426         	6.462          	0.099
MS.427         	6.45           	0.109
MS.428         	6.438          	0.079
MS.429         	6.425          	0.115
MS.430         	6.412          	0.095
MS.431         	6.4            	0.095
MS.432         	6.385          	0.115
MS.433         	6.372          	0.036
MS.434         	6.36           	0.097
MS.435         	6.347          	0.093
DERIVED EXCITABILITY VARIABLES
Program = QTracP 3/4/2020
Threshold method = 6 (optimised for CAP, using data for present condition only)
SR method = 1 (using actual data values)
6.                 	0.000               	Peak response\(mV)
9.                 	34.3                	Temperature ( C)
17.                	59                  	Age (years)
18.                	1                   	Sex (M=1, F=2)

EXTRA VARIABLES

MScPeak(mV) = 12.17
MScS5(mA) = 8.12
MScS50(mA) = 11.32
MScS95(mA) = 13.37
MScNSteps = 3
MScSteps(%) = 7.2
MScStepMax(%) = 2.6
MScD50 = 49
MScSlope = 4.96
MSFPeakAmp(mV) = 12.2
MSFNUnits = 147
MSFMeanUnitAmp(uV) = 83
MSFHuntTime(m) = 1.85
MSFError(%) = 4.37
MSFNLarge = 40.88
MSFMedianAmp(%) = 0.54
MSFMedianAmp(mV) = 0.066
MSFHalfAmpAmp(%) = 0.785
MSFHalfAmpAmp(mV) = 0.0959
MSFLargestAmp(%) = 3.76
MSFLargestAmp(mV) = 0.459
MSFMeanRS(%) = 2
MSFOpts = 10106121
MScDuration(min) = 3.9
MSFTraces = 373
MSFSizeLimit(uV) = 30.5
MSFLimitType = 1
MSFSmallestAmp(uV) = 33.3

EXTRA WAVEFORMS


!MScan Model
!147
	1	7.41	0.38	2
	2	7.56	0.72	2
	3	7.66	0.63	2
	4	7.72	0.59	2
	5	7.94	0.77	2
	6	8.01	0.27	2
	7	8.17	0.57	2
	8	8.35	0.64	2
	9	8.44	0.54	2
	10	8.49	0.35	2
	11	8.55	0.53	2
	12	8.59	0.36	2
	13	8.63	0.36	2
	14	8.67	0.31	2
	15	8.71	0.47	2
	16	8.75	0.64	2
	17	8.8	0.54	2
	18	8.84	0.34	2
	19	8.86	0.33	2
	20	8.9	0.6	2
	21	8.95	0.47	2
	22	9	0.46	2
	23	9.03	0.28	2
	24	9.05	0.3	2
	25	9.08	0.37	2
	26	9.11	0.33	2
	27	9.15	0.36	2
	28	9.19	0.45	2
	29	9.25	0.53	2
	30	9.31	0.55	2
	31	9.34	0.4	2
	32	9.4	0.52	2
	33	9.44	0.46	2
	34	9.49	0.42	2
	35	9.54	0.53	2
	36	9.59	0.56	2
	37	9.63	0.42	2
	38	9.67	0.47	2
	39	9.69	0.33	2
	40	9.72	0.43	2
	41	9.75	0.55	2
	42	9.77	0.52	2
	43	9.8	0.41	2
	44	9.82	0.28	2
	45	9.85	0.5	2
	46	9.87	0.35	2
	47	9.93	1.13	2
	48	10.01	1.02	2
	49	10.1	1.55	2
	50	10.14	0.58	2
	51	10.18	0.36	2
	52	10.2	0.56	2
	53	10.22	0.29	2
	54	10.23	0.29	2
	55	10.24	0.28	2
	56	10.25	0.27	2
	57	10.27	0.29	2
	58	10.28	0.3	2
	59	10.29	0.39	2
	60	10.3	0.39	2
	61	10.32	0.39	2
	62	10.38	1.6	2
	63	10.42	0.75	2
	64	10.45	0.57	2
	65	10.49	0.75	2
	66	10.52	0.83	2
	67	10.55	0.72	2
	68	10.57	0.67	2
	69	10.6	0.79	2
	70	10.62	0.79	2
	71	10.65	0.9	2
	72	10.68	0.93	2
	73	10.71	0.8	2
	74	10.75	0.81	2
	75	10.85	1.04	2
	76	10.95	1.69	2
	77	11	0.72	2
	78	11.04	0.69	2
	79	11.06	0.39	2
	80	11.08	0.34	2
	81	11.1	0.3	2
