File:              	C:\Qtrac\Data\Daniel M Sørensen\MScan multicentre study\Data from centres\Oslo\IronKey\Oslo_NC_first examination\SZC00706B.QZD
Name:              	NO.OSL.NC.24.1
Protocol:          	MSCAN-R2
Date:              	6/7/20
Start time:        	15:35:53
Age:               	24
Sex:               	M
Temperature:       	26.6
S/R sites:         	Ulnar Wr-ADM
NC/disease:        	NC24
Operator:          	SZ
Comments:          	Test1. muscleart.painful
M-SCAN DATA (5.7-3.2m)
Scanpts: 1, 4, 256, 260
Stim. (mA)     	Amp. (mV)
MS.1           	23             	11.789
MS.2           	23             	11.817
MS.3           	23             	11.799
MS.4           	23             	11.793
MS.5           	23             	11.833
MS.6           	23             	11.781
MS.7           	23             	11.793
MS.8           	23             	11.716
MS.9           	23             	11.694
MS.10          	23             	11.666
MS.11          	23             	11.624
MS.12          	23             	11.616
MS.13          	23             	11.533
MS.14          	23             	11.43
MS.15          	23             	11.396
MS.16          	23             	11.477
MS.17          	23             	11.451
MS.18          	23             	11.43
MS.19          	23             	11.408
MS.20          	23             	11.318
MS.21          	23             	11.263
MS.22          	23             	11.263
MS.23          	23             	11.461
MS.24          	22.862         	11.467
MS.25          	22.817         	11.34
MS.26          	22.77          	11.299
MS.27          	22.725         	11.334
MS.28          	22.68          	11.032
MS.29          	22.635         	10.955
MS.30          	22.59          	10.868
MS.31          	22.545         	10.957
MS.32          	22.5           	11.104
MS.33          	22.455         	10.858
MS.34          	22.41          	10.806
MS.35          	22.365         	10.798
MS.36          	22.32          	10.802
MS.37          	22.275         	10.651
MS.38          	22.23          	10.679
MS.39          	22.188         	10.74
MS.40          	22.142         	10.675
MS.41          	22.097         	10.685
MS.42          	22.055         	10.395
MS.43          	22.01          	10.421
MS.44          	21.965         	10.341
MS.45          	21.922         	10.456
MS.46          	21.877         	10.425
MS.47          	21.835         	10.534
MS.48          	21.79          	10.415
MS.49          	21.747         	10.554
MS.50          	21.705         	10.526
MS.51          	21.66          	10.516
MS.52          	21.618         	10.512
MS.53          	21.575         	10.453
MS.54          	21.53          	10.415
MS.55          	21.487         	10.415
MS.56          	21.445         	10.282
MS.57          	21.403         	10.268
MS.58          	21.36          	10.234
MS.59          	21.317         	10.312
MS.60          	21.275         	10.399
MS.61          	21.233         	10.377
MS.62          	21.19          	10.073
MS.63          	21.147         	10.331
MS.64          	21.105         	10.169
MS.65          	21.062         	10.25
MS.66          	21.02          	10.155
MS.67          	20.977         	9.898
MS.68          	20.938         	10.055
MS.69          	20.895         	10.121
MS.70          	20.852         	10.063
MS.71          	20.81          	10.033
MS.72          	20.77          	10
MS.73          	20.727         	9.859
MS.74          	20.688         	9.686
MS.75          	20.645         	9.799
MS.76          	20.605         	9.877
MS.77          	20.562         	9.63
MS.78          	20.522         	9.593
MS.79          	20.48          	9.606
MS.80          	20.44          	9.418
MS.81          	20.4           	9.185
MS.82          	20.358         	9.303
MS.83          	20.317         	9.068
MS.84          	20.278         	8.884
MS.85          	20.237         	9.227
MS.86          	20.195         	8.758
MS.87          	20.155         	8.494
MS.88          	20.115         	8.552
MS.89          	20.075         	8.036
MS.90          	20.035         	7.855
MS.91          	19.995         	8.216
MS.92          	19.955         	7.793
MS.93          	19.915         	8.095
MS.94          	19.875         	7.887
MS.95          	19.835         	7.755
MS.96          	19.795         	7.676
MS.97          	19.757         	7.299
MS.98          	19.717         	7.203
MS.99          	19.677         	7.096
MS.100         	19.637         	7.217
MS.101         	19.6           	6.933
MS.102         	19.56          	6.568
MS.103         	19.52          	6.363
MS.104         	19.483         	6.508
MS.105         	19.442         	6.469
MS.106         	19.405         	6.556
MS.107         	19.365         	6.137
MS.108         	19.327         	6.226
MS.109         	19.288         	6.2
MS.110         	19.25          	6.157
MS.111         	19.21          	6.165
MS.112         	19.172         	5.94
MS.113         	19.135         	5.273
MS.114         	19.095         	5.366
MS.115         	19.057         	5.265
MS.116         	19.02          	5.499
MS.117         	18.983         	5.551
MS.118         	18.945         	5.18
MS.119         	18.905         	5.487
MS.120         	18.868         	4.788
MS.121         	18.83          	4.886
MS.122         	18.792         	4.576
MS.123         	18.755         	4.884
MS.124         	18.717         	4.749
MS.125         	18.68          	4.415
MS.126         	18.642         	4.608
MS.127         	18.605         	3.883
MS.128         	18.57          	4.218
MS.129         	18.532         	4.3
MS.130         	18.495         	4.663
MS.131         	18.458         	4.479
MS.132         	18.42          	3.972
MS.133         	18.385         	3.996
MS.134         	18.347         	4.246
MS.135         	18.31          	4.101
MS.136         	18.275         	3.994
MS.137         	18.237         	3.543
MS.138         	18.202         	3.499
MS.139         	18.165         	3.863
MS.140         	18.128         	3.521
MS.141         	18.092         	3.7
MS.142         	18.055         	3.501
MS.143         	18.02          	3.595
MS.144         	17.985         	3.517
MS.145         	17.948         	3.329
MS.146         	17.913         	3.636
MS.147         	17.878         	3.509
MS.148         	17.84          	3.47
MS.149         	17.805         	3.472
MS.150         	17.77          	3.102
MS.151         	17.735         	2.224
MS.152         	17.698         	2.641
MS.153         	17.663         	2.23
MS.154         	17.628         	2.175
MS.155         	17.592         	2.085
MS.156         	17.557         	1.791
MS.157         	17.522         	1.905
MS.158         	17.487         	1.851
MS.159         	17.452         	1.873
MS.160         	17.417         	1.704
MS.161         	17.382         	1.666
MS.162         	17.347         	1.511
MS.163         	17.312         	1.446
MS.164         	17.28          	1.708
MS.165         	17.245         	1.486
MS.166         	17.21          	1.184
MS.167         	17.175         	1.364
MS.168         	17.142         	1.241
MS.169         	17.108         	1.331
MS.170         	17.073         	1.259
MS.171         	17.04          	1.394
MS.172         	17.005         	1.017
MS.173         	16.97          	1.204
MS.174         	16.938         	1.065
MS.175         	16.903         	1.15
MS.176         	16.87          	1.053
MS.177         	16.835         	1.007
MS.178         	16.802         	0.826
MS.179         	16.767         	0.991
MS.180         	16.735         	0.878
MS.181         	16.702         	0.723
MS.182         	16.667         	0.943
MS.183         	16.635         	0.84
MS.184         	16.602         	0.86
MS.185         	16.567         	0.959
MS.186         	16.535         	0.749
MS.187         	16.503         	0.767
MS.188         	16.47          	0.606
MS.189         	16.438         	0.578
MS.190         	16.403         	0.681
MS.191         	16.37          	0.592
MS.192         	16.337         	0.632
MS.193         	16.305         	0.536
MS.194         	16.272         	0.55
MS.195         	16.24          	0.487
MS.196         	16.208         	0.467
MS.197         	16.175         	0.564
MS.198         	16.142         	0.439
MS.199         	16.11          	0.461
MS.200         	16.077         	0.393
MS.201         	16.047         	0.407
MS.202         	16.015         	0.316
MS.203         	15.983         	0.304
MS.204         	15.95          	0.447
MS.205         	15.917         	0.371
MS.206         	15.887         	0.367
MS.207         	15.855         	0.363
MS.208         	15.822         	0.34
MS.209         	15.792         	0.363
MS.210         	15.76          	0.304
MS.211         	15.73          	0.268
MS.212         	15.697         	0.306
MS.213         	15.665         	0.27
MS.214         	15.635         	0.25
MS.215         	15.602         	0.268
MS.216         	15.572         	0.238
MS.217         	15.54          	0.24
MS.218         	15.51          	0.23
MS.219         	15.48          	0.246
MS.220         	15.447         	0.222
MS.221         	15.417         	0.232
MS.222         	15.387         	0.236
MS.223         	15.355         	0.232
MS.224         	15.325         	0.226
MS.225         	15.295         	0.214
MS.226         	15.265         	0.203
MS.227         	15.233         	0.199
MS.228         	15.202         	0.181
MS.229         	15.172         	0.207
MS.230         	15.142         	0.201
MS.231         	15.112         	0.171
MS.232         	15.082         	0.187
MS.233         	15.052         	0.193
MS.234         	15.023         	0.159
MS.235         	14.992         	0.131
MS.236         	14.962         	0.109
MS.237         	14.932         	0.125
MS.238         	14.902         	0.139
MS.239         	14.872         	0.135
MS.240         	14.842         	0.167
MS.241         	14.812         	0.207
MS.242         	14.782         	0.175
MS.243         	14.752         	0.173
MS.244         	14.725         	0.177
MS.245         	14.695         	0.183
MS.246         	14.665         	0.189
MS.247         	14.635         	0.125
MS.248         	14.608         	0.183
MS.249         	14.577         	0.193
MS.250         	14.547         	0.165
MS.251         	14.52          	0.139
MS.252         	14.49          	0.187
MS.253         	14.462         	0.155
MS.254         	14.432         	0.187
MS.255         	14.405         	0.131
MS.256         	14.375         	0.085
MS.257         	14.347         	0.085
MS.258         	14.318         	0.06
MS.259         	14.29          	0.085
MS.260         	14.26          	0.058
MS.261         	14.233         	0.07
MS.262         	14.202         	0.068
MS.263         	14.175         	0.085
MS.264         	14.148         	0.066
MS.265         	14.117         	0.079
MS.266         	14.09          	0.07
MS.267         	14.062         	0.064
MS.268         	14.035         	0.169
MS.269         	14.005         	0.079
MS.270         	13.977         	0.052
MS.271         	13.95          	0.07
MS.272         	13.922         	0.034
MS.273         	13.895         	0.05
MS.274         	13.867         	0.079
MS.275         	13.84          	0.226
MS.276         	13.812         	0.244
MS.277         	13.785         	0.262
MS.278         	13.755         	0.246
MS.279         	13.727         	0.232
MS.280         	13.702         	0.209
MS.281         	13.675         	0.258
MS.282         	13.648         	0.216
MS.283         	13.62          	0.205
MS.284         	13.592         	0.179
MS.285         	13.565         	0.236
MS.286         	13.537         	0.145
MS.287         	13.51          	0.147
MS.288         	13.485         	0.24
MS.289         	13.457         	0.147
MS.290         	13.43          	0.165
MS.291         	13.403         	0.165
MS.292         	13.377         	0.169
MS.293         	13.35          	0.153
MS.294         	13.322         	0.157
DERIVED EXCITABILITY VARIABLES
Program = QTracP 3/4/2020
Threshold method = 6 (optimised for CAP, using data for present condition only)
SR method = 1 (using actual data values)
6.                 	0.000               	Peak response\(mV)
9.                 	26.6                	Temperature ( C)
17.                	24                  	Age (years)
18.                	1                   	Sex (M=1, F=2)

EXTRA VARIABLES

MScPeak(mV) = 11.4
MScS5(mA) = 16.32
MScS50(mA) = 19.16
MScS95(mA) = 22.43
MScNSteps = 4
MScSteps(%) = 13.3
MScStepMax(%) = 4
MScD50 = 30
MScSlope = 8.08
MSFPeakAmp(mV) = 11.7
MSFNUnits = 153
MSFMeanUnitAmp(uV) = 76.6
MSFHuntTime(m) = 1.98
MSFError(%) = 7.39
MSFNLarge = 48.17
MSFMedianAmp(%) = 0.547
MSFMedianAmp(mV) = 0.0641
MSFHalfAmpAmp(%) = 0.681
MSFHalfAmpAmp(mV) = 0.0798
MSFLargestAmp(%) = 3.97
MSFLargestAmp(mV) = 0.466
MSFMeanRS(%) = 1.99
MSFOpts = 10106121
MScDuration(min) = 2.5
MSFTraces = 260
MSFSizeLimit(uV) = 29.3
MSFLimitType = 1
MSFSmallestAmp(uV) = 31

EXTRA WAVEFORMS


!MScan Model
!153
	1	14.34	0.74	2
	2	15.25	0.4	2
	3	15.58	0.43	2
	4	15.69	0.31	2
	5	15.83	0.32	2
	6	15.93	0.37	2
	7	16.09	0.65	2
	8	16.2	0.44	2
	9	16.27	0.37	2
	10	16.36	0.54	2
	11	16.42	0.41	2
	12	16.47	0.42	2
	13	16.56	0.62	2
	14	16.65	0.57	2
	15	16.75	0.92	2
	16	16.84	0.64	2
	17	16.91	0.51	2
	18	16.98	0.53	2
	19	17.05	0.68	2
	20	17.11	0.68	2
	21	17.16	0.46	2
	22	17.19	0.32	2
	23	17.23	0.37	2
	24	17.26	0.41	2
	25	17.3	0.42	2
	26	17.34	0.57	2
	27	17.4	0.97	2
	28	17.45	0.94	2
	29	17.5	0.73	2
	30	17.52	0.4	2
	31	17.54	0.4	2
	32	17.57	0.67	2
	33	17.59	1.01	2
	34	17.62	0.98	2
	35	17.64	0.93	2
	36	17.66	0.91	2
	37	17.7	1.29	2
	38	17.74	0.76	2
	39	17.77	0.84	2.4
	40	17.92	2.41	2
	41	18.06	3.97	1.6
	42	18.15	1.29	2
	43	18.26	1.29	2
	44	18.38	1.46	2
	45	18.54	2.61	2
	46	18.61	0.86	2
	47	18.67	0.88	2
	48	18.72	1.15	2
	49	18.77	1.08	2
	50	18.82	0.82	2
	51	18.86	0.71	2
	52	18.91	0.97	2
	53	18.95	0.98	2
	54	18.99	0.91	2
	55	19.04	0.97	2
	56	19.08	1.04	2
	57	19.12	0.98	2
	58	19.16	0.9	2
	59	19.2	0.65	2
	60	19.23	0.52	2
	61	19.27	0.72	2
	62	19.31	0.86	2
	63	19.34	0.62	2
	64	19.36	0.45	2
	65	19.38	0.45	2
	66	19.4	0.45	2
	67	19.42	0.56	2
	68	19.44	0.61	2
	69	19.46	0.56	2
	70	19.48	0.55	2
	71	19.5	0.48	2
	72	19.52	0.46	2
	73	19.53	0.28	2
	74	19.54	0.27	2
	75	19.56	0.27	2
	76	19.58	0.5	2
	77	19.6	0.5	2
	78	19.62	0.26	2
	79	19.63	0.26	2
	80	19.64	0.28	2
	81	19.65	0.35	2
	82	19.66	0.35	2
	83	19.68	0.35	2
	84	19.69	0.35	2
	85	19.7	0.35	2
	86	19.71	0.35	2
	87	19.73	0.51	2
	88	19.75	0.65	2
	89	19.77	0.65	2
	90	19.8	0.65	2
	91	19.82	0.52	2
	92	19.84	0.52	2
	93	19.86	0.52	2
	94	19.89	0.52	2
	95	19.91	0.52	2
	96	19.93	0.55	2
	97	19.95	0.56	2
	98	19.98	0.69	2
	99	20	0.69	2
	100	20.03	0.69	2
	101	20.05	0.63	2
	102	20.07	0.6	2
	103	20.1	0.6	2
	104	20.12	0.56	2
	105	20.14	0.46	2
	106	20.16	0.46	2
	107	20.17	0.46	2
	108	20.19	0.46	2
	109	20.21	0.39	2
	110	20.23	0.37	2
	111	20.25	0.38	2
	112	20.27	0.38	2
	113	20.28	0.42	2
	114	20.3	0.49	2
	115	20.32	0.54	2
	116	20.35	0.84	2
	117	20.38	0.78	2
	118	20.42	0.79	2
	119	20.45	0.74	2
	120	20.48	0.48	2
	121	20.51	0.48	2
	122	20.55	0.57	2
	123	20.59	0.64	2
	124	20.63	0.57	2
	125	20.67	0.5	2
	126	20.71	0.43	2
	127	20.77	0.55	2
	128	20.84	0.64	2
	129	20.91	0.53	2
	130	21.05	0.99	2
	131	21.23	0.92	2
	132	21.39	0.79	2
	133	21.54	0.49	2
	134	21.93	0.72	2
	135	22.18	0.6	2
	136	22.22	0.4	2
	137	22.27	0.41	2
	138	22.32	0.41	2
	139	22.37	0.38	2
	140	22.41	0.38	2
	141	22.46	0.4	2
	142	22.53	0.5	2
	143	22.59	0.49	2
	144	22.65	0.54	2
	145	22.74	0.76	2
	146	22.85	0.62	2
	147	22.92	0.67	2
	148	23.03	1.15	2
	149	23.24	0.78	2
	150	23.33	0.48	2
	151	23.41	0.45	2
	152	23.52	0.44	2
	153	23.57	0.29	2

