File:              	C:\Qtrac\Data\Daniel M Sørensen\MScan multicentre study\Data from centres\Oslo\Processed data\SZC00511B.QZD
Name:              	NO.OSL.NC.4.2
Protocol:          	MSCAN-R2
Date:              	11/5/20
Start time:        	16:19:00
Age:               	39
Sex:               	F
Temperature:
S/R sites:         	ADM
NC/disease:        	NC4
Operator:          	SZ
Comments:          	Test2 temp 30.9
M-SCAN DATA (17-12.6m)
Scanpts: 75, 80, 462, 466
Stim. (mA)     	Amp. (mV)
MS.1           	17.5           	11.171
MS.2           	17.5           	11.195
MS.3           	17.5           	11.193
MS.4           	17.5           	11.219
MS.5           	17.5           	11.227
MS.6           	17.5           	11.267
MS.7           	17.5           	11.259
MS.8           	17.5           	11.269
MS.9           	17.5           	11.305
MS.10          	17.5           	11.366
MS.11          	17.5           	11.382
MS.12          	17.5           	11.362
MS.13          	17.5           	11.334
MS.14          	17.5           	11.386
MS.15          	17.5           	11.37
MS.16          	17.5           	11.406
MS.17          	17.5           	11.461
MS.18          	17.5           	11.463
MS.19          	17.5           	11.495
MS.20          	17.5           	11.465
MS.21          	17.5           	11.465
MS.22          	17.5           	11.438
MS.23          	17.5           	11.438
MS.24          	17.395         	11.487
MS.25          	17.36          	11.525
MS.26          	17.325         	11.485
MS.27          	17.29          	11.519
MS.28          	17.257         	11.507
MS.29          	17.222         	11.501
MS.30          	17.188         	11.511
MS.31          	17.153         	11.531
MS.32          	17.12          	11.541
MS.33          	17.085         	11.539
MS.34          	17.05          	11.531
MS.35          	17.017         	11.527
MS.36          	16.983         	11.565
MS.37          	16.95          	11.563
MS.38          	16.915         	11.535
MS.39          	16.88          	11.525
MS.40          	16.847         	11.551
MS.41          	16.812         	11.575
MS.42          	16.78          	11.539
MS.43          	16.747         	11.491
MS.44          	16.712         	11.551
MS.45          	16.68          	11.563
MS.46          	16.647         	11.521
MS.47          	16.612         	11.569
MS.48          	16.58          	11.545
MS.49          	16.547         	11.575
MS.50          	16.515         	11.571
MS.51          	16.48          	11.579
MS.52          	16.448         	11.545
MS.53          	16.415         	11.501
MS.54          	16.382         	11.571
MS.55          	16.35          	11.547
MS.56          	16.317         	11.555
MS.57          	16.285         	11.519
MS.58          	16.253         	11.529
MS.59          	16.22          	11.523
MS.60          	16.188         	11.529
MS.61          	16.155         	11.551
MS.62          	16.122         	11.513
MS.63          	16.09          	11.563
MS.64          	16.057         	11.541
MS.65          	16.025         	11.537
MS.66          	15.992         	11.513
MS.67          	15.962         	11.535
MS.68          	15.93          	11.579
MS.69          	15.898         	11.587
MS.70          	15.867         	11.511
MS.71          	15.835         	11.521
MS.72          	15.802         	11.487
MS.73          	15.773         	11.521
MS.74          	15.74          	11.469
MS.75          	15.707         	11.533
MS.76          	15.677         	11.477
MS.77          	15.645         	11.555
MS.78          	15.615         	11.479
MS.79          	15.582         	11.521
MS.80          	15.552         	11.529
MS.81          	15.52          	11.529
MS.82          	15.49          	11.525
MS.83          	15.46          	11.519
MS.84          	15.427         	11.493
MS.85          	15.398         	11.489
MS.86          	15.367         	11.545
MS.87          	15.335         	11.555
MS.88          	15.305         	11.531
MS.89          	15.275         	11.519
MS.90          	15.245         	11.537
MS.91          	15.212         	11.483
MS.92          	15.182         	11.485
MS.93          	15.152         	11.457
MS.94          	15.122         	11.581
MS.95          	15.092         	11.523
MS.96          	15.062         	11.515
MS.97          	15.032         	11.453
MS.98          	15.002         	11.487
MS.99          	14.972         	11.519
MS.100         	14.943         	11.511
MS.101         	14.912         	11.465
MS.102         	14.882         	11.501
MS.103         	14.852         	11.495
MS.104         	14.822         	11.559
MS.105         	14.792         	11.531
MS.106         	14.765         	11.513
MS.107         	14.735         	11.453
MS.108         	14.705         	11.517
MS.109         	14.675         	11.41
MS.110         	14.648         	11.382
MS.111         	14.617         	11.31
MS.112         	14.587         	11.392
MS.113         	14.56          	11.499
MS.114         	14.53          	11.555
MS.115         	14.5           	11.432
MS.116         	14.472         	11.412
MS.117         	14.443         	11.273
MS.118         	14.415         	11.376
MS.119         	14.385         	11.39
MS.120         	14.358         	11.364
MS.121         	14.327         	11.326
MS.122         	14.3           	11.249
MS.123         	14.27          	11.177
MS.124         	14.242         	11.225
MS.125         	14.212         	11.177
MS.126         	14.185         	11.167
MS.127         	14.157         	11.126
MS.128         	14.127         	11.142
MS.129         	14.1           	11.074
MS.130         	14.072         	11.269
MS.131         	14.045         	10.941
MS.132         	14.015         	10.959
MS.133         	13.987         	11.088
MS.134         	13.96          	11.07
MS.135         	13.932         	11.07
MS.136         	13.905         	11.07
MS.137         	13.877         	11.096
MS.138         	13.85          	11.019
MS.139         	13.82          	10.838
MS.140         	13.792         	10.885
MS.141         	13.765         	10.951
MS.142         	13.737         	10.84
MS.143         	13.71          	11.036
MS.144         	13.682         	10.887
MS.145         	13.655         	10.838
MS.146         	13.63          	10.834
MS.147         	13.602         	10.699
MS.148         	13.575         	10.653
MS.149         	13.547         	10.816
MS.150         	13.52          	10.876
MS.151         	13.492         	10.731
MS.152         	13.467         	10.86
MS.153         	13.44          	10.723
MS.154         	13.412         	10.707
MS.155         	13.385         	10.78
MS.156         	13.36          	10.693
MS.157         	13.332         	10.764
MS.158         	13.305         	10.772
MS.159         	13.28          	10.605
MS.160         	13.252         	10.633
MS.161         	13.225         	10.631
MS.162         	13.2           	10.58
MS.163         	13.172         	10.425
MS.164         	13.148         	10.611
MS.165         	13.12          	10.542
MS.166         	13.095         	10.321
MS.167         	13.068         	10.54
MS.168         	13.042         	10.425
MS.169         	13.015         	10.256
MS.170         	12.99          	10.254
MS.171         	12.965         	10.359
MS.172         	12.938         	10.264
MS.173         	12.912         	10.081
MS.174         	12.887         	10.016
MS.175         	12.86          	10.107
MS.176         	12.835         	10.105
MS.177         	12.81          	9.801
MS.178         	12.785         	9.696
MS.179         	12.757         	9.982
MS.180         	12.733         	9.718
MS.181         	12.707         	9.857
MS.182         	12.682         	9.809
MS.183         	12.657         	9.694
MS.184         	12.632         	9.644
MS.185         	12.608         	9.531
MS.186         	12.58          	9.525
MS.187         	12.555         	9.604
MS.188         	12.53          	9.565
MS.189         	12.505         	9.632
MS.190         	12.48          	9.527
MS.191         	12.455         	9.465
MS.192         	12.43          	9.527
MS.193         	12.405         	9.106
MS.194         	12.382         	9.217
MS.195         	12.358         	9.058
MS.196         	12.332         	9.13
MS.197         	12.307         	8.901
MS.198         	12.282         	9.156
MS.199         	12.257         	8.856
MS.200         	12.233         	8.695
MS.201         	12.21          	8.731
MS.202         	12.185         	8.818
MS.203         	12.16          	8.51
MS.204         	12.135         	8.846
MS.205         	12.113         	8.623
MS.206         	12.087         	8.568
MS.207         	12.062         	8.222
MS.208         	12.04          	8.592
MS.209         	12.015         	8.367
MS.210         	11.992         	8.405
MS.211         	11.967         	8.26
MS.212         	11.943         	8.115
MS.213         	11.92          	8.117
MS.214         	11.895         	7.938
MS.215         	11.872         	7.815
MS.216         	11.847         	7.952
MS.217         	11.825         	7.44
MS.218         	11.8           	7.684
MS.219         	11.778         	7.174
MS.220         	11.755         	7.569
MS.221         	11.73          	7.513
MS.222         	11.707         	7.525
MS.223         	11.682         	6.995
MS.224         	11.66          	7.241
MS.225         	11.637         	7.174
MS.226         	11.615         	6.959
MS.227         	11.59          	6.806
MS.228         	11.568         	6.721
MS.229         	11.545         	6.856
MS.230         	11.523         	6.693
MS.231         	11.497         	6.49
MS.232         	11.475         	6.685
MS.233         	11.452         	6.55
MS.234         	11.43          	6.083
MS.235         	11.407         	6.582
MS.236         	11.385         	6.26
MS.237         	11.36          	6.324
MS.238         	11.337         	6.032
MS.239         	11.315         	6.226
MS.240         	11.292         	5.849
MS.241         	11.27          	5.984
MS.242         	11.247         	5.684
MS.243         	11.225         	5.547
MS.244         	11.202         	5.444
MS.245         	11.18          	5.378
MS.246         	11.157         	5.279
MS.247         	11.135         	5.18
MS.248         	11.115         	4.919
MS.249         	11.092         	5.249
MS.250         	11.07          	5.14
MS.251         	11.047         	4.61
MS.252         	11.025         	5.007
MS.253         	11.002         	4.453
MS.254         	10.983         	4.463
MS.255         	10.96          	4.506
MS.256         	10.938         	4.429
MS.257         	10.915         	4.395
MS.258         	10.895         	4.055
MS.259         	10.872         	4.461
MS.260         	10.85          	3.994
MS.261         	10.827         	4.228
MS.262         	10.807         	3.734
MS.263         	10.785         	3.511
MS.264         	10.765         	3.4
MS.265         	10.742         	3.392
MS.266         	10.72          	3.293
MS.267         	10.7           	3.299
MS.268         	10.677         	3.531
MS.269         	10.657         	3.376
MS.270         	10.635         	3.203
MS.271         	10.615         	3.176
MS.272         	10.592         	3.08
MS.273         	10.573         	3.36
MS.274         	10.55          	2.923
MS.275         	10.53          	2.977
MS.276         	10.507         	2.741
MS.277         	10.488         	2.794
MS.278         	10.467         	2.417
MS.279         	10.445         	2.349
MS.280         	10.425         	2.25
MS.281         	10.405         	2.268
MS.282         	10.382         	2.673
MS.283         	10.363         	2.085
MS.284         	10.342         	2.03
MS.285         	10.32          	1.968
MS.286         	10.3           	1.944
MS.287         	10.28          	2.151
MS.288         	10.26          	1.825
MS.289         	10.24          	2.014
MS.290         	10.217         	1.891
MS.291         	10.198         	1.831
MS.292         	10.177         	1.718
MS.293         	10.157         	1.686
MS.294         	10.137         	1.676
MS.295         	10.117         	1.621
MS.296         	10.097         	1.579
MS.297         	10.077         	1.595
MS.298         	10.057         	1.291
MS.299         	10.035         	1.184
MS.300         	10.015         	1.321
MS.301         	9.995          	1.4
MS.302         	9.975          	1.184
MS.303         	9.955          	1.229
MS.304         	9.938          	1.223
MS.305         	9.917          	1.277
MS.306         	9.898          	1.059
MS.307         	9.877          	1.311
MS.308         	9.858          	1.007
MS.309         	9.837          	1.07
MS.310         	9.818          	1.277
MS.311         	9.797          	1.106
MS.312         	9.778          	1.126
MS.313         	9.76           	1.017
MS.314         	9.74           	0.924
MS.315         	9.72           	0.931
MS.316         	9.7            	0.949
MS.317         	9.682          	0.868
MS.318         	9.662          	0.945
MS.319         	9.642          	0.977
MS.320         	9.622          	0.824
MS.321         	9.605          	0.751
MS.322         	9.585          	0.896
MS.323         	9.565          	0.92
MS.324         	9.547          	0.781
MS.325         	9.528          	0.812
MS.326         	9.507          	0.794
MS.327         	9.49           	0.882
MS.328         	9.47           	0.784
MS.329         	9.452          	0.939
MS.330         	9.432          	0.667
MS.331         	9.415          	0.663
MS.332         	9.395          	0.824
MS.333         	9.377          	0.657
MS.334         	9.358          	0.733
MS.335         	9.34           	0.695
MS.336         	9.32           	0.626
MS.337         	9.302          	0.634
MS.338         	9.283          	0.701
MS.339         	9.265          	0.645
MS.340         	9.245          	0.673
MS.341         	9.227          	0.413
MS.342         	9.21           	0.596
MS.343         	9.19           	0.538
MS.344         	9.172          	0.574
MS.345         	9.155          	0.572
MS.346         	9.135          	0.568
MS.347         	9.117          	0.592
MS.348         	9.1            	0.598
MS.349         	9.08           	0.576
MS.350         	9.062          	0.54
MS.351         	9.045          	0.481
MS.352         	9.028          	0.443
MS.353         	9.01           	0.552
MS.354         	8.99           	0.54
MS.355         	8.972          	0.445
MS.356         	8.955          	0.497
MS.357         	8.938          	0.536
MS.358         	8.92           	0.489
MS.359         	8.903          	0.413
MS.360         	8.882          	0.435
MS.361         	8.865          	0.383
MS.362         	8.847          	0.389
MS.363         	8.83           	0.397
MS.364         	8.812          	0.411
MS.365         	8.795          	0.352
MS.366         	8.778          	0.393
MS.367         	8.76           	0.342
MS.368         	8.742          	0.342
MS.369         	8.725          	0.369
MS.370         	8.707          	0.369
MS.371         	8.69           	0.469
MS.372         	8.672          	0.361
MS.373         	8.655          	0.334
MS.374         	8.637          	0.276
MS.375         	8.62           	0.28
MS.376         	8.602          	0.32
MS.377         	8.587          	0.256
MS.378         	8.57           	0.282
MS.379         	8.552          	0.282
MS.380         	8.535          	0.272
MS.381         	8.517          	0.187
MS.382         	8.5            	0.266
MS.383         	8.485          	0.276
MS.384         	8.467          	0.218
MS.385         	8.45           	0.25
MS.386         	8.432          	0.272
MS.387         	8.417          	0.191
MS.388         	8.4            	0.189
MS.389         	8.382          	0.252
MS.390         	8.365          	0.181
MS.391         	8.35           	0.143
MS.392         	8.332          	0.183
MS.393         	8.315          	0.201
MS.394         	8.3            	0.189
MS.395         	8.283          	0.205
MS.396         	8.267          	0.135
MS.397         	8.25           	0.135
MS.398         	8.233          	0.189
MS.399         	8.217          	0.197
MS.400         	8.2            	0.143
MS.401         	8.185          	0.137
MS.402         	8.167          	0.187
MS.403         	8.153          	0.137
MS.404         	8.135          	0.133
MS.405         	8.12           	0.133
MS.406         	8.102          	0.133
MS.407         	8.087          	0.139
MS.408         	8.07           	0.143
MS.409         	8.055          	0.145
MS.410         	8.037          	0.131
MS.411         	8.023          	0.125
MS.412         	8.005          	0.127
MS.413         	7.99           	0.119
MS.414         	7.975          	0.125
MS.415         	7.957          	0.123
MS.416         	7.942          	0.115
MS.417         	7.927          	0.123
MS.418         	7.91           	0.137
MS.419         	7.895          	0.123
MS.420         	7.88           	0.125
MS.421         	7.862          	0.115
MS.422         	7.847          	0.123
MS.423         	7.832          	0.109
MS.424         	7.815          	0.125
MS.425         	7.8            	0.127
MS.426         	7.785          	0.111
MS.427         	7.77           	0.121
MS.428         	7.755          	0.113
MS.429         	7.737          	0.125
MS.430         	7.722          	0.129
MS.431         	7.707          	0.115
MS.432         	7.692          	0.107
MS.433         	7.677          	0.105
MS.434         	7.662          	0.119
MS.435         	7.645          	0.127
MS.436         	7.63           	0.111
MS.437         	7.615          	0.103
MS.438         	7.6            	0.119
MS.439         	7.585          	0.113
MS.440         	7.57           	0.119
MS.441         	7.555          	0.115
MS.442         	7.54           	0.121
MS.443         	7.525          	0.109
MS.444         	7.51           	0.105
MS.445         	7.495          	0.113
MS.446         	7.48           	0.111
MS.447         	7.465          	0.111
MS.448         	7.45           	0.014
MS.449         	7.435          	0.113
MS.450         	7.42           	0.107
MS.451         	7.405          	0.02
MS.452         	7.39           	0.105
MS.453         	7.375          	0.01
MS.454         	7.36           	0.014
MS.455         	7.347          	0.02
MS.456         	7.332          	0.014
MS.457         	7.317          	0.111
MS.458         	7.302          	0.113
MS.459         	7.287          	0.105
MS.460         	7.273          	0.109
MS.461         	7.257          	0.016
MS.462         	7.245          	0.016
MS.463         	7.23           	0.016
MS.464         	7.215          	0.016
MS.465         	7.2            	0.016
MS.466         	7.188          	0.02
MS.467         	7.172          	0.018
MS.468         	7.157          	0.03
MS.469         	7.142          	0.018
MS.470         	7.13           	0.016
MS.471         	7.115          	0.022
MS.472         	7.1            	0.018
MS.473         	7.087          	0.02
MS.474         	7.072          	0.018
MS.475         	7.057          	0.014
MS.476         	7.045          	0.123
MS.477         	7.03           	0.105
MS.478         	7.015          	0.107
MS.479         	7.003          	0.109
MS.480         	6.987          	0.101
MS.481         	6.975          	0.107
MS.482         	6.96           	0.016
MS.483         	6.945          	0.107
MS.484         	6.932          	0.006
MS.485         	6.918          	0.016
DERIVED EXCITABILITY VARIABLES
Program = QTracP 3/4/2020
Threshold method = 6 (optimised for CAP, using data for present condition only)
SR method = 1 (using actual data values)
6.                 	0.000               	Peak response\(mV)
17.                	39                  	Age (years)
18.                	2                   	Sex (M=1, F=2)

EXTRA VARIABLES

MScPeak(mV) = 11.29
MScS5(mA) = 9.18
MScS50(mA) = 11.24
