File:              	C:\Qtrac\Data\Daniel M Sørensen\MScan multicentre study\Data from centres\Oslo\IronKey\Oslo_NC_first examination\SZC00527B.QZD
Name:              	NO.OSL.NC.13.1
Protocol:          	MSCAN-R2
Date:              	27/5/20
Start time:        	16:33:03
Age:               	33
Sex:               	M
Temperature:       	32.7
S/R sites:         	Ulnar Wr-ADM
NC/disease:        	NC13
Operator:          	SZ
Comments:          	Test1
M-SCAN DATA (12.1-5.9m)
Scanpts: 26, 32, 637, 658
Stim. (mA)     	Amp. (mV)
MS.1           	27             	8.764
MS.2           	27             	8.78
MS.3           	27             	8.83
MS.4           	27             	8.864
MS.5           	27             	8.814
MS.6           	27             	8.824
MS.7           	27             	8.828
MS.8           	27             	8.848
MS.9           	27             	8.832
MS.10          	27             	8.86
MS.11          	27             	8.899
MS.12          	27             	8.939
MS.13          	27             	8.897
MS.14          	27             	8.903
MS.15          	27             	8.897
MS.16          	27             	8.921
MS.17          	27             	8.903
MS.18          	27             	8.965
MS.19          	27             	8.915
MS.20          	27             	8.933
MS.21          	27             	8.959
MS.22          	27             	8.975
MS.23          	27             	8.945
MS.24          	26.892         	8.905
MS.25          	26.837         	8.985
MS.26          	26.785         	8.971
MS.27          	26.73          	8.967
MS.28          	26.677         	8.991
MS.29          	26.625         	8.973
MS.30          	26.573         	8.993
MS.31          	26.517         	8.991
MS.32          	26.465         	8.943
MS.33          	26.412         	8.959
MS.34          	26.36          	8.919
MS.35          	26.307         	8.991
MS.36          	26.255         	8.955
MS.37          	26.202         	8.947
MS.38          	26.15          	8.903
MS.39          	26.097         	8.895
MS.40          	26.045         	8.965
MS.41          	25.993         	8.909
MS.42          	25.94          	8.971
MS.43          	25.89          	8.963
MS.44          	25.837         	8.961
MS.45          	25.785         	8.919
MS.46          	25.735         	8.973
MS.47          	25.682         	8.913
MS.48          	25.632         	8.874
MS.49          	25.58          	8.945
MS.50          	25.53          	9.027
MS.51          	25.477         	8.933
MS.52          	25.427         	8.723
MS.53          	25.377         	8.969
MS.54          	25.325         	8.681
MS.55          	25.275         	8.713
MS.56          	25.225         	8.741
MS.57          	25.175         	8.782
MS.58          	25.125         	8.75
MS.59          	25.075         	8.498
MS.60          	25.025         	8.701
MS.61          	24.975         	8.661
MS.62          	24.925         	8.685
MS.63          	24.875         	8.711
MS.64          	24.825         	8.695
MS.65          	24.775         	8.621
MS.66          	24.725         	8.681
MS.67          	24.675         	8.661
MS.68          	24.627         	8.476
MS.69          	24.577         	8.689
MS.70          	24.528         	8.457
MS.71          	24.48          	8.578
MS.72          	24.43          	8.476
MS.73          	24.382         	8.472
MS.74          	24.332         	8.482
MS.75          	24.285         	8.455
MS.76          	24.235         	8.353
MS.77          	24.188         	8.478
MS.78          	24.14          	8.494
MS.79          	24.09          	8.427
MS.80          	24.042         	8.387
MS.81          	23.995         	8.325
MS.82          	23.948         	8.357
MS.83          	23.9           	8.343
MS.84          	23.85          	8.401
MS.85          	23.802         	8.409
MS.86          	23.755         	8.375
MS.87          	23.707         	8.435
MS.88          	23.66          	8.383
MS.89          	23.615         	8.387
MS.90          	23.567         	8.383
MS.91          	23.52          	8.341
MS.92          	23.472         	8.399
MS.93          	23.425         	8.371
MS.94          	23.38          	8.369
MS.95          	23.332         	8.373
MS.96          	23.285         	8.427
MS.97          	23.24          	8.421
MS.98          	23.192         	8.389
MS.99          	23.145         	8.441
MS.100         	23.1           	8.401
MS.101         	23.055         	8.405
MS.102         	23.007         	8.355
MS.103         	22.962         	8.421
MS.104         	22.915         	8.425
MS.105         	22.87          	8.411
MS.106         	22.825         	8.451
MS.107         	22.78          	8.445
MS.108         	22.733         	8.423
MS.109         	22.688         	8.451
MS.110         	22.642         	8.437
MS.111         	22.597         	8.466
MS.112         	22.552         	8.435
MS.113         	22.507         	8.506
MS.114         	22.462         	8.423
MS.115         	22.417         	8.268
MS.116         	22.372         	8.427
MS.117         	22.327         	7.996
MS.118         	22.282         	8.051
MS.119         	22.237         	8.331
MS.120         	22.195         	7.974
MS.121         	22.15          	7.996
MS.122         	22.105         	7.73
MS.123         	22.062         	7.65
MS.124         	22.017         	8.067
MS.125         	21.972         	7.902
MS.126         	21.93          	7.525
MS.127         	21.885         	7.64
MS.128         	21.842         	7.579
MS.129         	21.797         	7.205
MS.130         	21.755         	7.597
MS.131         	21.712         	7.215
MS.132         	21.667         	7.825
MS.133         	21.625         	7.376
MS.134         	21.583         	7.209
MS.135         	21.538         	7.197
MS.136         	21.495         	7.182
MS.137         	21.452         	7.072
MS.138         	21.41          	7.221
MS.139         	21.368         	7.144
MS.140         	21.325         	7.112
MS.141         	21.282         	7.164
MS.142         	21.24          	7.191
MS.143         	21.198         	6.848
MS.144         	21.155         	6.991
MS.145         	21.112         	6.969
MS.146         	21.07          	6.993
MS.147         	21.028         	6.907
MS.148         	20.985         	7.295
MS.149         	20.942         	6.939
MS.150         	20.903         	6.576
MS.151         	20.86          	6.81
MS.152         	20.817         	6.758
MS.153         	20.778         	6.725
MS.154         	20.735         	6.786
MS.155         	20.695         	6.731
MS.156         	20.653         	6.427
MS.157         	20.61          	6.584
MS.158         	20.57          	6.467
MS.159         	20.53          	6.292
MS.160         	20.487         	6.272
MS.161         	20.448         	6.449
MS.162         	20.405         	6.383
MS.163         	20.365         	6.367
MS.164         	20.325         	6.431
MS.165         	20.285         	6.318
MS.166         	20.243         	5.97
MS.167         	20.202         	6.135
MS.168         	20.163         	5.944
MS.169         	20.122         	6.2
MS.170         	20.083         	6.123
MS.171         	20.042         	5.974
MS.172         	20.002         	6.202
MS.173         	19.962         	5.94
MS.174         	19.922         	5.819
MS.175         	19.882         	5.839
MS.176         	19.842         	5.781
MS.177         	19.802         	5.992
MS.178         	19.762         	5.875
MS.179         	19.725         	5.946
MS.180         	19.685         	5.775
MS.181         	19.645         	5.446
MS.182         	19.605         	5.756
MS.183         	19.567         	5.712
MS.184         	19.528         	5.434
MS.185         	19.487         	5.752
MS.186         	19.45          	5.773
MS.187         	19.41          	5.684
MS.188         	19.372         	5.694
MS.189         	19.333         	5.452
MS.190         	19.295         	5.456
MS.191         	19.255         	5.611
MS.192         	19.217         	5.269
MS.193         	19.18          	5.593
MS.194         	19.14          	5.152
MS.195         	19.102         	5.311
MS.196         	19.065         	5.201
MS.197         	19.028         	5.003
MS.198         	18.987         	5.182
MS.199         	18.95          	4.957
MS.200         	18.913         	5.041
MS.201         	18.875         	5.142
MS.202         	18.837         	5.303
MS.203         	18.8           	4.935
MS.204         	18.762         	5.007
MS.205         	18.725         	4.725
MS.206         	18.688         	4.977
MS.207         	18.65          	4.848
MS.208         	18.612         	4.892
MS.209         	18.575         	4.945
MS.210         	18.538         	5.09
MS.211         	18.5           	4.665
MS.212         	18.465         	4.637
MS.213         	18.427         	4.82
MS.214         	18.39          	4.763
MS.215         	18.352         	4.846
MS.216         	18.317         	4.419
MS.217         	18.28          	4.695
MS.218         	18.245         	4.812
MS.219         	18.208         	4.514
MS.220         	18.17          	4.647
MS.221         	18.135         	4.024
MS.222         	18.097         	4.496
MS.223         	18.062         	4.397
MS.224         	18.028         	4.592
MS.225         	17.99          	4.715
MS.226         	17.955         	4.703
MS.227         	17.917         	4.292
MS.228         	17.882         	4.282
MS.229         	17.847         	4.282
MS.230         	17.812         	3.936
MS.231         	17.775         	3.793
MS.232         	17.74          	3.748
MS.233         	17.705         	3.861
MS.234         	17.67          	3.976
MS.235         	17.635         	3.378
MS.236         	17.6           	3.668
MS.237         	17.562         	3.736
MS.238         	17.528         	3.603
MS.239         	17.493         	3.384
MS.240         	17.458         	3.541
MS.241         	17.422         	3.537
MS.242         	17.39          	3.585
MS.243         	17.355         	3.553
MS.244         	17.32          	3.529
MS.245         	17.285         	3.398
MS.246         	17.25          	3.559
MS.247         	17.215         	3.68
MS.248         	17.182         	3.281
MS.249         	17.147         	3.484
MS.250         	17.112         	3.39
MS.251         	17.077         	3.263
MS.252         	17.045         	3.223
MS.253         	17.01          	3.094
MS.254         	16.977         	3.196
MS.255         	16.942         	3.116
MS.256         	16.91          	3.057
MS.257         	16.875         	3.352
MS.258         	16.842         	3.106
MS.259         	16.807         	3.013
MS.260         	16.775         	2.884
MS.261         	16.74          	2.923
MS.262         	16.708         	2.788
MS.263         	16.672         	2.802
MS.264         	16.64          	2.912
MS.265         	16.608         	2.79
MS.266         	16.575         	2.711
MS.267         	16.54          	2.769
MS.268         	16.507         	2.592
MS.269         	16.475         	2.548
MS.270         	16.442         	2.719
MS.271         	16.41          	2.701
MS.272         	16.378         	2.548
MS.273         	16.342         	2.391
MS.274         	16.31          	2.258
MS.275         	16.278         	2.485
MS.276         	16.245         	2.365
MS.277         	16.212         	2.431
MS.278         	16.18          	2.199
MS.279         	16.147         	2.612
MS.280         	16.118         	2.248
MS.281         	16.085         	2.113
MS.282         	16.052         	2.105
MS.283         	16.02          	2.139
MS.284         	15.987         	2.103
MS.285         	15.955         	2.363
MS.286         	15.925         	2.062
MS.287         	15.892         	2.089
MS.288         	15.86          	2.145
MS.289         	15.83          	1.938
MS.290         	15.797         	1.95
MS.291         	15.765         	2.189
MS.292         	15.735         	2.044
MS.293         	15.702         	1.974
MS.294         	15.672         	1.889
MS.295         	15.64          	1.998
MS.296         	15.61          	1.934
MS.297         	15.577         	1.922
MS.298         	15.547         	1.859
MS.299         	15.515         	1.855
MS.300         	15.485         	1.915
MS.301         	15.452         	1.861
MS.302         	15.422         	1.917
MS.303         	15.392         	1.835
MS.304         	15.36          	2.04
MS.305         	15.33          	1.843
MS.306         	15.3           	1.873
MS.307         	15.27          	1.847
MS.308         	15.237         	1.833
MS.309         	15.207         	1.821
MS.310         	15.177         	1.891
MS.311         	15.148         	1.873
MS.312         	15.117         	1.853
MS.313         	15.087         	1.688
MS.314         	15.057         	1.66
MS.315         	15.027         	1.803
MS.316         	14.997         	1.873
MS.317         	14.967         	1.69
MS.318         	14.938         	1.837
MS.319         	14.907         	1.71
MS.320         	14.877         	1.76
MS.321         	14.847         	1.668
MS.322         	14.818         	1.728
MS.323         	14.787         	1.621
MS.324         	14.757         	1.708
MS.325         	14.73          	1.567
MS.326         	14.7           	1.666
MS.327         	14.67          	1.67
MS.328         	14.64          	1.686
MS.329         	14.612         	1.613
MS.330         	14.582         	1.734
MS.331         	14.552         	1.617
MS.332         	14.525         	1.74
MS.333         	14.495         	1.589
MS.334         	14.467         	1.603
MS.335         	14.438         	1.664
MS.336         	14.407         	1.629
MS.337         	14.38          	1.531
MS.338         	14.35          	1.563
MS.339         	14.322         	1.603
MS.340         	14.295         	1.607
MS.341         	14.265         	1.565
MS.342         	14.237         	1.555
MS.343         	14.207         	1.547
MS.344         	14.18          	1.577
MS.345         	14.153         	1.573
MS.346         	14.122         	1.527
MS.347         	14.095         	1.539
MS.348         	14.068         	1.591
MS.349         	14.04          	1.551
MS.350         	14.01          	1.569
MS.351         	13.983         	1.589
MS.352         	13.955         	1.507
MS.353         	13.927         	1.495
MS.354         	13.9           	1.497
MS.355         	13.872         	1.47
MS.356         	13.842         	1.543
MS.357         	13.815         	1.484
MS.358         	13.787         	1.497
MS.359         	13.76          	1.545
MS.360         	13.733         	1.539
MS.361         	13.705         	1.533
MS.362         	13.677         	1.511
MS.363         	13.653         	1.503
MS.364         	13.625         	1.523
MS.365         	13.597         	1.529
MS.366         	13.57          	1.543
MS.367         	13.542         	1.525
MS.368         	13.515         	1.527
MS.369         	13.487         	1.509
MS.370         	13.462         	1.478
MS.371         	13.435         	1.527
MS.372         	13.407         	1.484
MS.373         	13.38          	1.472
MS.374         	13.355         	1.12
MS.375         	13.327         	1.17
MS.376         	13.3           	1.495
MS.377         	13.275         	1.148
MS.378         	13.247         	1.507
MS.379         	13.222         	1.555
MS.380         	13.195         	1.495
MS.381         	13.167         	1.13
MS.382         	13.142         	1.126
MS.383         	13.115         	0.802
MS.384         	13.09          	1.124
MS.385         	13.062         	0.796
MS.386         	13.037         	0.769
MS.387         	13.012         	1.134
MS.388         	12.985         	0.743
MS.389         	12.96          	0.812
MS.390         	12.932         	0.765
MS.391         	12.907         	1.142
MS.392         	12.882         	0.808
MS.393         	12.858         	0.747
MS.394         	12.83          	0.79
MS.395         	12.805         	1.132
MS.396         	12.78          	0.79
MS.397         	12.755         	0.725
MS.398         	12.727         	0.788
MS.399         	12.702         	0.681
MS.400         	12.677         	0.743
MS.401         	12.653         	0.665
MS.402         	12.627         	0.693
MS.403         	12.602         	0.717
MS.404         	12.577         	0.679
MS.405         	12.552         	0.689
MS.406         	12.528         	0.763
MS.407         	12.502         	0.691
MS.408         	12.477         	0.667
MS.409         	12.452         	0.663
MS.410         	12.427         	0.586
MS.411         	12.403         	0.632
MS.412         	12.377         	0.614
MS.413         	12.352         	0.649
MS.414         	12.327         	0.592
MS.415         	12.302         	0.636
MS.416         	12.278         	0.602
MS.417         	12.255         	0.643
MS.418         	12.23          	0.622
MS.419         	12.205         	0.61
MS.420         	12.18          	0.636
MS.421         	12.155         	0.592
MS.422         	12.132         	0.695
MS.423         	12.108         	0.614
MS.424         	12.082         	0.63
MS.425         	12.06          	0.598
MS.426         	12.035         	0.622
MS.427         	12.01          	0.608
MS.428         	11.988         	0.614
MS.429         	11.962         	0.62
MS.430         	11.94          	0.647
MS.431         	11.915         	0.6
MS.432         	11.892         	0.614
MS.433         	11.867         	0.56
MS.434         	11.845         	0.594
MS.435         	11.82          	0.618
MS.436         	11.797         	0.604
MS.437         	11.773         	0.604
MS.438         	11.75          	0.612
MS.439         	11.727         	0.592
MS.440         	11.702         	0.6
MS.441         	11.68          	0.62
MS.442         	11.655         	0.604
MS.443         	11.632         	0.604
MS.444         	11.61          	0.596
MS.445         	11.587         	0.616
MS.446         	11.562         	0.604
MS.447         	11.54          	0.592
MS.448         	11.517         	0.61
MS.449         	11.495         	0.614
MS.450         	11.47          	0.612
MS.451         	11.447         	0.606
MS.452         	11.425         	0.592
MS.453         	11.403         	0.542
MS.454         	11.38          	0.61
MS.455         	11.358         	0.606
MS.456         	11.335         	0.594
MS.457         	11.312         	0.552
MS.458         	11.29          	0.612
MS.459         	11.267         	0.602
MS.460         	11.245         	0.606
MS.461         	11.222         	0.56
MS.462         	11.2           	0.612
MS.463         	11.177         	0.606
MS.464         	11.155         	0.602
MS.465         	11.132         	0.608
MS.466         	11.11          	0.608
MS.467         	11.087         	0.534
MS.468         	11.065         	0.663
MS.469         	11.042         	0.594
MS.470         	11.023         	0.576
MS.471         	11             	0.54
MS.472         	10.977         	0.653
MS.473         	10.955         	0.532
MS.474         	10.932         	0.657
MS.475         	10.912         	0.612
MS.476         	10.89          	0.548
MS.477         	10.867         	0.532
MS.478         	10.847         	0.55
MS.479         	10.825         	0.538
MS.480         	10.802         	0.542
MS.481         	10.782         	0.538
MS.482         	10.76          	0.534
MS.483         	10.738         	0.54
MS.484         	10.717         	0.554
MS.485         	10.695         	0.55
MS.486         	10.675         	0.55
MS.487         	10.653         	0.54
MS.488         	10.632         	0.544
MS.489         	10.61          	0.536
MS.490         	10.59          	0.61
MS.491         	10.568         	0.544
MS.492         	10.547         	0.544
MS.493         	10.525         	0.532
MS.494         	10.505         	0.546
MS.495         	10.485         	0.546
MS.496         	10.462         	0.548
MS.497         	10.443         	0.548
MS.498         	10.42          	0.548
MS.499         	10.4           	0.544
MS.500         	10.38          	0.544
