File:              	C:\Qtrac\Data\Daniel M Sørensen\MScan multicentre study\Data from centres\Oslo\Processed data\SZC00520C.QZD
Name:              	NO.OSL.NC.9.2
Protocol:          	MSCAN-R2
Date:              	20/5/20
Start time:        	17:33:50
Age:               	20
Sex:               	F
Temperature:       	31.5
S/R sites:         	ADM
NC/disease:        	NC9
Operator:          	SZ
Comments:          	Test2
M-SCAN DATA (9.2-4.7m)
Scanpts: 20, 34, 474, 495
Stim. (mA)     	Amp. (mV)
MS.1           	14.5           	10.705
MS.2           	14.5           	10.731
MS.3           	14.5           	10.772
MS.4           	14.5           	10.709
MS.5           	14.5           	10.742
MS.6           	14.5           	10.756
MS.7           	14.5           	10.748
MS.8           	14.5           	10.705
MS.9           	14.5           	10.748
MS.10          	14.5           	10.762
MS.11          	14.5           	10.735
MS.12          	14.5           	10.725
MS.13          	14.5           	10.788
MS.14          	14.5           	10.796
MS.15          	14.5           	10.778
MS.16          	14.5           	10.774
MS.17          	14.5           	10.79
MS.18          	14.5           	10.754
MS.19          	14.5           	10.776
MS.20          	14.5           	10.774
MS.21          	14.5           	10.733
MS.22          	14.5           	10.774
MS.23          	14.5           	10.812
MS.24          	14.412         	10.798
MS.25          	14.385         	10.713
MS.26          	14.355         	10.766
MS.27          	14.327         	10.768
MS.28          	14.297         	10.752
MS.29          	14.27          	10.729
MS.30          	14.242         	10.746
MS.31          	14.212         	10.717
MS.32          	14.185         	10.758
MS.33          	14.155         	10.748
MS.34          	14.127         	10.756
MS.35          	14.1           	10.705
MS.36          	14.072         	10.744
MS.37          	14.042         	10.756
MS.38          	14.015         	10.756
MS.39          	13.987         	10.735
MS.40          	13.96          	10.731
MS.41          	13.932         	10.772
MS.42          	13.903         	10.814
MS.43          	13.875         	10.792
MS.44          	13.847         	10.802
MS.45          	13.82          	10.804
MS.46          	13.792         	10.818
MS.47          	13.765         	10.786
MS.48          	13.737         	10.784
MS.49          	13.71          	10.735
MS.50          	13.682         	10.832
MS.51          	13.655         	10.812
MS.52          	13.627         	10.778
MS.53          	13.6           	10.8
MS.54          	13.575         	10.699
MS.55          	13.547         	10.645
MS.56          	13.52          	10.625
MS.57          	13.492         	10.735
MS.58          	13.465         	10.746
MS.59          	13.44          	10.733
MS.60          	13.412         	10.695
MS.61          	13.385         	10.719
MS.62          	13.358         	10.675
MS.63          	13.332         	10.713
MS.64          	13.305         	10.631
MS.65          	13.278         	10.679
MS.66          	13.252         	10.697
MS.67          	13.225         	10.592
MS.68          	13.2           	10.655
MS.69          	13.172         	10.687
MS.70          	13.148         	10.657
MS.71          	13.12          	10.691
MS.72          	13.095         	10.615
MS.73          	13.068         	10.685
MS.74          	13.042         	10.59
MS.75          	13.015         	10.572
MS.76          	12.99          	10.544
MS.77          	12.962         	10.51
MS.78          	12.938         	10.578
MS.79          	12.912         	10.558
MS.80          	12.885         	10.552
MS.81          	12.86          	10.526
MS.82          	12.835         	10.578
MS.83          	12.81          	10.365
MS.84          	12.782         	10.582
MS.85          	12.757         	10.486
MS.86          	12.733         	10.466
MS.87          	12.707         	10.524
MS.88          	12.682         	10.453
MS.89          	12.655         	10.548
MS.90          	12.63          	10.331
MS.91          	12.605         	10.427
MS.92          	12.58          	10.339
MS.93          	12.555         	10.496
MS.94          	12.53          	10.319
MS.95          	12.505         	10.329
MS.96          	12.48          	10.298
MS.97          	12.455         	10.373
MS.98          	12.43          	10.236
MS.99          	12.405         	10.266
MS.100         	12.38          	10.302
MS.101         	12.355         	10.176
MS.102         	12.332         	10.2
MS.103         	12.307         	10.3
MS.104         	12.282         	10.184
MS.105         	12.257         	10.18
MS.106         	12.233         	10.23
MS.107         	12.207         	10.169
MS.108         	12.185         	9.996
MS.109         	12.16          	10.115
MS.110         	12.135         	10.079
MS.111         	12.113         	10.079
MS.112         	12.087         	10.085
MS.113         	12.062         	10.085
MS.114         	12.04          	9.974
MS.115         	12.015         	9.871
MS.116         	11.99          	9.924
MS.117         	11.967         	9.865
MS.118         	11.943         	9.932
MS.119         	11.92          	9.877
MS.120         	11.895         	9.803
MS.121         	11.872         	9.902
MS.122         	11.847         	9.815
MS.123         	11.825         	9.769
MS.124         	11.8           	9.799
MS.125         	11.778         	9.616
MS.126         	11.752         	9.606
MS.127         	11.73          	9.493
MS.128         	11.707         	9.575
MS.129         	11.682         	9.575
MS.130         	11.66          	9.45
MS.131         	11.637         	9.682
MS.132         	11.613         	9.525
MS.133         	11.59          	9.573
MS.134         	11.568         	9.434
MS.135         	11.545         	9.458
MS.136         	11.52          	9.37
MS.137         	11.497         	9.386
MS.138         	11.475         	9.438
MS.139         	11.452         	9.174
MS.140         	11.43          	9.36
MS.141         	11.405         	9.217
MS.142         	11.382         	9.404
MS.143         	11.36          	9.146
MS.144         	11.337         	9.174
MS.145         	11.315         	9.086
MS.146         	11.292         	9.158
MS.147         	11.27          	9.104
MS.148         	11.247         	9.009
MS.149         	11.225         	8.969
MS.150         	11.202         	9.076
MS.151         	11.18          	9.005
MS.152         	11.157         	8.997
MS.153         	11.135         	8.891
MS.154         	11.113         	8.931
MS.155         	11.09          	8.653
MS.156         	11.07          	8.617
MS.157         	11.047         	8.743
MS.158         	11.025         	8.647
MS.159         	11.002         	8.772
MS.160         	10.98          	8.739
MS.161         	10.96          	8.697
MS.162         	10.938         	8.635
MS.163         	10.915         	8.75
MS.164         	10.892         	8.538
MS.165         	10.872         	8.512
MS.166         	10.85          	8.323
MS.167         	10.827         	8.466
MS.168         	10.807         	8.258
MS.169         	10.785         	8.242
MS.170         	10.762         	8.192
MS.171         	10.742         	8.339
MS.172         	10.72          	8.175
MS.173         	10.7           	8.149
MS.174         	10.677         	7.815
MS.175         	10.655         	8.028
MS.176         	10.635         	8.055
MS.177         	10.613         	7.815
MS.178         	10.592         	7.891
MS.179         	10.573         	7.853
MS.180         	10.55          	7.998
MS.181         	10.53          	7.597
MS.182         	10.507         	7.551
MS.183         	10.488         	7.672
MS.184         	10.465         	7.444
MS.185         	10.445         	7.378
MS.186         	10.425         	7.648
MS.187         	10.403         	7.221
MS.188         	10.382         	7.193
MS.189         	10.363         	7.176
MS.190         	10.342         	7.16
MS.191         	10.32          	6.951
MS.192         	10.3           	6.961
MS.193         	10.28          	6.969
MS.194         	10.26          	6.852
MS.195         	10.238         	6.909
MS.196         	10.217         	6.731
MS.197         	10.198         	6.903
MS.198         	10.177         	6.586
MS.199         	10.157         	6.689
MS.200         	10.137         	6.586
MS.201         	10.117         	6.558
MS.202         	10.095         	6.637
MS.203         	10.075         	6.679
MS.204         	10.055         	6.562
MS.205         	10.035         	6.635
MS.206         	10.015         	6.363
MS.207         	9.995          	6.389
MS.208         	9.975          	6.496
MS.209         	9.955          	6.272
MS.210         	9.935          	6.236
MS.211         	9.915          	6.149
MS.212         	9.895          	6.19
MS.213         	9.877          	6.179
MS.214         	9.858          	6.262
MS.215         	9.837          	5.791
MS.216         	9.818          	5.839
MS.217         	9.797          	5.684
MS.218         	9.778          	5.636
MS.219         	9.757          	5.777
MS.220         	9.74           	5.773
MS.221         	9.72           	5.69
MS.222         	9.7            	5.684
MS.223         	9.68           	5.164
MS.224         	9.662          	5.45
MS.225         	9.642          	5.221
MS.226         	9.622          	5.074
MS.227         	9.602          	5.231
MS.228         	9.585          	5.182
MS.229         	9.565          	4.977
MS.230         	9.545          	4.979
MS.231         	9.528          	4.721
MS.232         	9.507          	4.614
MS.233         	9.49           	4.701
MS.234         	9.47           	4.709
MS.235         	9.45           	4.711
MS.236         	9.432          	4.471
MS.237         	9.412          	4.292
MS.238         	9.395          	4.465
MS.239         	9.375          	4.536
MS.240         	9.358          	4.137
MS.241         	9.337          	4.151
MS.242         	9.32           	4.25
MS.243         	9.3            	4.405
MS.244         	9.283          	4.151
MS.245         	9.265          	4.038
MS.246         	9.245          	4.05
MS.247         	9.227          	4.02
MS.248         	9.207          	3.694
MS.249         	9.19           	3.738
MS.250         	9.172          	3.561
MS.251         	9.153          	3.591
MS.252         	9.135          	3.553
MS.253         	9.117          	3.339
MS.254         	9.1            	3.374
MS.255         	9.08           	3.545
MS.256         	9.062          	3.273
MS.257         	9.045          	3.458
MS.258         	9.028          	3.227
MS.259         	9.007          	3.15
MS.260         	8.99           	3.269
MS.261         	8.972          	3.053
MS.262         	8.955          	3.06
MS.263         	8.938          	2.765
MS.264         	8.917          	2.874
MS.265         	8.9            	2.836
MS.266         	8.882          	2.78
MS.267         	8.865          	2.894
MS.268         	8.847          	2.608
MS.269         	8.83           	2.624
MS.270         	8.812          	2.479
MS.271         	8.795          	2.369
MS.272         	8.778          	2.544
MS.273         	8.76           	2.457
MS.274         	8.742          	2.401
MS.275         	8.725          	2.314
MS.276         	8.707          	2.514
MS.277         	8.69           	2.367
MS.278         	8.672          	2.284
MS.279         	8.655          	2.161
MS.280         	8.637          	2.377
MS.281         	8.62           	1.982
MS.282         	8.602          	2.079
MS.283         	8.585          	2.065
MS.284         	8.57           	2.117
MS.285         	8.552          	1.95
MS.286         	8.535          	1.956
MS.287         	8.517          	1.924
MS.288         	8.5            	1.776
MS.289         	8.483          	1.682
MS.290         	8.467          	1.71
MS.291         	8.45           	1.521
MS.292         	8.432          	1.513
MS.293         	8.415          	1.434
MS.294         	8.4            	1.462
MS.295         	8.382          	1.378
MS.296         	8.365          	1.458
MS.297         	8.35           	1.225
MS.298         	8.332          	1.215
MS.299         	8.315          	1.277
MS.300         	8.3            	1.096
MS.301         	8.283          	1.231
MS.302         	8.265          	1.102
MS.303         	8.25           	0.949
MS.304         	8.233          	0.965
MS.305         	8.217          	1.055
MS.306         	8.2            	0.898
MS.307         	8.182          	0.788
MS.308         	8.167          	1.07
MS.309         	8.15           	0.761
MS.310         	8.135          	0.963
MS.311         	8.117          	0.884
MS.312         	8.102          	0.767
MS.313         	8.085          	0.731
MS.314         	8.07           	0.922
MS.315         	8.055          	0.846
MS.316         	8.037          	0.683
MS.317         	8.023          	0.693
MS.318         	8.005          	0.612
MS.319         	7.99           	0.659
MS.320         	7.972          	0.665
MS.321         	7.957          	0.689
MS.322         	7.942          	0.596
MS.323         	7.925          	0.616
MS.324         	7.91           	0.562
MS.325         	7.895          	0.622
MS.326         	7.878          	0.63
MS.327         	7.862          	0.538
MS.328         	7.847          	0.526
MS.329         	7.832          	0.649
MS.330         	7.815          	0.588
MS.331         	7.8            	0.538
MS.332         	7.785          	0.502
MS.333         	7.77           	0.493
MS.334         	7.753          	0.459
MS.335         	7.737          	0.445
MS.336         	7.722          	0.5
MS.337         	7.707          	0.477
MS.338         	7.692          	0.506
MS.339         	7.677          	0.477
MS.340         	7.66           	0.445
MS.341         	7.645          	0.469
MS.342         	7.63           	0.447
MS.343         	7.615          	0.455
MS.344         	7.6            	0.415
MS.345         	7.585          	0.417
MS.346         	7.57           	0.445
MS.347         	7.555          	0.379
MS.348         	7.54           	0.369
MS.349         	7.525          	0.344
MS.350         	7.51           	0.359
MS.351         	7.495          	0.367
MS.352         	7.48           	0.348
MS.353         	7.465          	0.365
MS.354         	7.45           	0.377
MS.355         	7.435          	0.359
MS.356         	7.42           	0.334
MS.357         	7.405          	0.292
MS.358         	7.39           	0.344
MS.359         	7.375          	0.316
MS.360         	7.36           	0.324
MS.361         	7.345          	0.314
MS.362         	7.33           	0.312
MS.363         	7.317          	0.286
MS.364         	7.302          	0.304
MS.365         	7.287          	0.336
MS.366         	7.273          	0.306
MS.367         	7.257          	0.344
MS.368         	7.245          	0.29
MS.369         	7.23           	0.326
MS.370         	7.215          	0.308
MS.371         	7.2            	0.286
MS.372         	7.185          	0.278
MS.373         	7.172          	0.278
MS.374         	7.157          	0.286
MS.375         	7.142          	0.296
MS.376         	7.13           	0.284
MS.377         	7.115          	0.274
MS.378         	7.1            	0.304
MS.379         	7.085          	0.286
MS.380         	7.072          	0.266
MS.381         	7.057          	0.224
MS.382         	7.045          	0.272
MS.383         	7.03           	0.278
MS.384         	7.015          	0.28
MS.385         	7.003          	0.236
MS.386         	6.987          	0.256
MS.387         	6.972          	0.218
MS.388         	6.96           	0.248
MS.389         	6.945          	0.234
MS.390         	6.932          	0.264
MS.391         	6.918          	0.242
MS.392         	6.905          	0.222
MS.393         	6.89           	0.205
MS.394         	6.878          	0.242
MS.395         	6.862          	0.29
MS.396         	6.85           	0.252
MS.397         	6.835          	0.256
MS.398         	6.822          	0.294
MS.399         	6.807          	0.286
MS.400         	6.795          	0.294
MS.401         	6.78           	0.292
MS.402         	6.767          	0.258
MS.403         	6.755          	0.298
MS.404         	6.74           	0.242
MS.405         	6.727          	0.316
MS.406         	6.712          	0.232
MS.407         	6.7            	0.266
MS.408         	6.688          	0.29
MS.409         	6.672          	0.258
MS.410         	6.66           	0.252
MS.411         	6.648          	0.292
MS.412         	6.632          	0.25
MS.413         	6.62           	0.272
MS.414         	6.608          	0.286
MS.415         	6.595          	0.26
MS.416         	6.58           	0.262
MS.417         	6.567          	0.24
MS.418         	6.555          	0.262
MS.419         	6.543          	0.258
MS.420         	6.527          	0.276
MS.421         	6.515          	0.23
MS.422         	6.503          	0.262
MS.423         	6.49           	0.266
MS.424         	6.477          	0.268
MS.425         	6.462          	0.183
MS.426         	6.45           	0.268
MS.427         	6.438          	0.199
MS.428         	6.425          	0.258
MS.429         	6.412          	0.266
MS.430         	6.4            	0.191
MS.431         	6.385          	0.248
MS.432         	6.372          	0.179
MS.433         	6.36           	0.183
MS.434         	6.347          	0.189
MS.435         	6.335          	0.187
MS.436         	6.322          	0.187
MS.437         	6.31           	0.258
MS.438         	6.297          	0.189
MS.439         	6.285          	0.183
MS.440         	6.273          	0.185
MS.441         	6.26           	0.191
MS.442         	6.247          	0.195
MS.443         	6.235          	0.189
MS.444         	6.222          	0.183
MS.445         	6.21           	0.189
MS.446         	6.197          	0.191
MS.447         	6.185          	0.137
MS.448         	6.172          	0.179
MS.449         	6.16           	0.129
MS.450         	6.148          	0.185
MS.451         	6.135          	0.185
MS.452         	6.122          	0.191
MS.453         	6.112          	0.189
MS.454         	6.1            	0.185
MS.455         	6.088          	0.135
MS.456         	6.075          	0.131
MS.457         	6.062          	0.195
MS.458         	6.05           	0.131
MS.459         	6.037          	0.133
MS.460         	6.027          	0.095
MS.461         	6.015          	0.133
MS.462         	6.003          	0.137
MS.463         	5.99           	0.131
MS.464         	5.977          	0.139
MS.465         	5.967          	0.139
MS.466         	5.955          	0.133
MS.467         	5.942          	0.137
MS.468         	5.93           	0.139
MS.469         	5.92           	0.143
MS.470         	5.907          	0.139
MS.471         	5.895          	0.099
MS.472         	5.882          	0.099
MS.473         	5.872          	0.099
MS.474         	5.86           	0.103
MS.475         	5.847          	0.141
MS.476         	5.838          	0.101
MS.477         	5.825          	0.099
MS.478         	5.812          	0.101
MS.479         	5.802          	0.097
MS.480         	5.79           	0.103
MS.481         	5.777          	0.103
MS.482         	5.767          	0.105
MS.483         	5.755          	0.101
MS.484         	5.745          	0.101
MS.485         	5.733          	0.101
MS.486         	5.72           	0.103
MS.487         	5.71           	0.105
MS.488         	5.697          	0.101
MS.489         	5.688          	0.103
MS.490         	5.675          	0.105
MS.491         	5.665          	0.103
MS.492         	5.652          	0.103
MS.493         	5.642          	0.103
MS.494         	5.63           	0.103
MS.495         	5.62           	0.105
DERIVED EXCITABILITY VARIABLES
Program = QTracP 3/4/2020
