File:              	C:\Qtrac\Data\Daniel M Sørensen\MScan multicentre study\Data from centres\Oslo\Processed data\SZC00506B.QZD
Name:              	NO.OSL.NC.3.2
Protocol:          	MSCAN-R2
Date:              	6/5/20
Start time:        	16:19:43
Age:               	37
Sex:               	M
Temperature:       	35.5
S/R sites:         	ADM
NC/disease:        	NC3
Operator:          	SZ
Comments:          	Test2
M-SCAN DATA (9.4-4.9m)
Scanpts: 13, 20, 366, 381
Stim. (mA)     	Amp. (mV)
MS.1           	33.5           	11.426
MS.2           	33.5           	11.485
MS.3           	33.5           	11.459
MS.4           	33.5           	11.487
MS.5           	33.5           	11.694
MS.6           	33.5           	11.718
MS.7           	33.5           	11.823
MS.8           	33.5           	11.644
MS.9           	33.5           	11.712
MS.10          	33.5           	11.567
MS.11          	33.5           	11.559
MS.12          	33.5           	11.666
MS.13          	33.5           	11.648
MS.14          	33.5           	11.745
MS.15          	33.5           	11.555
MS.16          	33.5           	11.672
MS.17          	33.5           	11.692
MS.18          	33.5           	11.706
MS.19          	33.5           	11.632
MS.20          	33.5           	11.751
MS.21          	33.5           	11.813
MS.22          	33.5           	11.771
MS.23          	33.5           	11.483
MS.24          	33.365         	11.616
MS.25          	33.3           	11.604
MS.26          	33.232         	11.569
MS.27          	33.167         	11.664
MS.28          	33.1           	11.622
MS.29          	33.035         	11.511
MS.30          	32.967         	11.549
MS.31          	32.903         	11.305
MS.32          	32.837         	11.275
MS.33          	32.77          	11.414
MS.34          	32.705         	11.483
MS.35          	32.64          	11.207
MS.36          	32.575         	11.094
MS.37          	32.51          	10.937
MS.38          	32.445         	11.185
MS.39          	32.38          	11.207
MS.40          	32.315         	11.14
MS.41          	32.25          	10.935
MS.42          	32.188         	10.393
MS.43          	32.122         	11.179
MS.44          	32.057         	10.605
MS.45          	31.995         	10.84
MS.46          	31.93          	10.546
MS.47          	31.865         	10.512
MS.48          	31.802         	10.792
MS.49          	31.74          	10.174
MS.50          	31.675         	9.869
MS.51          	31.612         	9.853
MS.52          	31.55          	9.906
MS.53          	31.485         	10.347
MS.54          	31.422         	10.097
MS.55          	31.36          	9.841
MS.56          	31.297         	9.724
MS.57          	31.235         	9.491
MS.58          	31.172         	9.716
MS.59          	31.11          	9.89
MS.60          	31.047         	9.628
MS.61          	30.985         	9.765
MS.62          	30.925         	9.42
MS.63          	30.862         	9.231
MS.64          	30.8           	9.654
MS.65          	30.74          	9.41
MS.66          	30.677         	9.533
MS.67          	30.617         	9.285
MS.68          	30.555         	9.219
MS.69          	30.495         	9.442
MS.70          	30.432         	9.396
MS.71          	30.372         	9.511
MS.72          	30.312         	9.454
MS.73          	30.252         	9.136
MS.74          	30.19          	9.221
MS.75          	30.13          	9.076
MS.76          	30.07          	8.965
MS.77          	30.01          	9.04
MS.78          	29.95          	8.943
MS.79          	29.89          	8.856
MS.80          	29.83          	8.937
MS.81          	29.77          	8.965
MS.82          	29.712         	8.78
MS.83          	29.653         	8.623
MS.84          	29.592         	8.472
MS.85          	29.535         	8.651
MS.86          	29.475         	8.741
MS.87          	29.415         	8.721
MS.88          	29.358         	8.453
MS.89          	29.297         	8.331
MS.90          	29.24          	8.494
MS.91          	29.182         	8.512
MS.92          	29.122         	8.486
MS.93          	29.065         	8.437
MS.94          	29.007         	8.262
MS.95          	28.95          	7.988
MS.96          	28.892         	7.962
MS.97          	28.832         	7.831
MS.98          	28.775         	8.226
MS.99          	28.717         	8.22
MS.100         	28.66          	7.97
MS.101         	28.605         	7.819
MS.102         	28.547         	7.65
MS.103         	28.49          	7.696
MS.104         	28.432         	7.904
MS.105         	28.375         	7.877
MS.106         	28.32          	7.75
MS.107         	28.262         	7.845
MS.108         	28.205         	7.628
MS.109         	28.15          	7.378
MS.110         	28.092         	7.454
MS.111         	28.037         	7.571
MS.112         	27.983         	7.527
MS.113         	27.925         	7.366
MS.114         	27.87          	7.34
MS.115         	27.815         	7.17
MS.116         	27.757         	7.436
MS.117         	27.702         	7.37
MS.118         	27.647         	7.332
MS.119         	27.592         	7.263
MS.120         	27.537         	7.344
MS.121         	27.483         	7.118
MS.122         	27.427         	6.991
MS.123         	27.372         	6.921
MS.124         	27.317         	6.957
MS.125         	27.262         	6.967
MS.126         	27.21          	7.07
MS.127         	27.155         	6.808
MS.128         	27.1           	6.699
MS.129         	27.045         	6.743
MS.130         	26.993         	6.713
MS.131         	26.938         	6.629
MS.132         	26.885         	6.802
MS.133         	26.83          	6.657
MS.134         	26.778         	6.032
MS.135         	26.722         	6.429
MS.136         	26.67          	6.365
MS.137         	26.618         	6.028
MS.138         	26.562         	6.173
MS.139         	26.51          	5.799
MS.140         	26.457         	5.656
MS.141         	26.405         	6.103
MS.142         	26.352         	5.748
MS.143         	26.3           	5.809
MS.144         	26.247         	5.211
MS.145         	26.195         	5.166
MS.146         	26.142         	5.331
MS.147         	26.09          	5.726
MS.148         	26.037         	5.303
MS.149         	25.985         	5.221
MS.150         	25.932         	5.031
MS.151         	25.882         	5.325
MS.152         	25.83          	5.418
MS.153         	25.778         	5.285
MS.154         	25.727         	5.122
MS.155         	25.675         	5.015
MS.156         	25.625         	4.516
MS.157         	25.573         	4.83
MS.158         	25.522         	4.949
MS.159         	25.47          	4.687
MS.160         	25.42          	4.349
MS.161         	25.37          	4.441
MS.162         	25.317         	4.046
MS.163         	25.267         	4.23
MS.164         	25.217         	4.216
MS.165         	25.167         	4.844
MS.166         	25.118         	4.459
MS.167         	25.067         	4.183
MS.168         	25.017         	3.893
MS.169         	24.967         	3.956
MS.170         	24.917         	4.157
MS.171         	24.868         	3.883
MS.172         	24.817         	4.232
MS.173         	24.767         	4.159
MS.174         	24.717         	3.901
MS.175         	24.67          	3.756
MS.176         	24.62          	3.823
MS.177         	24.57          	3.948
MS.178         	24.522         	4.03
MS.179         	24.472         	3.632
MS.180         	24.422         	3.708
MS.181         	24.375         	3.801
MS.182         	24.325         	3.567
MS.183         	24.278         	3.392
MS.184         	24.23          	3.263
MS.185         	24.18          	3.497
MS.186         	24.132         	3.243
MS.187         	24.085         	3.529
MS.188         	24.035         	3.71
MS.189         	23.987         	3.426
MS.190         	23.94          	2.975
MS.191         	23.892         	3.124
MS.192         	23.845         	3.17
MS.193         	23.797         	3.219
MS.194         	23.75          	3.132
MS.195         	23.702         	3.366
MS.196         	23.655         	3.249
MS.197         	23.608         	3.448
MS.198         	23.56          	2.717
MS.199         	23.512         	2.667
MS.200         	23.465         	2.939
MS.201         	23.42          	2.971
MS.202         	23.372         	2.773
MS.203         	23.325         	2.945
MS.204         	23.28          	2.633
MS.205         	23.233         	2.342
MS.206         	23.185         	2.302
MS.207         	23.14          	2.745
MS.208         	23.092         	2.49
MS.209         	23.047         	2.389
MS.210         	23             	2.437
MS.211         	22.955         	2.109
MS.212         	22.91          	2.248
MS.213         	22.862         	2.56
MS.214         	22.817         	2.427
MS.215         	22.772         	2.379
MS.216         	22.727         	2.23
MS.217         	22.682         	2.594
MS.218         	22.635         	2.389
MS.219         	22.59          	2.304
MS.220         	22.545         	1.946
MS.221         	22.5           	2.191
MS.222         	22.455         	2.558
MS.223         	22.41          	2.163
MS.224         	22.365         	1.988
MS.225         	22.323         	2.028
MS.226         	22.278         	1.781
MS.227         	22.233         	1.629
MS.228         	22.188         	1.891
MS.229         	22.142         	1.986
MS.230         	22.1           	1.682
MS.231         	22.055         	1.766
MS.232         	22.01          	1.448
MS.233         	21.967         	1.642
MS.234         	21.922         	1.48
MS.235         	21.88          	1.726
MS.236         	21.835         	1.692
MS.237         	21.792         	1.472
MS.238         	21.747         	1.426
MS.239         	21.705         	1.307
MS.240         	21.663         	1.376
MS.241         	21.618         	1.255
MS.242         	21.575         	1.211
MS.243         	21.532         	1.287
MS.244         	21.49          	1.317
MS.245         	21.445         	1.086
MS.246         	21.403         	1.229
MS.247         	21.36          	1.152
MS.248         	21.317         	1.14
MS.249         	21.275         	1.247
MS.250         	21.233         	1.235
MS.251         	21.19          	1.009
MS.252         	21.147         	0.876
MS.253         	21.105         	1.088
MS.254         	21.062         	0.918
MS.255         	21.022         	0.985
MS.256         	20.98          	1.043
MS.257         	20.938         	0.912
MS.258         	20.895         	0.848
MS.259         	20.855         	0.947
MS.260         	20.812         	0.87
MS.261         	20.77          	0.842
MS.262         	20.73          	0.933
MS.263         	20.688         	0.854
MS.264         	20.647         	0.733
MS.265         	20.605         	0.856
MS.266         	20.565         	0.649
MS.267         	20.522         	0.902
MS.268         	20.483         	0.757
MS.269         	20.44          	0.8
MS.270         	20.4           	0.719
MS.271         	20.36          	0.701
MS.272         	20.317         	0.655
MS.273         	20.278         	0.663
MS.274         	20.237         	0.659
MS.275         	20.198         	0.701
MS.276         	20.157         	0.641
MS.277         	20.118         	0.663
MS.278         	20.077         	0.6
MS.279         	20.035         	0.55
MS.280         	19.995         	0.655
MS.281         	19.955         	0.719
MS.282         	19.917         	0.747
MS.283         	19.877         	0.626
MS.284         	19.837         	0.53
MS.285         	19.797         	0.55
MS.286         	19.757         	0.526
MS.287         	19.717         	0.657
MS.288         	19.68          	0.544
MS.289         	19.64          	0.469
MS.290         	19.6           	0.61
MS.291         	19.56          	0.522
MS.292         	19.522         	0.463
MS.293         	19.483         	0.473
MS.294         	19.445         	0.497
MS.295         	19.405         	0.508
MS.296         	19.368         	0.491
MS.297         	19.327         	0.475
MS.298         	19.29          	0.415
MS.299         	19.25          	0.461
MS.300         	19.212         	0.562
MS.301         	19.172         	0.463
MS.302         	19.135         	0.471
MS.303         	19.097         	0.435
MS.304         	19.06          	0.383
MS.305         	19.02          	0.459
MS.306         	18.983         	0.393
MS.307         	18.945         	0.443
MS.308         	18.907         	0.417
MS.309         	18.87          	0.433
MS.310         	18.833         	0.425
MS.311         	18.795         	0.381
MS.312         	18.757         	0.425
MS.313         	18.72          	0.407
MS.314         	18.682         	0.403
MS.315         	18.645         	0.419
MS.316         	18.608         	0.354
MS.317         	18.57          	0.413
MS.318         	18.532         	0.363
MS.319         	18.495         	0.423
MS.320         	18.46          	0.354
MS.321         	18.422         	0.391
MS.322         	18.385         	0.441
MS.323         	18.347         	0.435
MS.324         	18.312         	0.395
MS.325         	18.275         	0.348
MS.326         	18.237         	0.336
MS.327         	18.202         	0.441
MS.328         	18.165         	0.383
MS.329         	18.13          	0.397
MS.330         	18.092         	0.328
MS.331         	18.057         	0.357
MS.332         	18.02          	0.371
MS.333         	17.985         	0.357
MS.334         	17.95          	0.357
MS.335         	17.913         	0.346
MS.336         	17.878         	0.381
MS.337         	17.842         	0.387
MS.338         	17.805         	0.379
MS.339         	17.77          	0.336
MS.340         	17.735         	0.367
MS.341         	17.7           	0.367
MS.342         	17.665         	0.373
MS.343         	17.63          	0.357
MS.344         	17.592         	0.354
MS.345         	17.557         	0.35
MS.346         	17.522         	0.332
MS.347         	17.487         	0.354
MS.348         	17.452         	0.367
MS.349         	17.417         	0.346
MS.350         	17.385         	0.346
MS.351         	17.35          	0.344
MS.352         	17.315         	0.332
MS.353         	17.28          	0.346
MS.354         	17.245         	0.357
MS.355         	17.21          	0.352
MS.356         	17.177         	0.369
MS.357         	17.142         	0.344
MS.358         	17.108         	0.361
MS.359         	17.073         	0.357
MS.360         	17.04          	0.344
MS.361         	17.005         	0.354
MS.362         	16.972         	0.359
MS.363         	16.938         	0.361
MS.364         	16.905         	0.352
MS.365         	16.87          	0.344
MS.366         	16.837         	0.342
MS.367         	16.802         	0.359
MS.368         	16.77          	0.354
MS.369         	16.735         	0.357
MS.370         	16.702         	0.344
MS.371         	16.67          	0.361
MS.372         	16.635         	0.365
MS.373         	16.602         	0.359
MS.374         	16.57          	0.367
MS.375         	16.535         	0.365
MS.376         	16.503         	0.363
MS.377         	16.47          	0.363
MS.378         	16.438         	0.363
MS.379         	16.405         	0.365
MS.380         	16.372         	0.367
MS.381         	16.34          	0.354
MS.382         	16.305         	0.365
MS.383         	16.272         	0.359
MS.384         	16.24          	0.363
MS.385         	16.208         	0.365
MS.386         	16.175         	0.359
MS.387         	16.145         	0.359
MS.388         	16.112         	0.359
MS.389         	16.08          	0.363
MS.390         	16.047         	0.359
MS.391         	16.015         	0.365
MS.392         	15.983         	0.363
MS.393         	15.952         	0.365
MS.394         	15.92          	0.359
MS.395         	15.887         	0.354
MS.396         	15.855         	0.359
MS.397         	15.825         	0.354
MS.398         	15.792         	0.357
MS.399         	15.76          	0.361
MS.400         	15.73          	0.352
MS.401         	15.697         	0.359
MS.402         	15.667         	0.361
MS.403         	15.635         	0.365
MS.404         	15.605         	0.367
MS.405         	15.572         	0.367
MS.406         	15.542         	0.357
MS.407         	15.51          	0.357
MS.408         	15.48          	0.361
MS.409         	15.45          	0.365
MS.410         	15.417         	0.361
MS.411         	15.387         	0.363
MS.412         	15.358         	0.365
MS.413         	15.325         	0.357
MS.414         	15.295         	0.363
MS.415         	15.265         	0.363
MS.416         	15.235         	0.363
MS.417         	15.202         	0.357
MS.418         	15.172         	0.363
MS.419         	15.142         	0.367
MS.420         	15.112         	0.365
MS.421         	15.082         	0.363
MS.422         	15.052         	0.357
MS.423         	15.023         	0.357
MS.424         	14.992         	0.361
MS.425         	14.962         	0.359
MS.426         	14.932         	0.359
MS.427         	14.902         	0.361
MS.428         	14.872         	0.359
MS.429         	14.842         	0.365
MS.430         	14.812         	0.361
MS.431         	14.785         	0.367
MS.432         	14.755         	0.361
MS.433         	14.725         	0.367
MS.434         	14.695         	0.365
MS.435         	14.665         	0.361
MS.436         	14.637         	0.363
MS.437         	14.608         	0.365
MS.438         	14.577         	0.357
MS.439         	14.55          	0.357
MS.440         	14.52          	0.361
MS.441         	14.49          	0.363
MS.442         	14.462         	0.359
MS.443         	14.432         	0.359
MS.444         	14.405         	0.359
MS.445         	14.375         	0.357
MS.446         	14.347         	0.361
MS.447         	14.318         	0.357
MS.448         	14.29          	0.354
MS.449         	14.26          	0.359
MS.450         	14.233         	0.359
MS.451         	14.205         	0.352
MS.452         	14.175         	0.354
MS.453         	14.148         	0.348
MS.454         	14.12          	0.359
MS.455         	14.09          	0.352
MS.456         	14.062         	0.35
MS.457         	14.035         	0.354
MS.458         	14.007         	0.35
MS.459         	13.98          	0.352
MS.460         	13.95          	0.354
MS.461         	13.922         	0.354
MS.462         	13.895         	0.352
MS.463         	13.867         	0.359
MS.464         	13.84          	0.357
MS.465         	13.812         	0.354
MS.466         	13.785         	0.346
MS.467         	13.757         	0.35
MS.468         	13.73          	0.354
MS.469         	13.702         	0.344
MS.470         	13.675         	0.35
MS.471         	13.648         	0.357
MS.472         	13.62          	0.348
MS.473         	13.592         	0.348
MS.474         	13.565         	0.35
MS.475         	13.537         	0.35
MS.476         	13.512         	0.35
MS.477         	13.485         	0.354
MS.478         	13.457         	0.352
MS.479         	13.43          	0.352
MS.480         	13.405         	0.352
MS.481         	13.377         	0.352
MS.482         	13.35          	0.346
MS.483         	13.322         	0.348
MS.484         	13.297         	0.35
MS.485         	13.27          	0.344
MS.486         	13.245         	0.346
MS.487         	13.217         	0.35
MS.488         	13.19          	0.348
MS.489         	13.165         	0.354
MS.490         	13.137         	0.357
MS.491         	13.112         	0.348
MS.492         	13.085         	0.344
DERIVED EXCITABILITY VARIABLES
Program = QTracP 3/4/2020
Threshold method = 6 (optimised for CAP, using data for present condition only)
SR method = 1 (using actual data values)
6.                 	0.000               	Peak response\(mV)
