File:              	C:\Qtrac\Data\Daniel M Sørensen\MScan multicentre study\Data from centres\Oslo\Processed data\SZC00507E.QZD
Name:              	NO.OSL.NC.5.2
Protocol:          	MSCAN-R2
Date:              	7/5/20
Start time:        	17:00:04
Age:               	56
Sex:               	F
Temperature:       	32.7
S/R sites:         	ADM
NC/disease:        	NC5
Operator:          	SZ
Comments:          	Test2
M-SCAN DATA (7.8-2.5m)
Scanpts: 17, 23, 476, 483
Stim. (mA)     	Amp. (mV)
MS.1           	25             	11.287
MS.2           	25             	11.277
MS.3           	25             	11.265
MS.4           	25             	11.267
MS.5           	25             	11.261
MS.6           	25             	11.299
MS.7           	25             	11.303
MS.8           	25             	11.295
MS.9           	25             	11.305
MS.10          	25             	11.269
MS.11          	25             	11.257
MS.12          	25             	11.281
MS.13          	25             	11.275
MS.14          	25             	11.277
MS.15          	25             	11.291
MS.16          	25             	11.297
MS.17          	25             	11.281
MS.18          	25             	11.273
MS.19          	25             	11.301
MS.20          	25             	11.269
MS.21          	25             	11.277
MS.22          	25             	11.269
MS.23          	25             	11.263
MS.24          	24.9           	11.247
MS.25          	24.85          	11.253
MS.26          	24.8           	11.273
MS.27          	24.75          	11.259
MS.28          	24.702         	11.263
MS.29          	24.653         	11.279
MS.30          	24.602         	11.251
MS.31          	24.555         	11.243
MS.32          	24.505         	11.267
MS.33          	24.455         	11.247
MS.34          	24.407         	11.247
MS.35          	24.358         	11.269
MS.36          	24.31          	11.263
MS.37          	24.26          	11.291
MS.38          	24.212         	11.259
MS.39          	24.165         	11.257
MS.40          	24.115         	11.261
MS.41          	24.067         	11.269
MS.42          	24.02          	11.221
MS.43          	23.972         	11.203
MS.44          	23.925         	11.243
MS.45          	23.875         	11.203
MS.46          	23.827         	11.217
MS.47          	23.78          	11.213
MS.48          	23.733         	11.207
MS.49          	23.685         	11.219
MS.50          	23.637         	11.235
MS.51          	23.59          	11.195
MS.52          	23.545         	11.211
MS.53          	23.497         	11.205
MS.54          	23.45          	11.193
MS.55          	23.403         	11.183
MS.56          	23.358         	11.162
MS.57          	23.31          	11.185
MS.58          	23.262         	11.181
MS.59          	23.217         	11.227
MS.60          	23.17          	11.189
MS.61          	23.125         	11.189
MS.62          	23.077         	11.171
MS.63          	23.032         	11.177
MS.64          	22.985         	11.181
MS.65          	22.94          	11.169
MS.66          	22.895         	11.217
MS.67          	22.847         	11.203
MS.68          	22.802         	11.191
MS.69          	22.757         	11.195
MS.70          	22.712         	11.191
MS.71          	22.665         	11.211
MS.72          	22.62          	11.187
MS.73          	22.575         	11.193
MS.74          	22.53          	11.189
MS.75          	22.485         	11.221
MS.76          	22.44          	11.197
MS.77          	22.395         	11.207
MS.78          	22.35          	11.201
MS.79          	22.307         	11.195
MS.80          	22.262         	11.201
MS.81          	22.217         	11.199
MS.82          	22.172         	11.201
MS.83          	22.127         	11.162
MS.84          	22.085         	11.185
MS.85          	22.04          	11.171
MS.86          	21.995         	11.185
MS.87          	21.952         	11.173
MS.88          	21.907         	11.16
MS.89          	21.865         	11.175
MS.90          	21.82          	11.156
MS.91          	21.778         	11.144
MS.92          	21.735         	11.158
MS.93          	21.69          	11.156
MS.94          	21.647         	11.138
MS.95          	21.605         	11.144
MS.96          	21.56          	11.128
MS.97          	21.517         	11.169
MS.98          	21.475         	11.144
MS.99          	21.432         	11.146
MS.100         	21.39          	11.126
MS.101         	21.345         	11.118
MS.102         	21.302         	11.112
MS.103         	21.26          	11.084
MS.104         	21.217         	11.05
MS.105         	21.175         	11.044
MS.106         	21.135         	11.096
MS.107         	21.092         	11.092
MS.108         	21.05          	11.066
MS.109         	21.007         	11.034
MS.110         	20.965         	11.007
MS.111         	20.922         	11.009
MS.112         	20.882         	11.046
MS.113         	20.84          	11.009
MS.114         	20.797         	11.028
MS.115         	20.757         	11.038
MS.116         	20.715         	11.028
MS.117         	20.675         	11.021
MS.118         	20.632         	11.021
MS.119         	20.592         	11.044
MS.120         	20.55          	11.062
MS.121         	20.51          	11.076
MS.122         	20.467         	10.999
MS.123         	20.427         	10.951
MS.124         	20.387         	11.078
MS.125         	20.345         	11.064
MS.126         	20.305         	10.911
MS.127         	20.265         	10.887
MS.128         	20.225         	11.023
MS.129         	20.182         	10.981
MS.130         	20.142         	10.864
MS.131         	20.102         	11.044
MS.132         	20.062         	10.933
MS.133         	20.022         	10.903
MS.134         	19.983         	10.909
MS.135         	19.942         	10.804
MS.136         	19.903         	10.889
MS.137         	19.862         	10.929
MS.138         	19.823         	10.889
MS.139         	19.785         	10.814
MS.140         	19.745         	10.866
MS.141         	19.705         	10.864
MS.142         	19.665         	10.844
MS.143         	19.627         	10.742
MS.144         	19.587         	10.83
MS.145         	19.547         	10.834
MS.146         	19.51          	10.846
MS.147         	19.47          	10.695
MS.148         	19.43          	10.786
MS.149         	19.392         	10.786
MS.150         	19.352         	10.647
MS.151         	19.315         	10.699
MS.152         	19.275         	10.631
MS.153         	19.237         	10.572
MS.154         	19.2           	10.55
MS.155         	19.16          	10.546
MS.156         	19.122         	10.635
MS.157         	19.085         	10.657
MS.158         	19.047         	10.532
MS.159         	19.007         	10.502
MS.160         	18.97          	10.631
MS.161         	18.932         	10.468
MS.162         	18.895         	10.518
MS.163         	18.858         	10.441
MS.164         	18.82          	10.498
MS.165         	18.782         	10.522
MS.166         	18.745         	10.464
MS.167         	18.708         	10.472
MS.168         	18.67          	10.343
MS.169         	18.632         	10.371
MS.170         	18.595         	10.337
MS.171         	18.557         	10.399
MS.172         	18.52          	10.373
MS.173         	18.483         	10.373
MS.174         	18.448         	10.256
MS.175         	18.41          	10.188
MS.176         	18.372         	10.292
MS.177         	18.335         	10.202
MS.178         	18.3           	10.176
MS.179         	18.262         	10.222
MS.180         	18.227         	10.339
MS.181         	18.19          	10.123
MS.182         	18.153         	10.184
MS.183         	18.118         	10.174
MS.184         	18.08          	10.01
MS.185         	18.045         	10.172
MS.186         	18.01          	10.145
MS.187         	17.972         	10.252
MS.188         	17.938         	10.026
MS.189         	17.903         	9.98
MS.190         	17.865         	10.024
MS.191         	17.83          	9.926
MS.192         	17.795         	9.896
MS.193         	17.757         	9.968
MS.194         	17.722         	9.982
MS.195         	17.688         	9.94
MS.196         	17.653         	9.9
MS.197         	17.618         	9.809
MS.198         	17.583         	9.749
MS.199         	17.547         	9.622
MS.200         	17.512         	9.817
MS.201         	17.477         	9.795
MS.202         	17.442         	9.712
MS.203         	17.407         	9.871
MS.204         	17.372         	9.757
MS.205         	17.337         	9.62
MS.206         	17.302         	9.712
MS.207         	17.267         	9.646
MS.208         	17.235         	9.589
MS.209         	17.2           	9.644
MS.210         	17.165         	9.477
MS.211         	17.13          	9.392
MS.212         	17.097         	9.307
MS.213         	17.062         	9.483
MS.214         	17.028         	9.485
MS.215         	16.995         	9.4
MS.216         	16.96          	9.394
MS.217         	16.927         	9.378
MS.218         	16.892         	9.281
MS.219         	16.86          	9.32
MS.220         	16.825         	9.356
MS.221         	16.792         	9.243
MS.222         	16.757         	9.118
MS.223         	16.725         	9.221
MS.224         	16.69          	9.183
MS.225         	16.657         	9.203
MS.226         	16.625         	9.136
MS.227         	16.59          	9.233
MS.228         	16.557         	9.062
MS.229         	16.525         	9.243
MS.230         	16.493         	9.034
MS.231         	16.46          	8.701
MS.232         	16.425         	9.027
MS.233         	16.392         	8.945
MS.234         	16.36          	8.703
MS.235         	16.327         	8.997
MS.236         	16.295         	8.476
MS.237         	16.262         	8.81
MS.238         	16.23          	8.349
MS.239         	16.198         	8.482
MS.240         	16.165         	8.399
MS.241         	16.132         	8.48
MS.242         	16.1           	8.349
MS.243         	16.067         	8.266
MS.244         	16.038         	8.165
MS.245         	16.005         	8.234
MS.246         	15.972         	8.206
MS.247         	15.94          	8.23
MS.248         	15.91          	8.242
MS.249         	15.877         	7.992
MS.250         	15.845         	8.159
MS.251         	15.812         	7.815
MS.252         	15.782         	7.881
MS.253         	15.75          	7.857
MS.254         	15.72          	7.531
MS.255         	15.688         	7.742
MS.256         	15.657         	7.539
MS.257         	15.625         	7.684
MS.258         	15.595         	7.126
MS.259         	15.562         	7.41
MS.260         	15.532         	7.517
MS.261         	15.5           	6.943
MS.262         	15.47          	7.118
MS.263         	15.438         	7.029
MS.264         	15.407         	6.963
MS.265         	15.377         	7.452
MS.266         	15.347         	6.894
MS.267         	15.315         	7.366
MS.268         	15.285         	6.88
MS.269         	15.255         	6.627
MS.270         	15.225         	6.508
MS.271         	15.193         	6.181
MS.272         	15.162         	6.177
MS.273         	15.132         	6.339
MS.274         	15.102         	6.58
MS.275         	15.072         	6.238
MS.276         	15.042         	6.459
MS.277         	15.012         	6.198
MS.278         	14.983         	6.333
MS.279         	14.952         	6.278
MS.280         	14.922         	6.117
MS.281         	14.892         	6.083
MS.282         	14.862         	5.656
MS.283         	14.832         	6.055
MS.284         	14.802         	5.69
MS.285         	14.775         	5.819
MS.286         	14.745         	5.474
MS.287         	14.715         	5.567
MS.288         	14.685         	5.781
MS.289         	14.657         	5.41
MS.290         	14.627         	5.245
MS.291         	14.597         	5.474
MS.292         	14.568         	5.088
MS.293         	14.54          	5.13
MS.294         	14.51          	4.776
MS.295         	14.483         	4.947
MS.296         	14.452         	4.373
MS.297         	14.422         	5.064
MS.298         	14.395         	4.343
MS.299         	14.365         	4.846
MS.300         	14.337         	4.31
MS.301         	14.31          	4.065
MS.302         	14.28          	4.061
MS.303         	14.252         	3.954
MS.304         	14.222         	4.129
MS.305         	14.195         	3.615
MS.306         	14.167         	3.269
MS.307         	14.137         	3.43
MS.308         	14.11          	3.317
MS.309         	14.082         	3.261
MS.310         	14.052         	3.352
MS.311         	14.025         	3.547
MS.312         	13.997         	3.076
MS.313         	13.97          	2.753
MS.314         	13.943         	2.856
MS.315         	13.912         	3.027
MS.316         	13.885         	3.037
MS.317         	13.858         	2.717
MS.318         	13.83          	2.782
MS.319         	13.802         	2.562
MS.320         	13.775         	2.349
MS.321         	13.747         	2.433
MS.322         	13.72          	2.649
MS.323         	13.693         	2.397
MS.324         	13.665         	2.236
MS.325         	13.637         	2.169
MS.326         	13.61          	2.262
MS.327         	13.582         	1.988
MS.328         	13.557         	2.322
MS.329         	13.53          	2.062
MS.330         	13.502         	2.193
MS.331         	13.475         	2.036
MS.332         	13.447         	1.996
MS.333         	13.422         	2.107
MS.334         	13.395         	2.046
MS.335         	13.367         	1.855
MS.336         	13.342         	1.998
MS.337         	13.315         	1.827
MS.338         	13.287         	1.907
MS.339         	13.262         	1.948
MS.340         	13.235         	1.799
MS.341         	13.207         	1.809
MS.342         	13.182         	1.627
MS.343         	13.155         	1.766
MS.344         	13.13          	1.668
MS.345         	13.102         	1.692
MS.346         	13.077         	1.704
MS.347         	13.05          	1.555
MS.348         	13.025         	1.617
MS.349         	13             	1.43
MS.350         	12.972         	1.567
MS.351         	12.947         	1.601
MS.352         	12.92          	1.478
MS.353         	12.895         	1.43
MS.354         	12.87          	1.362
MS.355         	12.845         	1.476
MS.356         	12.818         	1.229
MS.357         	12.792         	1.245
MS.358         	12.767         	1.309
MS.359         	12.742         	1.076
MS.360         	12.715         	1.164
MS.361         	12.69          	0.959
MS.362         	12.665         	1.019
MS.363         	12.64          	0.816
MS.364         	12.615         	0.81
MS.365         	12.59          	0.997
MS.366         	12.565         	0.81
MS.367         	12.54          	0.955
MS.368         	12.515         	0.767
MS.369         	12.49          	0.838
MS.370         	12.465         	0.858
MS.371         	12.44          	0.61
MS.372         	12.415         	0.935
MS.373         	12.39          	0.546
MS.374         	12.365         	0.457
MS.375         	12.34          	0.493
MS.376         	12.315         	0.598
MS.377         	12.29          	0.493
MS.378         	12.267         	0.546
MS.379         	12.242         	0.447
MS.380         	12.217         	0.361
MS.381         	12.193         	0.354
MS.382         	12.17          	0.377
MS.383         	12.145         	0.363
MS.384         	12.12          	0.352
MS.385         	12.095         	0.395
MS.386         	12.072         	0.296
MS.387         	12.047         	0.439
MS.388         	12.023         	0.34
MS.389         	12             	0.276
MS.390         	11.975         	0.379
MS.391         	11.952         	0.278
MS.392         	11.927         	0.344
MS.393         	11.905         	0.272
MS.394         	11.88          	0.332
MS.395         	11.858         	0.244
MS.396         	11.832         	0.29
MS.397         	11.81          	0.367
MS.398         	11.785         	0.32
MS.399         	11.762         	0.252
MS.400         	11.738         	0.29
MS.401         	11.715         	0.264
MS.402         	11.693         	0.27
MS.403         	11.667         	0.3
MS.404         	11.645         	0.28
MS.405         	11.622         	0.244
MS.406         	11.597         	0.268
MS.407         	11.575         	0.292
MS.408         	11.552         	0.282
MS.409         	11.53          	0.274
MS.410         	11.505         	0.27
MS.411         	11.483         	0.28
MS.412         	11.46          	0.236
MS.413         	11.438         	0.278
MS.414         	11.415         	0.284
MS.415         	11.392         	0.25
MS.416         	11.37          	0.274
MS.417         	11.345         	0.226
MS.418         	11.322         	0.272
MS.419         	11.3           	0.264
MS.420         	11.278         	0.193
MS.421         	11.255         	0.191
MS.422         	11.233         	0.226
MS.423         	11.21          	0.232
MS.424         	11.188         	0.222
MS.425         	11.165         	0.197
MS.426         	11.142         	0.171
MS.427         	11.122         	0.195
MS.428         	11.1           	0.185
MS.429         	11.077         	0.211
MS.430         	11.055         	0.195
MS.431         	11.032         	0.224
MS.432         	11.01          	0.183
MS.433         	10.988         	0.143
MS.434         	10.967         	0.157
MS.435         	10.945         	0.141
MS.436         	10.922         	0.199
MS.437         	10.9           	0.149
MS.438         	10.88          	0.149
MS.439         	10.858         	0.159
MS.440         	10.835         	0.151
MS.441         	10.815         	0.109
MS.442         	10.792         	0.087
MS.443         	10.77          	0.105
MS.444         	10.75          	0.133
MS.445         	10.727         	0.085
MS.446         	10.707         	0.093
MS.447         	10.685         	0.131
MS.448         	10.665         	0.091
MS.449         	10.642         	0.093
MS.450         	10.622         	0.133
MS.451         	10.6           	0.085
MS.452         	10.58          	0.089
MS.453         	10.557         	0.091
MS.454         	10.537         	0.087
MS.455         	10.515         	0.056
MS.456         	10.495         	0.06
MS.457         	10.472         	0.113
MS.458         	10.452         	0.064
MS.459         	10.432         	0.089
MS.460         	10.41          	0.097
MS.461         	10.39          	0.091
MS.462         	10.37          	0.093
MS.463         	10.35          	0.066
MS.464         	10.327         	0.062
MS.465         	10.307         	0.064
MS.466         	10.287         	0.091
MS.467         	10.267         	0.081
MS.468         	10.245         	0.099
MS.469         	10.225         	0.093
MS.470         	10.205         	0.081
MS.471         	10.185         	0.077
MS.472         	10.165         	0.07
MS.473         	10.145         	0.085
MS.474         	10.122         	0.083
MS.475         	10.102         	0.068
MS.476         	10.082         	0.077
MS.477         	10.062         	0.085
MS.478         	10.042         	0.085
MS.479         	10.023         	0.077
MS.480         	10.002         	0.083
MS.481         	9.983          	0.081
MS.482         	9.962          	0.083
MS.483         	9.943          	0.087
MS.484         	9.922          	0.087
MS.485         	9.903          	0.095
MS.486         	9.882          	0.087
MS.487         	9.865          	0.085
MS.488         	9.845          	0.079
MS.489         	9.825          	0.087
MS.490         	9.805          	0.089
MS.491         	9.785          	0.085
MS.492         	9.765          	0.091
MS.493         	9.745          	0.087
MS.494         	9.727          	0.077
MS.495         	9.707          	0.083
MS.496         	9.688          	0.091
