File:              	C:\Qtrac\Data\Daniel M Sørensen\MScan multicentre study\Data from centres\Oslo\Processed data\SZC00619B (2).QZD
Name:              	NO.OSL.NC.17.2
Protocol:          	MSCAN-R2
Date:              	19/6/20
Start time:        	13:11:33
Age:               	52
Sex:               	F
Temperature:       	34.7
S/R sites:         	ADM
NC/disease:        	NC17
Operator:          	SZ
Comments:          	Test2
M-SCAN DATA (9.9-3.3m)
Scanpts: 17, 36, 685, 706
Stim. (mA)     	Amp. (mV)
MS.1           	18.5           	10.661
MS.2           	18.5           	10.679
MS.3           	18.5           	10.701
MS.4           	18.5           	10.661
MS.5           	18.5           	10.695
MS.6           	18.5           	10.679
MS.7           	18.5           	10.679
MS.8           	18.5           	10.675
MS.9           	18.5           	10.681
MS.10          	18.5           	10.681
MS.11          	18.5           	10.691
MS.12          	18.5           	10.667
MS.13          	18.5           	10.677
MS.14          	18.5           	10.697
MS.15          	18.5           	10.675
MS.16          	18.5           	10.687
MS.17          	18.5           	10.679
MS.18          	18.5           	10.663
MS.19          	18.5           	10.675
MS.20          	18.5           	10.699
MS.21          	18.5           	10.665
MS.22          	18.5           	10.677
MS.23          	18.5           	10.691
MS.24          	18.425         	10.675
MS.25          	18.39          	10.643
MS.26          	18.352         	10.659
MS.27          	18.315         	10.679
MS.28          	18.28          	10.673
MS.29          	18.243         	10.679
MS.30          	18.208         	10.689
MS.31          	18.17          	10.663
MS.32          	18.132         	10.673
MS.33          	18.097         	10.675
MS.34          	18.06          	10.669
MS.35          	18.025         	10.687
MS.36          	17.99          	10.671
MS.37          	17.952         	10.667
MS.38          	17.917         	10.665
MS.39          	17.882         	10.667
MS.40          	17.845         	10.679
MS.41          	17.81          	10.657
MS.42          	17.775         	10.675
MS.43          	17.74          	10.663
MS.44          	17.702         	10.661
MS.45          	17.667         	10.671
MS.46          	17.632         	10.661
MS.47          	17.597         	10.663
MS.48          	17.562         	10.643
MS.49          	17.528         	10.661
MS.50          	17.493         	10.663
MS.51          	17.458         	10.647
MS.52          	17.422         	10.645
MS.53          	17.387         	10.647
MS.54          	17.352         	10.657
MS.55          	17.317         	10.645
MS.56          	17.285         	10.635
MS.57          	17.25          	10.637
MS.58          	17.215         	10.641
MS.59          	17.18          	10.643
MS.60          	17.145         	10.631
MS.61          	17.112         	10.625
MS.62          	17.077         	10.609
MS.63          	17.042         	10.621
MS.64          	17.01          	10.633
MS.65          	16.975         	10.627
MS.66          	16.942         	10.617
MS.67          	16.907         	10.617
MS.68          	16.875         	10.617
MS.69          	16.84          	10.613
MS.70          	16.807         	10.625
MS.71          	16.772         	10.603
MS.72          	16.74          	10.611
MS.73          	16.705         	10.603
MS.74          	16.672         	10.613
MS.75          	16.64          	10.609
MS.76          	16.605         	10.621
MS.77          	16.573         	10.599
MS.78          	16.54          	10.619
MS.79          	16.507         	10.613
MS.80          	16.472         	10.611
MS.81          	16.44          	10.609
MS.82          	16.407         	10.588
MS.83          	16.375         	10.59
MS.84          	16.342         	10.59
MS.85          	16.31          	10.594
MS.86          	16.278         	10.611
MS.87          	16.245         	10.599
MS.88          	16.212         	10.609
MS.89          	16.18          	10.59
MS.90          	16.147         	10.596
MS.91          	16.115         	10.613
MS.92          	16.083         	10.59
MS.93          	16.05          	10.584
MS.94          	16.02          	10.592
MS.95          	15.987         	10.617
MS.96          	15.955         	10.607
MS.97          	15.922         	10.592
MS.98          	15.89          	10.599
MS.99          	15.86          	10.586
MS.100         	15.827         	10.588
MS.101         	15.795         	10.613
MS.102         	15.765         	10.578
MS.103         	15.733         	10.58
MS.104         	15.702         	10.599
MS.105         	15.67          	10.594
MS.106         	15.64          	10.588
MS.107         	15.608         	10.564
MS.108         	15.577         	10.566
MS.109         	15.545         	10.572
MS.110         	15.515         	10.576
MS.111         	15.483         	10.584
MS.112         	15.452         	10.572
MS.113         	15.422         	10.576
MS.114         	15.39          	10.603
MS.115         	15.36          	10.576
MS.116         	15.33          	10.572
MS.117         	15.297         	10.58
MS.118         	15.267         	10.504
MS.119         	15.237         	10.492
MS.120         	15.207         	10.488
MS.121         	15.177         	10.49
MS.122         	15.148         	10.504
MS.123         	15.115         	10.502
MS.124         	15.085         	10.486
MS.125         	15.055         	10.5
MS.126         	15.025         	10.484
MS.127         	14.995         	10.5
MS.128         	14.965         	10.49
MS.129         	14.935         	10.49
MS.130         	14.905         	10.49
MS.131         	14.877         	10.462
MS.132         	14.847         	10.486
MS.133         	14.818         	10.476
MS.134         	14.787         	10.468
MS.135         	14.757         	10.46
MS.136         	14.727         	10.47
MS.137         	14.7           	10.484
MS.138         	14.67          	10.49
MS.139         	14.64          	10.478
MS.140         	14.61          	10.488
MS.141         	14.582         	10.494
MS.142         	14.552         	10.486
MS.143         	14.523         	10.476
MS.144         	14.495         	10.474
MS.145         	14.465         	10.48
MS.146         	14.438         	10.484
MS.147         	14.407         	10.462
MS.148         	14.38          	10.476
MS.149         	14.35          	10.458
MS.150         	14.322         	10.462
MS.151         	14.292         	10.494
MS.152         	14.265         	10.411
MS.153         	14.235         	10.447
MS.154         	14.207         	10.451
MS.155         	14.18          	10.453
MS.156         	14.15          	10.343
MS.157         	14.122         	10.433
MS.158         	14.095         	10.474
MS.159         	14.065         	10.387
MS.160         	14.037         	10.252
MS.161         	14.01          	10.49
MS.162         	13.983         	10.29
MS.163         	13.955         	10.441
MS.164         	13.925         	10.401
MS.165         	13.898         	10.282
MS.166         	13.87          	10.268
MS.167         	13.842         	10.405
MS.168         	13.815         	10.292
MS.169         	13.787         	10.252
MS.170         	13.76          	10.232
MS.171         	13.733         	10.258
MS.172         	13.705         	10.254
MS.173         	13.677         	10.375
MS.174         	13.65          	10.236
MS.175         	13.622         	10.246
MS.176         	13.595         	10.238
MS.177         	13.568         	10.226
MS.178         	13.542         	10.218
MS.179         	13.515         	10.25
MS.180         	13.487         	10.24
MS.181         	13.46          	10.222
MS.182         	13.432         	10.214
MS.183         	13.407         	10.232
MS.184         	13.38          	10.242
MS.185         	13.352         	10.039
MS.186         	13.327         	10.022
MS.187         	13.3           	10.008
MS.188         	13.273         	10.029
MS.189         	13.247         	10.02
MS.190         	13.22          	10.002
MS.191         	13.195         	10.039
MS.192         	13.167         	10.063
MS.193         	13.142         	10.02
MS.194         	13.115         	10.004
MS.195         	13.09          	10.022
MS.196         	13.062         	10.012
MS.197         	13.037         	9.938
MS.198         	13.01          	10.039
MS.199         	12.985         	9.974
MS.200         	12.957         	10.055
MS.201         	12.932         	10.049
MS.202         	12.907         	10.024
MS.203         	12.88          	10.057
MS.204         	12.855         	10.041
MS.205         	12.83          	10.022
MS.206         	12.805         	10.029
MS.207         	12.778         	10.055
MS.208         	12.752         	10.016
MS.209         	12.727         	10.047
MS.210         	12.702         	9.968
MS.211         	12.677         	9.966
MS.212         	12.653         	9.942
MS.213         	12.625         	9.984
MS.214         	12.6           	9.962
MS.215         	12.575         	9.964
MS.216         	12.55          	9.932
MS.217         	12.525         	9.97
MS.218         	12.5           	10.012
MS.219         	12.475         	10.004
MS.220         	12.45          	9.938
MS.221         	12.425         	9.952
MS.222         	12.4           	9.976
MS.223         	12.375         	9.976
MS.224         	12.352         	9.96
MS.225         	12.327         	9.843
MS.226         	12.302         	9.968
MS.227         	12.278         	9.944
MS.228         	12.252         	9.839
MS.229         	12.227         	9.894
MS.230         	12.205         	9.892
MS.231         	12.18          	9.829
MS.232         	12.155         	9.908
MS.233         	12.13          	9.849
MS.234         	12.108         	9.664
MS.235         	12.082         	9.797
MS.236         	12.057         	9.7
MS.237         	12.035         	9.692
MS.238         	12.01          	9.841
MS.239         	11.988         	9.801
MS.240         	11.962         	9.696
MS.241         	11.938         	9.696
MS.242         	11.915         	9.73
MS.243         	11.89          	9.668
MS.244         	11.867         	9.61
MS.245         	11.842         	9.674
MS.246         	11.82          	9.678
MS.247         	11.795         	9.511
MS.248         	11.773         	9.511
MS.249         	11.75          	9.42
MS.250         	11.725         	9.483
MS.251         	11.702         	9.448
MS.252         	11.677         	9.475
MS.253         	11.655         	9.475
MS.254         	11.632         	9.503
MS.255         	11.61          	9.388
MS.256         	11.585         	9.438
MS.257         	11.562         	9.467
MS.258         	11.54          	9.507
MS.259         	11.517         	9.45
MS.260         	11.492         	9.41
MS.261         	11.47          	9.386
MS.262         	11.447         	9.434
MS.263         	11.425         	9.336
MS.264         	11.403         	9.384
MS.265         	11.38          	9.197
MS.266         	11.355         	9.275
MS.267         	11.332         	9.235
MS.268         	11.31          	9.223
MS.269         	11.287         	9.384
MS.270         	11.265         	9.336
MS.271         	11.242         	9.366
MS.272         	11.22          	9.156
MS.273         	11.197         	9.106
MS.274         	11.175         	9.162
MS.275         	11.153         	9.154
MS.276         	11.132         	9.15
MS.277         	11.11          	9.05
MS.278         	11.087         	9.17
MS.279         	11.065         	9.104
MS.280         	11.042         	9.197
MS.281         	11.02          	8.907
MS.282         	10.997         	9.044
MS.283         	10.977         	8.931
MS.284         	10.955         	8.737
MS.285         	10.932         	8.584
MS.286         	10.91          	8.5
MS.287         	10.89          	8.84
MS.288         	10.867         	8.768
MS.289         	10.845         	8.459
MS.290         	10.825         	8.498
MS.291         	10.802         	8.433
MS.292         	10.78          	8.655
MS.293         	10.76          	8.341
MS.294         	10.738         	8.461
MS.295         	10.717         	8.453
MS.296         	10.695         	8.425
MS.297         	10.672         	8.359
MS.298         	10.653         	8.316
MS.299         	10.63          	8.27
MS.300         	10.61          	8.282
MS.301         	10.587         	8.236
MS.302         	10.568         	8.077
MS.303         	10.545         	8.308
MS.304         	10.525         	8.107
MS.305         	10.505         	8.304
MS.306         	10.483         	7.893
MS.307         	10.462         	8.143
MS.308         	10.443         	8.022
MS.309         	10.42          	7.37
MS.310         	10.4           	7.529
MS.311         	10.38          	7.33
MS.312         	10.358         	7.9
MS.313         	10.337         	7.612
MS.314         	10.318         	7.857
MS.315         	10.295         	7.396
MS.316         	10.275         	7.938
MS.317         	10.255         	7.332
MS.318         	10.235         	7.634
MS.319         	10.215         	6.987
MS.320         	10.193         	7.104
MS.321         	10.172         	7.031
MS.322         	10.153         	6.84
MS.323         	10.132         	7.064
MS.324         	10.113         	6.858
MS.325         	10.092         	6.651
MS.326         	10.073         	6.218
MS.327         	10.052         	6.649
MS.328         	10.032         	6.262
MS.329         	10.012         	6.683
MS.330         	9.992          	6.055
MS.331         	9.972          	6.592
MS.332         	9.952          	6.53
MS.333         	9.932          	6.055
MS.334         	9.912          	6.163
MS.335         	9.892          	5.595
MS.336         	9.872          	6.044
MS.337         	9.852          	5.815
MS.338         	9.832          	5.775
MS.339         	9.812          	5.887
MS.340         	9.795          	6.075
MS.341         	9.775          	5.97
MS.342         	9.755          	5.787
MS.343         	9.735          	5.843
MS.344         	9.715          	5.791
MS.345         	9.698          	5.676
MS.346         	9.677          	5.285
MS.347         	9.657          	5.942
MS.348         	9.637          	5.283
MS.349         	9.62           	5.162
MS.350         	9.6            	5.184
MS.351         	9.58           	5.174
MS.352         	9.562          	4.947
MS.353         	9.542          	5.239
MS.354         	9.523          	4.985
MS.355         	9.505          	4.486
MS.356         	9.485          	5.136
MS.357         	9.467          	4.749
MS.358         	9.448          	4.691
MS.359         	9.43           	4.689
MS.360         	9.41           	4.715
MS.361         	9.39           	4.453
MS.362         	9.372          	4.49
MS.363         	9.352          	4.705
MS.364         	9.335          	4.264
MS.365         	9.318          	4.32
MS.366         	9.297          	4.332
MS.367         	9.28           	4.244
MS.368         	9.26           	4.318
MS.369         	9.242          	4.202
MS.370         	9.222          	4.097
MS.371         	9.205          	4.117
MS.372         	9.188          	4.042
MS.373         	9.167          	3.954
MS.374         	9.15           	3.843
MS.375         	9.132          	3.75
MS.376         	9.113          	3.97
MS.377         	9.095          	3.827
MS.378         	9.077          	3.773
MS.379         	9.06           	3.658
MS.380         	9.04           	3.821
MS.381         	9.023          	3.809
MS.382         	9.005          	3.628
MS.383         	8.988          	3.493
MS.384         	8.97           	3.098
MS.385         	8.95           	3.63
MS.386         	8.932          	2.796
MS.387         	8.915          	2.955
MS.388         	8.898          	3.231
MS.389         	8.88           	3.096
MS.390         	8.863          	2.9
MS.391         	8.845          	2.999
MS.392         	8.827          	2.546
MS.393         	8.81           	2.864
MS.394         	8.792          	2.322
MS.395         	8.775          	2.757
MS.396         	8.755          	2.741
MS.397         	8.74           	2.355
MS.398         	8.722          	2.385
MS.399         	8.705          	2.328
MS.400         	8.688          	2.216
MS.401         	8.67           	2.252
MS.402         	8.653          	2.206
MS.403         	8.635          	1.905
MS.404         	8.617          	2.175
MS.405         	8.6            	2.125
MS.406         	8.582          	1.952
MS.407         	8.565          	2.131
MS.408         	8.547          	2.046
MS.409         	8.533          	1.988
MS.410         	8.515          	1.96
MS.411         	8.497          	1.863
MS.412         	8.48           	2.056
MS.413         	8.462          	1.805
MS.414         	8.448          	1.77
MS.415         	8.43           	1.72
MS.416         	8.412          	1.764
MS.417         	8.395          	1.48
MS.418         	8.38           	1.781
MS.419         	8.363          	1.468
MS.420         	8.345          	1.414
MS.421         	8.33           	1.67
MS.422         	8.312          	1.553
MS.423         	8.295          	1.448
MS.424         	8.28           	1.378
MS.425         	8.262          	1.402
MS.426         	8.247          	1.287
MS.427         	8.23           	1.458
MS.428         	8.212          	1.335
MS.429         	8.198          	1.287
MS.430         	8.18           	1.229
MS.431         	8.165          	1.166
MS.432         	8.148          	1.116
MS.433         	8.132          	1.223
MS.434         	8.115          	1.148
MS.435         	8.1            	1.14
MS.436         	8.082          	1.029
MS.437         	8.068          	1.104
MS.438         	8.05           	0.955
MS.439         	8.035          	0.931
MS.440         	8.017          	0.993
MS.441         	8.002          	0.961
MS.442         	7.987          	0.9
MS.443         	7.97           	0.888
MS.444         	7.955          	1.021
MS.445         	7.94           	0.918
MS.446         	7.922          	0.866
MS.447         	7.907          	0.892
MS.448         	7.892          	0.876
MS.449         	7.875          	0.935
MS.450         	7.86           	0.745
MS.451         	7.845          	0.818
MS.452         	7.827          	0.779
MS.453         	7.812          	0.781
MS.454         	7.797          	0.729
MS.455         	7.782          	0.769
MS.456         	7.765          	0.765
MS.457         	7.75           	0.649
MS.458         	7.735          	0.725
MS.459         	7.72           	0.655
MS.460         	7.705          	0.727
MS.461         	7.69           	0.645
MS.462         	7.672          	0.62
MS.463         	7.657          	0.667
MS.464         	7.642          	0.705
MS.465         	7.628          	0.61
MS.466         	7.612          	0.608
MS.467         	7.597          	0.59
MS.468         	7.582          	0.572
MS.469         	7.567          	0.588
MS.470         	7.552          	0.588
MS.471         	7.537          	0.6
MS.472         	7.523          	0.536
MS.473         	7.507          	0.52
MS.474         	7.492          	0.526
MS.475         	7.477          	0.522
MS.476         	7.462          	0.51
MS.477         	7.447          	0.524
MS.478         	7.432          	0.52
MS.479         	7.418          	0.528
MS.480         	7.402          	0.491
MS.481         	7.387          	0.451
MS.482         	7.372          	0.409
MS.483         	7.357          	0.475
MS.484         	7.342          	0.379
MS.485         	7.327          	0.359
MS.486         	7.315          	0.421
MS.487         	7.3            	0.344
MS.488         	7.285          	0.419
MS.489         	7.27           	0.367
MS.490         	7.255          	0.487
MS.491         	7.24           	0.359
MS.492         	7.227          	0.363
MS.493         	7.212          	0.357
MS.494         	7.197          	0.397
MS.495         	7.182          	0.35
MS.496         	7.17           	0.324
