File:              	C:\Qtrac\Data\Daniel M Sørensen\MScan multicentre study\Data from centres\Bucharest\Processed data\TDLC00828B.QZD
Name:              	RO.BU.NC.5.1
Protocol:          	MSCAN-R2
Date:              	28/8/20
Start time:        	12:41:52
Age:               	53
Sex:               	F
Temperature:       	36.8
S/R sites:         	ADM
NC/disease:        	NC
Operator:          	TL
Comments:          	RONC5.1.
M-SCAN DATA (7.7-1.3m)
Scanpts: 30, 34, 536, 567
Stim. (mA)     	Amp. (mV)
MS.1           	19             	8.278
MS.2           	19             	8.284
MS.3           	19             	8.266
MS.4           	19             	8.276
MS.5           	19             	8.286
MS.6           	19             	8.296
MS.7           	19             	8.292
MS.8           	19             	8.27
MS.9           	19             	8.292
MS.10          	19             	8.288
MS.11          	19             	8.274
MS.12          	19             	8.286
MS.13          	19             	8.284
MS.14          	19             	8.286
MS.15          	19             	8.266
MS.16          	19             	8.272
MS.17          	19             	8.268
MS.18          	19             	8.288
MS.19          	19             	8.276
MS.20          	19             	8.268
MS.21          	19             	8.268
MS.22          	19             	8.28
MS.23          	19             	8.272
MS.24          	18.925         	8.258
MS.25          	18.887         	8.246
MS.26          	18.847         	8.26
MS.27          	18.81          	8.262
MS.28          	18.772         	8.282
MS.29          	18.735         	8.278
MS.30          	18.698         	8.3
MS.31          	18.66          	8.28
MS.32          	18.622         	8.294
MS.33          	18.587         	8.276
MS.34          	18.55          	8.29
MS.35          	18.512         	8.31
MS.36          	18.475         	8.296
MS.37          	18.438         	8.278
MS.38          	18.403         	8.294
MS.39          	18.365         	8.262
MS.40          	18.327         	8.274
MS.41          	18.292         	8.264
MS.42          	18.255         	8.264
MS.43          	18.217         	8.278
MS.44          	18.182         	8.248
MS.45          	18.145         	8.296
MS.46          	18.11          	8.226
MS.47          	18.073         	8.272
MS.48          	18.038         	8.294
MS.49          	18             	8.276
MS.50          	17.965         	8.262
MS.51          	17.93          	8.256
MS.52          	17.892         	8.272
MS.53          	17.858         	8.266
MS.54          	17.823         	8.296
MS.55          	17.788         	8.264
MS.56          	17.75          	8.288
MS.57          	17.715         	8.26
MS.58          	17.68          	8.268
MS.59          	17.645         	8.282
MS.60          	17.61          	8.272
MS.61          	17.575         	8.274
MS.62          	17.54          	8.25
MS.63          	17.505         	8.268
MS.64          	17.47          	8.252
MS.65          	17.435         	8.252
MS.66          	17.4           	8.276
MS.67          	17.365         	8.264
MS.68          	17.33          	8.224
MS.69          	17.295         	8.204
MS.70          	17.26          	8.198
MS.71          	17.227         	8.175
MS.72          	17.192         	8.198
MS.73          	17.157         	8.226
MS.74          	17.122         	8.234
MS.75          	17.09          	8.22
MS.76          	17.055         	8.228
MS.77          	17.02          	8.258
MS.78          	16.987         	8.22
MS.79          	16.952         	8.224
MS.80          	16.92          	8.198
MS.81          	16.885         	8.23
MS.82          	16.852         	8.272
MS.83          	16.817         	8.216
MS.84          	16.785         	8.24
MS.85          	16.75          	8.22
MS.86          	16.717         	8.202
MS.87          	16.682         	8.212
MS.88          	16.65          	8.202
MS.89          	16.618         	8.177
MS.90          	16.585         	8.155
MS.91          	16.55          	8.151
MS.92          	16.517         	8.091
MS.93          	16.485         	8.099
MS.94          	16.452         	8.083
MS.95          	16.42          	8.115
MS.96          	16.385         	8.039
MS.97          	16.352         	8.032
MS.98          	16.32          	8.018
MS.99          	16.288         	8.03
MS.100         	16.255         	8.034
MS.101         	16.222         	7.934
MS.102         	16.19          	7.879
MS.103         	16.157         	7.996
MS.104         	16.125         	7.811
MS.105         	16.095         	7.789
MS.106         	16.062         	7.845
MS.107         	16.03          	7.902
MS.108         	15.997         	7.851
MS.109         	15.965         	7.849
MS.110         	15.932         	7.853
MS.111         	15.902         	7.97
MS.112         	15.87          	7.954
MS.113         	15.837         	7.849
MS.114         	15.807         	7.722
MS.115         	15.775         	7.767
MS.116         	15.742         	7.656
MS.117         	15.712         	7.71
MS.118         	15.68          	7.628
MS.119         	15.65          	7.569
MS.120         	15.617         	7.674
MS.121         	15.587         	7.549
MS.122         	15.555         	7.545
MS.123         	15.525         	7.43
MS.124         	15.492         	7.362
MS.125         	15.462         	7.376
MS.126         	15.432         	7.374
MS.127         	15.4           	7.392
MS.128         	15.37          	7.511
MS.129         	15.34          	7.354
MS.130         	15.31          	7.326
MS.131         	15.277         	7.301
MS.132         	15.247         	7.358
MS.133         	15.217         	7.209
MS.134         	15.188         	7.217
MS.135         	15.157         	7.144
MS.136         	15.127         	7.271
MS.137         	15.095         	7.092
MS.138         	15.065         	6.999
MS.139         	15.035         	7.096
MS.140         	15.005         	7.156
MS.141         	14.975         	6.816
MS.142         	14.945         	6.882
MS.143         	14.915         	6.929
MS.144         	14.885         	6.667
MS.145         	14.858         	6.828
MS.146         	14.827         	6.794
MS.147         	14.797         	6.671
MS.148         	14.767         	6.6
MS.149         	14.737         	6.639
MS.150         	14.707         	6.522
MS.151         	14.68          	6.439
MS.152         	14.65          	6.753
MS.153         	14.62          	6.663
MS.154         	14.592         	6.312
MS.155         	14.562         	6.399
MS.156         	14.532         	6.518
MS.157         	14.505         	6.204
MS.158         	14.475         	6.322
MS.159         	14.447         	6.165
MS.160         	14.417         	6.298
MS.161         	14.387         	6.188
MS.162         	14.36          	6.232
MS.163         	14.33          	6.133
MS.164         	14.302         	6.067
MS.165         	14.275         	6.036
MS.166         	14.245         	6.212
MS.167         	14.217         	6.038
MS.168         	14.188         	5.984
MS.169         	14.16          	6.059
MS.170         	14.132         	6.085
MS.171         	14.102         	6.071
MS.172         	14.075         	5.722
MS.173         	14.047         	5.752
MS.174         	14.02          	5.726
MS.175         	13.992         	5.944
MS.176         	13.962         	5.736
MS.177         	13.935         	5.712
MS.178         	13.907         	5.763
MS.179         	13.88          	5.597
MS.180         	13.852         	5.517
MS.181         	13.825         	5.479
MS.182         	13.797         	5.503
MS.183         	13.77          	5.515
MS.184         	13.742         	5.331
MS.185         	13.715         	5.207
MS.186         	13.688         	5.396
MS.187         	13.66          	5.174
MS.188         	13.632         	5.138
MS.189         	13.605         	5.178
MS.190         	13.577         	5.201
MS.191         	13.55          	5.354
MS.192         	13.523         	5.12
MS.193         	13.497         	5.049
MS.194         	13.47          	5.19
MS.195         	13.443         	5.166
MS.196         	13.415         	5.058
MS.197         	13.39          	4.896
MS.198         	13.362         	4.969
MS.199         	13.335         	4.729
MS.200         	13.31          	4.896
MS.201         	13.282         	4.804
MS.202         	13.255         	4.753
MS.203         	13.23          	4.731
MS.204         	13.202         	4.645
MS.205         	13.177         	4.61
MS.206         	13.15          	4.556
MS.207         	13.125         	4.544
MS.208         	13.097         	4.625
MS.209         	13.072         	4.665
MS.210         	13.045         	4.5
MS.211         	13.02          	4.429
MS.212         	12.992         	4.498
MS.213         	12.967         	4.292
MS.214         	12.943         	4.266
MS.215         	12.915         	4.248
MS.216         	12.89          	4.113
MS.217         	12.865         	4.204
MS.218         	12.837         	4.234
MS.219         	12.812         	4.181
MS.220         	12.787         	3.97
MS.221         	12.762         	4.151
MS.222         	12.735         	3.984
MS.223         	12.71          	3.988
MS.224         	12.685         	3.97
MS.225         	12.66          	3.974
MS.226         	12.635         	4.028
MS.227         	12.61          	3.978
MS.228         	12.585         	3.883
MS.229         	12.56          	3.911
MS.230         	12.535         	3.718
MS.231         	12.51          	3.726
MS.232         	12.485         	3.799
MS.233         	12.46          	3.702
MS.234         	12.435         	3.605
MS.235         	12.41          	3.581
MS.236         	12.385         	3.662
MS.237         	12.36          	3.279
MS.238         	12.335         	3.487
MS.239         	12.31          	3.406
MS.240         	12.285         	3.605
MS.241         	12.26          	3.412
MS.242         	12.238         	3.464
MS.243         	12.212         	3.263
MS.244         	12.188         	3.231
MS.245         	12.162         	3.243
MS.246         	12.14          	3.39
MS.247         	12.115         	3.356
MS.248         	12.09          	3.48
MS.249         	12.068         	2.991
MS.250         	12.042         	2.874
MS.251         	12.017         	3.106
MS.252         	11.995         	2.731
MS.253         	11.97          	2.939
MS.254         	11.947         	2.892
MS.255         	11.922         	2.707
MS.256         	11.9           	2.461
MS.257         	11.875         	2.687
MS.258         	11.852         	2.655
MS.259         	11.827         	2.606
MS.260         	11.805         	2.604
MS.261         	11.78          	2.576
MS.262         	11.757         	2.778
MS.263         	11.733         	2.536
MS.264         	11.71          	2.417
MS.265         	11.688         	2.361
MS.266         	11.662         	2.328
MS.267         	11.64          	2.363
MS.268         	11.617         	2.447
MS.269         	11.592         	2.375
MS.270         	11.57          	2.191
MS.271         	11.547         	2.165
MS.272         	11.525         	2.216
MS.273         	11.5           	2.155
MS.274         	11.477         	2.097
MS.275         	11.455         	2.246
MS.276         	11.432         	2.145
MS.277         	11.41          	2.189
MS.278         	11.387         	2.028
MS.279         	11.365         	2.06
MS.280         	11.34          	1.992
MS.281         	11.318         	2.069
MS.282         	11.295         	2.008
MS.283         	11.273         	1.797
MS.284         	11.25          	1.952
MS.285         	11.227         	1.762
MS.286         	11.205         	1.863
MS.287         	11.182         	1.871
MS.288         	11.16          	1.911
MS.289         	11.14          	1.801
MS.290         	11.117         	1.629
MS.291         	11.095         	1.76
MS.292         	11.073         	1.666
MS.293         	11.05          	1.517
MS.294         	11.028         	1.529
MS.295         	11.005         	1.523
MS.296         	10.985         	1.495
MS.297         	10.962         	1.434
MS.298         	10.94          	1.499
MS.299         	10.917         	1.436
MS.300         	10.898         	1.511
MS.301         	10.875         	1.47
MS.302         	10.852         	1.541
MS.303         	10.83          	1.555
MS.304         	10.81          	1.418
MS.305         	10.787         	1.309
MS.306         	10.767         	1.404
MS.307         	10.745         	1.354
MS.308         	10.722         	1.442
MS.309         	10.702         	1.243
MS.310         	10.68          	1.309
MS.311         	10.66          	1.198
MS.312         	10.637         	1.275
MS.313         	10.617         	1.202
MS.314         	10.595         	1.116
MS.315         	10.575         	1.184
MS.316         	10.552         	1.299
MS.317         	10.532         	1.063
MS.318         	10.51          	1.18
MS.319         	10.49          	1.14
MS.320         	10.47          	1.17
MS.321         	10.448         	1.072
MS.322         	10.427         	1.235
MS.323         	10.407         	1.039
MS.324         	10.385         	1.025
MS.325         	10.365         	1.172
MS.326         	10.345         	1.144
MS.327         	10.323         	1.098
MS.328         	10.302         	1.098
MS.329         	10.282         	1.086
MS.330         	10.262         	1.047
MS.331         	10.242         	0.927
MS.332         	10.22          	1.007
MS.333         	10.2           	0.955
MS.334         	10.18          	0.987
MS.335         	10.16          	1.055
MS.336         	10.14          	0.967
MS.337         	10.12          	0.959
MS.338         	10.1           	1.049
MS.339         	10.08          	0.969
MS.340         	10.057         	0.92
MS.341         	10.037         	0.814
MS.342         	10.017         	0.929
MS.343         	9.997          	0.864
MS.344         	9.977          	0.862
MS.345         	9.957          	0.802
MS.346         	9.938          	0.84
MS.347         	9.92           	0.844
MS.348         	9.9            	0.878
MS.349         	9.88           	0.81
MS.350         	9.86           	0.814
MS.351         	9.84           	0.848
MS.352         	9.82           	0.85
MS.353         	9.8            	0.874
MS.354         	9.78           	0.846
MS.355         	9.762          	0.81
MS.356         	9.742          	0.822
MS.357         	9.722          	0.814
MS.358         	9.702          	0.745
MS.359         	9.682          	0.719
MS.360         	9.665          	0.816
MS.361         	9.645          	0.616
MS.362         	9.625          	0.669
MS.363         	9.608          	0.727
MS.364         	9.587          	0.695
MS.365         	9.568          	0.699
MS.366         	9.55           	0.695
MS.367         	9.53           	0.711
MS.368         	9.51           	0.641
MS.369         	9.492          	0.681
MS.370         	9.472          	0.683
MS.371         	9.455          	0.673
MS.372         	9.435          	0.677
MS.373         	9.415          	0.59
MS.374         	9.398          	0.612
MS.375         	9.377          	0.54
MS.376         	9.36           	0.552
MS.377         	9.34           	0.651
MS.378         	9.323          	0.604
MS.379         	9.305          	0.508
MS.380         	9.285          	0.552
MS.381         	9.267          	0.497
MS.382         	9.247          	0.542
MS.383         	9.23           	0.493
MS.384         	9.212          	0.502
MS.385         	9.193          	0.493
MS.386         	9.175          	0.465
MS.387         	9.155          	0.5
MS.388         	9.137          	0.485
MS.389         	9.12           	0.461
MS.390         	9.102          	0.459
MS.391         	9.082          	0.437
MS.392         	9.065          	0.546
MS.393         	9.047          	0.489
MS.394         	9.03           	0.497
MS.395         	9.01           	0.514
MS.396         	8.992          	0.508
MS.397         	8.975          	0.441
MS.398         	8.957          	0.447
MS.399         	8.94           	0.409
MS.400         	8.92           	0.413
MS.401         	8.903          	0.423
MS.402         	8.885          	0.377
MS.403         	8.867          	0.451
MS.404         	8.85           	0.413
MS.405         	8.832          	0.481
MS.406         	8.815          	0.399
MS.407         	8.797          	0.359
MS.408         	8.78           	0.318
MS.409         	8.762          	0.322
MS.410         	8.745          	0.292
MS.411         	8.727          	0.274
MS.412         	8.71           	0.316
MS.413         	8.693          	0.338
MS.414         	8.675          	0.242
MS.415         	8.658          	0.288
MS.416         	8.64           	0.258
MS.417         	8.622          	0.199
MS.418         	8.605          	0.262
MS.419         	8.587          	0.222
MS.420         	8.573          	0.266
MS.421         	8.555          	0.169
MS.422         	8.537          	0.167
MS.423         	8.52           	0.224
MS.424         	8.502          	0.238
MS.425         	8.485          	0.187
MS.426         	8.47           	0.224
MS.427         	8.452          	0.226
MS.428         	8.435          	0.214
MS.429         	8.417          	0.197
MS.430         	8.403          	0.181
MS.431         	8.385          	0.195
MS.432         	8.367          	0.201
MS.433         	8.352          	0.157
MS.434         	8.335          	0.177
MS.435         	8.318          	0.175
MS.436         	8.302          	0.145
MS.437         	8.285          	0.139
MS.438         	8.267          	0.131
MS.439         	8.252          	0.139
MS.440         	8.235          	0.137
MS.441         	8.22           	0.141
MS.442         	8.202          	0.117
MS.443         	8.185          	0.145
MS.444         	8.17           	0.135
MS.445         	8.153          	0.149
MS.446         	8.137          	0.123
MS.447         	8.12           	0.129
MS.448         	8.105          	0.131
MS.449         	8.087          	0.137
MS.450         	8.073          	0.125
MS.451         	8.055          	0.139
MS.452         	8.04           	0.133
MS.453         	8.025          	0.107
MS.454         	8.007          	0.115
MS.455         	7.992          	0.119
MS.456         	7.975          	0.113
MS.457         	7.96           	0.115
MS.458         	7.945          	0.079
MS.459         	7.927          	0.121
MS.460         	7.912          	0.129
MS.461         	7.898          	0.119
MS.462         	7.88           	0.109
MS.463         	7.865          	0.125
MS.464         	7.85           	0.111
MS.465         	7.832          	0.121
MS.466         	7.817          	0.121
MS.467         	7.802          	0.103
MS.468         	7.787          	0.113
MS.469         	7.773          	0.117
MS.470         	7.755          	0.119
MS.471         	7.74           	0.121
MS.472         	7.725          	0.075
MS.473         	7.71           	0.111
MS.474         	7.695          	0.119
MS.475         	7.677          	0.119
MS.476         	7.662          	0.117
MS.477         	7.648          	0.109
MS.478         	7.632          	0.083
MS.479         	7.617          	0.113
MS.480         	7.602          	0.083
MS.481         	7.587          	0.107
MS.482         	7.572          	0.109
MS.483         	7.557          	0.121
MS.484         	7.543          	0.103
MS.485         	7.527          	0.073
MS.486         	7.512          	0.079
MS.487         	7.497          	0.068
MS.488         	7.482          	0.046
MS.489         	7.467          	0.068
MS.490         	7.452          	0.064
MS.491         	7.438          	0.068
MS.492         	7.422          	0.068
MS.493         	7.407          	0.073
MS.494         	7.392          	0.052
MS.495         	7.378          	0.064
MS.496         	7.362          	0.05
MS.497         	7.347          	0.056
MS.498         	7.332          	0.068
MS.499         	7.317          	0.052
MS.500         	7.305          	0.066
