File:              	C:\Qtrac\Data\Daniel M Sørensen\MScan multicentre study\Data from centres\Bucharest\Processed data\TDLC01230B.QZD
Name:              	RO.BU.NC.9.1
Protocol:          	MSCAN-R2
Date:              	30/12/20
Start time:        	11:07:15
Age:               	35
Sex:               	M
Temperature:       	36.3
S/R sites:         	ADM
NC/disease:        	NC9
Operator:          	TL
Comments:          	RO.NC.9.1.
M-SCAN DATA (12.8-2m)
Scanpts: 282, 291, 997, 1035
Stim. (mA)     	Amp. (mV)
MS.1           	22.5           	9.199
MS.2           	22.5           	9.201
MS.3           	22.5           	9.203
MS.4           	22.5           	9.201
MS.5           	22.5           	9.215
MS.6           	22.5           	9.239
MS.7           	22.5           	9.229
MS.8           	22.5           	9.227
MS.9           	22.5           	9.255
MS.10          	22.5           	9.237
MS.11          	22.5           	9.255
MS.12          	22.5           	9.251
MS.13          	22.5           	9.251
MS.14          	22.5           	9.253
MS.15          	22.5           	9.243
MS.16          	22.5           	9.225
MS.17          	22.5           	9.247
MS.18          	22.5           	9.249
MS.19          	22.5           	9.293
MS.20          	22.5           	9.269
MS.21          	22.5           	9.269
MS.22          	22.5           	9.271
MS.23          	22.5           	9.269
MS.24          	22.41          	9.287
MS.25          	22.365         	9.277
MS.26          	22.32          	9.277
MS.27          	22.275         	9.275
MS.28          	22.233         	9.271
MS.29          	22.188         	9.283
MS.30          	22.142         	9.265
MS.31          	22.097         	9.277
MS.32          	22.055         	9.279
MS.33          	22.01          	9.287
MS.34          	21.967         	9.277
MS.35          	21.922         	9.279
MS.36          	21.877         	9.279
MS.37          	21.835         	9.275
MS.38          	21.792         	9.261
MS.39          	21.747         	9.293
MS.40          	21.705         	9.285
MS.41          	21.66          	9.275
MS.42          	21.618         	9.277
MS.43          	21.575         	9.303
MS.44          	21.532         	9.305
MS.45          	21.487         	9.277
MS.46          	21.445         	9.293
MS.47          	21.403         	9.291
MS.48          	21.36          	9.285
MS.49          	21.317         	9.283
MS.50          	21.275         	9.287
MS.51          	21.233         	9.289
MS.52          	21.19          	9.297
MS.53          	21.147         	9.293
MS.54          	21.105         	9.291
MS.55          	21.062         	9.285
MS.56          	21.02          	9.287
MS.57          	20.98          	9.311
MS.58          	20.938         	9.305
MS.59          	20.895         	9.305
MS.60          	20.852         	9.289
MS.61          	20.812         	9.279
MS.62          	20.77          	9.275
MS.63          	20.727         	9.279
MS.64          	20.688         	9.291
MS.65          	20.645         	9.305
MS.66          	20.605         	9.307
MS.67          	20.562         	9.326
MS.68          	20.522         	9.299
MS.69          	20.483         	9.305
MS.70          	20.44          	9.307
MS.71          	20.4           	9.311
MS.72          	20.36          	9.297
MS.73          	20.317         	9.315
MS.74          	20.278         	9.303
MS.75          	20.237         	9.33
MS.76          	20.198         	9.346
MS.77          	20.155         	9.344
MS.78          	20.115         	9.34
MS.79          	20.075         	9.36
MS.80          	20.035         	9.35
MS.81          	19.995         	9.36
MS.82          	19.955         	9.364
MS.83          	19.915         	9.368
MS.84          	19.875         	9.374
MS.85          	19.837         	9.382
MS.86          	19.797         	9.418
MS.87          	19.757         	9.39
MS.88          	19.717         	9.42
MS.89          	19.677         	9.42
MS.90          	19.64          	9.424
MS.91          	19.6           	9.398
MS.92          	19.56          	9.434
MS.93          	19.522         	9.424
MS.94          	19.483         	9.418
MS.95          	19.442         	9.436
MS.96          	19.405         	9.422
MS.97          	19.365         	9.428
MS.98          	19.327         	9.424
MS.99          	19.288         	9.432
MS.100         	19.25          	9.432
MS.101         	19.212         	9.42
MS.102         	19.172         	9.428
MS.103         	19.135         	9.44
MS.104         	19.097         	9.436
MS.105         	19.057         	9.438
MS.106         	19.02          	9.44
MS.107         	18.983         	9.426
MS.108         	18.945         	9.446
MS.109         	18.907         	9.448
MS.110         	18.87          	9.456
MS.111         	18.83          	9.432
MS.112         	18.792         	9.44
MS.113         	18.755         	9.426
MS.114         	18.717         	9.448
MS.115         	18.68          	9.465
MS.116         	18.645         	9.452
MS.117         	18.608         	9.469
MS.118         	18.57          	9.45
MS.119         	18.532         	9.442
MS.120         	18.495         	9.454
MS.121         	18.458         	9.465
MS.122         	18.422         	9.465
MS.123         	18.385         	9.452
MS.124         	18.347         	9.467
MS.125         	18.31          	9.463
MS.126         	18.275         	9.458
MS.127         	18.237         	9.461
MS.128         	18.202         	9.477
MS.129         	18.165         	9.475
MS.130         	18.13          	9.452
MS.131         	18.092         	9.471
MS.132         	18.057         	9.454
MS.133         	18.02          	9.458
MS.134         	17.985         	9.479
MS.135         	17.948         	9.467
MS.136         	17.913         	9.479
MS.137         	17.878         	9.473
MS.138         	17.84          	9.471
MS.139         	17.805         	9.483
MS.140         	17.77          	9.481
MS.141         	17.735         	9.479
MS.142         	17.7           	9.491
MS.143         	17.663         	9.483
MS.144         	17.628         	9.454
MS.145         	17.592         	9.471
MS.146         	17.557         	9.491
MS.147         	17.522         	9.495
MS.148         	17.487         	9.497
MS.149         	17.452         	9.515
MS.150         	17.417         	9.497
MS.151         	17.382         	9.489
MS.152         	17.347         	9.487
MS.153         	17.315         	9.497
MS.154         	17.28          	9.485
MS.155         	17.245         	9.487
MS.156         	17.21          	9.489
MS.157         	17.175         	9.485
MS.158         	17.142         	9.493
MS.159         	17.108         	9.511
MS.160         	17.073         	9.487
MS.161         	17.04          	9.503
MS.162         	17.005         	9.505
MS.163         	16.97          	9.507
MS.164         	16.938         	9.517
MS.165         	16.903         	9.503
MS.166         	16.87          	9.495
MS.167         	16.835         	9.507
MS.168         	16.802         	9.523
MS.169         	16.767         	9.529
MS.170         	16.735         	9.517
MS.171         	16.702         	9.539
MS.172         	16.667         	9.541
MS.173         	16.635         	9.521
MS.174         	16.602         	9.525
MS.175         	16.567         	9.529
MS.176         	16.535         	9.527
MS.177         	16.503         	9.515
MS.178         	16.47          	9.537
MS.179         	16.438         	9.533
MS.180         	16.405         	9.523
MS.181         	16.37          	9.543
MS.182         	16.337         	9.525
MS.183         	16.305         	9.541
MS.184         	16.272         	9.531
MS.185         	16.24          	9.529
MS.186         	16.208         	9.523
MS.187         	16.175         	9.531
MS.188         	16.142         	9.539
MS.189         	16.11          	9.531
MS.190         	16.08          	9.525
MS.191         	16.047         	9.541
MS.192         	16.015         	9.523
MS.193         	15.983         	9.529
MS.194         	15.95          	9.527
MS.195         	15.92          	9.509
MS.196         	15.887         	9.531
MS.197         	15.855         	9.539
MS.198         	15.822         	9.521
MS.199         	15.792         	9.517
MS.200         	15.76          	9.543
MS.201         	15.73          	9.529
MS.202         	15.697         	9.525
MS.203         	15.667         	9.545
MS.204         	15.635         	9.549
MS.205         	15.602         	9.543
MS.206         	15.572         	9.543
MS.207         	15.542         	9.541
MS.208         	15.51          	9.561
MS.209         	15.48          	9.543
MS.210         	15.447         	9.545
MS.211         	15.417         	9.527
MS.212         	15.387         	9.555
MS.213         	15.355         	9.555
MS.214         	15.325         	9.543
MS.215         	15.295         	9.537
MS.216         	15.265         	9.539
MS.217         	15.233         	9.537
MS.218         	15.202         	9.547
MS.219         	15.172         	9.527
MS.220         	15.142         	9.547
MS.221         	15.112         	9.529
MS.222         	15.082         	9.535
MS.223         	15.052         	9.529
MS.224         	15.023         	9.531
MS.225         	14.992         	9.557
MS.226         	14.962         	9.529
MS.227         	14.932         	9.545
MS.228         	14.902         	9.541
MS.229         	14.872         	9.541
MS.230         	14.842         	9.537
MS.231         	14.812         	9.535
MS.232         	14.782         	9.551
MS.233         	14.755         	9.535
MS.234         	14.725         	9.557
MS.235         	14.695         	9.537
MS.236         	14.665         	9.527
MS.237         	14.637         	9.541
MS.238         	14.608         	9.533
MS.239         	14.577         	9.549
MS.240         	14.55          	9.539
MS.241         	14.52          	9.545
MS.242         	14.49          	9.551
MS.243         	14.462         	9.541
MS.244         	14.432         	9.533
MS.245         	14.405         	9.553
MS.246         	14.375         	9.549
MS.247         	14.347         	9.567
MS.248         	14.318         	9.573
MS.249         	14.29          	9.565
MS.250         	14.26          	9.541
MS.251         	14.233         	9.547
MS.252         	14.205         	9.549
MS.253         	14.175         	9.563
MS.254         	14.148         	9.547
MS.255         	14.12          	9.571
MS.256         	14.09          	9.561
MS.257         	14.062         	9.561
MS.258         	14.035         	9.561
MS.259         	14.007         	9.539
MS.260         	13.977         	9.545
MS.261         	13.95          	9.541
MS.262         	13.922         	9.545
MS.263         	13.895         	9.553
MS.264         	13.867         	9.569
MS.265         	13.84          	9.529
MS.266         	13.812         	9.559
MS.267         	13.785         	9.547
MS.268         	13.757         	9.577
MS.269         	13.73          	9.563
MS.270         	13.702         	9.551
MS.271         	13.675         	9.557
MS.272         	13.648         	9.543
MS.273         	13.62          	9.557
MS.274         	13.592         	9.575
MS.275         	13.565         	9.563
MS.276         	13.537         	9.573
MS.277         	13.51          	9.559
MS.278         	13.485         	9.559
MS.279         	13.457         	9.559
MS.280         	13.43          	9.567
MS.281         	13.403         	9.571
MS.282         	13.377         	9.563
MS.283         	13.35          	9.559
MS.284         	13.322         	9.573
MS.285         	13.297         	9.569
MS.286         	13.27          	9.559
MS.287         	13.242         	9.549
MS.288         	13.217         	9.571
MS.289         	13.19          	9.593
MS.290         	13.165         	9.549
MS.291         	13.137         	9.581
MS.292         	13.112         	9.573
MS.293         	13.085         	9.581
MS.294         	13.06          	9.593
MS.295         	13.032         	9.602
MS.296         	13.007         	9.577
MS.297         	12.983         	9.577
MS.298         	12.955         	9.565
MS.299         	12.93          	9.577
MS.300         	12.903         	9.555
MS.301         	12.877         	9.565
MS.302         	12.852         	9.549
MS.303         	12.827         	9.553
MS.304         	12.8           	9.585
MS.305         	12.775         	9.573
MS.306         	12.75          	9.551
MS.307         	12.725         	9.539
MS.308         	12.7           	9.563
MS.309         	12.672         	9.559
MS.310         	12.648         	9.549
MS.311         	12.622         	9.545
MS.312         	12.597         	9.545
MS.313         	12.572         	9.549
MS.314         	12.547         	9.549
MS.315         	12.523         	9.565
MS.316         	12.497         	9.541
MS.317         	12.472         	9.545
MS.318         	12.447         	9.559
MS.319         	12.422         	9.535
MS.320         	12.398         	9.541
MS.321         	12.372         	9.549
MS.322         	12.347         	9.539
MS.323         	12.322         	9.551
MS.324         	12.3           	9.543
MS.325         	12.275         	9.547
MS.326         	12.25          	9.543
MS.327         	12.225         	9.543
MS.328         	12.2           	9.541
MS.329         	12.177         	9.527
MS.330         	12.153         	9.529
MS.331         	12.127         	9.543
MS.332         	12.102         	9.531
MS.333         	12.08          	9.547
MS.334         	12.055         	9.525
MS.335         	12.032         	9.535
MS.336         	12.007         	9.539
MS.337         	11.983         	9.535
MS.338         	11.96          	9.541
MS.339         	11.935         	9.519
MS.340         	11.912         	9.539
MS.341         	11.887         	9.527
MS.342         	11.865         	9.523
MS.343         	11.84          	9.529
MS.344         	11.818         	9.523
MS.345         	11.792         	9.531
MS.346         	11.77          	9.533
MS.347         	11.745         	9.535
MS.348         	11.722         	9.509
MS.349         	11.7           	9.481
MS.350         	11.675         	9.511
MS.351         	11.653         	9.529
MS.352         	11.63          	9.529
MS.353         	11.605         	9.477
MS.354         	11.582         	9.529
MS.355         	11.56          	9.509
MS.356         	11.537         	9.511
MS.357         	11.512         	9.491
MS.358         	11.49          	9.525
MS.359         	11.467         	9.515
MS.360         	11.445         	9.491
MS.361         	11.422         	9.511
MS.362         	11.4           	9.507
MS.363         	11.375         	9.495
MS.364         	11.352         	9.463
MS.365         	11.33          	9.517
MS.366         	11.307         	9.487
MS.367         	11.285         	9.491
MS.368         	11.262         	9.483
MS.369         	11.24          	9.483
MS.370         	11.217         	9.485
MS.371         	11.195         	9.446
MS.372         	11.172         	9.438
MS.373         	11.15          	9.461
MS.374         	11.127         	9.487
MS.375         	11.108         	9.485
MS.376         	11.085         	9.471
MS.377         	11.062         	9.467
MS.378         	11.04          	9.473
MS.379         	11.017         	9.456
MS.380         	10.995         	9.469
MS.381         	10.975         	9.471
MS.382         	10.952         	9.465
MS.383         	10.93          	9.467
MS.384         	10.907         	9.471
MS.385         	10.887         	9.487
MS.386         	10.865         	9.483
MS.387         	10.842         	9.493
MS.388         	10.82          	9.481
MS.389         	10.8           	9.501
MS.390         	10.778         	9.471
MS.391         	10.757         	9.477
MS.392         	10.735         	9.458
MS.393         	10.712         	9.463
MS.394         	10.693         	9.463
MS.395         	10.67          	9.36
MS.396         	10.65          	9.491
MS.397         	10.627         	9.499
MS.398         	10.608         	9.497
MS.399         	10.585         	9.471
MS.400         	10.565         	9.475
MS.401         	10.542         	9.452
MS.402         	10.523         	9.458
MS.403         	10.502         	9.426
MS.404         	10.48          	9.469
MS.405         	10.46          	9.477
MS.406         	10.438         	9.458
MS.407         	10.417         	9.418
MS.408         	10.398         	9.41
MS.409         	10.375         	9.36
MS.410         	10.355         	9.434
MS.411         	10.335         	9.311
MS.412         	10.315         	9.324
MS.413         	10.292         	9.338
MS.414         	10.273         	9.338
MS.415         	10.252         	9.257
MS.416         	10.233         	9.273
MS.417         	10.212         	9.243
MS.418         	10.19          	9.253
MS.419         	10.17          	9.209
MS.420         	10.15          	9.275
MS.421         	10.13          	9.279
MS.422         	10.11          	9.227
MS.423         	10.09          	9.205
MS.424         	10.07          	9.243
MS.425         	10.05          	9.207
MS.426         	10.03          	9.261
MS.427         	10.01          	9.213
MS.428         	9.99           	9.223
MS.429         	9.97           	9.201
MS.430         	9.95           	9.211
MS.431         	9.93           	9.211
MS.432         	9.91           	9.189
MS.433         	9.89           	9.174
MS.434         	9.87           	9.185
MS.435         	9.85           	9.187
MS.436         	9.83           	9.183
MS.437         	9.81           	9.183
MS.438         	9.792          	9.17
MS.439         	9.773          	9.136
MS.440         	9.752          	9.138
MS.441         	9.733          	9.158
MS.442         	9.712          	9.148
MS.443         	9.695          	9.177
MS.444         	9.675          	9.136
MS.445         	9.655          	9.183
MS.446         	9.635          	9.15
MS.447         	9.617          	9.094
MS.448         	9.597          	9.092
MS.449         	9.577          	9.102
MS.450         	9.56           	9.09
MS.451         	9.54           	9.086
MS.452         	9.52           	9.08
MS.453         	9.502          	9.054
MS.454         	9.483          	9.05
MS.455         	9.465          	8.919
MS.456         	9.445          	8.995
MS.457         	9.427          	9.06
MS.458         	9.407          	8.903
MS.459         	9.387          	8.971
MS.460         	9.37           	8.933
MS.461         	9.352          	8.945
MS.462         	9.332          	8.86
MS.463         	9.315          	8.901
MS.464         	9.295          	8.862
MS.465         	9.278          	8.911
MS.466         	9.257          	8.866
MS.467         	9.24           	8.866
MS.468         	9.222          	8.87
MS.469         	9.202          	8.846
MS.470         	9.185          	8.836
MS.471         	9.165          	8.774
MS.472         	9.148          	8.806
MS.473         	9.13           	8.822
MS.474         	9.113          	8.784
MS.475         	9.092          	8.639
MS.476         	9.075          	8.679
MS.477         	9.057          	8.741
MS.478         	9.037          	8.613
MS.479         	9.02           	8.768
MS.480         	9.002          	8.623
MS.481         	8.985          	8.665
MS.482         	8.967          	8.56
MS.483         	8.948          	8.574
MS.484         	8.93           	8.552
MS.485         	8.912          	8.568
MS.486         	8.895          	8.576
MS.487         	8.877          	8.498
MS.488         	8.86           	8.47
MS.489         	8.842          	8.562
MS.490         	8.825          	8.558
MS.491         	8.807          	8.534
MS.492         	8.79           	8.502
MS.493         	8.773          	8.391
MS.494         	8.755          	8.524
MS.495         	8.738          	8.536
MS.496         	8.72           	8.49
MS.497         	8.702          	8.49
MS.498         	8.685          	8.472
MS.499         	8.667          	8.429
MS.500         	8.65           	8.387
