File:              	C:\Qtrac\Data\Daniel M Sørensen\MScan multicentre study\Data from centres\Bucharest\Processed data\TDLC00921B.QZD
Name:              	RO.BU.NC.6.2
Protocol:          	MSCAN-R2
Date:              	21/9/20
Start time:        	14:26:31
Age:               	48
Sex:               	F
Temperature:       	36.3
S/R sites:         	ADM
NC/disease:        	NC
Operator:          	TL
Comments:          	RONC6.2.
M-SCAN DATA (9.6-1.4m)
Scanpts: 127, 136, 847, 857
Stim. (mA)     	Amp. (mV)
MS.1           	31.5           	5.64
MS.2           	31.5           	5.658
MS.3           	31.5           	5.666
MS.4           	31.5           	5.632
MS.5           	31.5           	5.626
MS.6           	31.5           	5.67
MS.7           	31.5           	5.662
MS.8           	31.5           	5.662
MS.9           	31.5           	5.642
MS.10          	31.5           	5.644
MS.11          	31.5           	5.668
MS.12          	31.5           	5.642
MS.13          	31.5           	5.642
MS.14          	31.5           	5.66
MS.15          	31.5           	5.642
MS.16          	31.5           	5.656
MS.17          	31.5           	5.64
MS.18          	31.5           	5.65
MS.19          	31.5           	5.636
MS.20          	31.5           	5.648
MS.21          	31.5           	5.64
MS.22          	31.5           	5.628
MS.23          	31.5           	5.632
MS.24          	31.375         	5.658
MS.25          	31.312         	5.615
MS.26          	31.25          	5.599
MS.27          	31.188         	5.613
MS.28          	31.125         	5.617
MS.29          	31.062         	5.615
MS.30          	31             	5.628
MS.31          	30.938         	5.593
MS.32          	30.875         	5.62
MS.33          	30.815         	5.615
MS.34          	30.752         	5.589
MS.35          	30.692         	5.617
MS.36          	30.63          	5.611
MS.37          	30.57          	5.583
MS.38          	30.507         	5.549
MS.39          	30.448         	5.597
MS.40          	30.385         	5.597
MS.41          	30.325         	5.569
MS.42          	30.265         	5.573
MS.43          	30.205         	5.575
MS.44          	30.145         	5.597
MS.45          	30.082         	5.622
MS.46          	30.022         	5.599
MS.47          	29.962         	5.589
MS.48          	29.903         	5.573
MS.49          	29.845         	5.571
MS.50          	29.785         	5.571
MS.51          	29.725         	5.581
MS.52          	29.665         	5.565
MS.53          	29.605         	5.557
MS.54          	29.547         	5.575
MS.55          	29.487         	5.563
MS.56          	29.43          	5.563
MS.57          	29.37          	5.571
MS.58          	29.312         	5.565
MS.59          	29.252         	5.567
MS.60          	29.195         	5.541
MS.61          	29.137         	5.573
MS.62          	29.077         	5.615
MS.63          	29.02          	5.583
MS.64          	28.962         	5.581
MS.65          	28.905         	5.577
MS.66          	28.847         	5.589
MS.67          	28.787         	5.609
MS.68          	28.73          	5.603
MS.69          	28.675         	5.601
MS.70          	28.618         	5.569
MS.71          	28.56          	5.593
MS.72          	28.502         	5.585
MS.73          	28.445         	5.545
MS.74          	28.387         	5.571
MS.75          	28.332         	5.589
MS.76          	28.275         	5.547
MS.77          	28.217         	5.551
MS.78          	28.162         	5.585
MS.79          	28.105         	5.561
MS.80          	28.05          	5.569
MS.81          	27.995         	5.571
MS.82          	27.938         	5.593
MS.83          	27.882         	5.573
MS.84          	27.827         	5.585
MS.85          	27.77          	5.559
MS.86          	27.715         	5.555
MS.87          	27.66          	5.581
MS.88          	27.605         	5.599
MS.89          	27.55          	5.617
MS.90          	27.495         	5.555
MS.91          	27.44          	5.559
MS.92          	27.385         	5.593
MS.93          	27.33          	5.611
MS.94          	27.275         	5.64
MS.95          	27.22          	5.601
MS.96          	27.167         	5.579
MS.97          	27.112         	5.603
MS.98          	27.057         	5.577
MS.99          	27.005         	5.613
MS.100         	26.95          	5.611
MS.101         	26.895         	5.555
MS.102         	26.842         	5.615
MS.103         	26.79          	5.585
MS.104         	26.735         	5.591
MS.105         	26.682         	5.583
MS.106         	26.627         	5.577
MS.107         	26.575         	5.591
MS.108         	26.522         	5.62
MS.109         	26.47          	5.587
MS.110         	26.417         	5.581
MS.111         	26.362         	5.632
MS.112         	26.31          	5.591
MS.113         	26.257         	5.599
MS.114         	26.205         	5.593
MS.115         	26.153         	5.63
MS.116         	26.102         	5.613
MS.117         	26.05          	5.583
MS.118         	25.997         	5.575
MS.119         	25.945         	5.589
MS.120         	25.892         	5.573
MS.121         	25.842         	5.581
MS.122         	25.79          	5.565
MS.123         	25.737         	5.585
MS.124         	25.688         	5.583
MS.125         	25.635         	5.587
MS.126         	25.585         	5.569
MS.127         	25.532         	5.583
MS.128         	25.483         	5.609
MS.129         	25.432         	5.559
MS.130         	25.38          	5.565
MS.131         	25.33          	5.573
MS.132         	25.28          	5.569
MS.133         	25.227         	5.547
MS.134         	25.177         	5.583
MS.135         	25.127         	5.597
MS.136         	25.077         	5.567
MS.137         	25.028         	5.583
MS.138         	24.977         	5.571
MS.139         	24.927         	5.561
MS.140         	24.877         	5.577
MS.141         	24.827         	5.573
MS.142         	24.778         	5.573
MS.143         	24.73          	5.587
MS.144         	24.68          	5.579
MS.145         	24.63          	5.589
MS.146         	24.58          	5.571
MS.147         	24.532         	5.589
MS.148         	24.483         	5.527
MS.149         	24.435         	5.595
MS.150         	24.385         	5.591
MS.151         	24.337         	5.613
MS.152         	24.288         	5.571
MS.153         	24.24          	5.551
MS.154         	24.19          	5.569
MS.155         	24.142         	5.605
MS.156         	24.095         	5.589
MS.157         	24.047         	5.605
MS.158         	23.997         	5.611
MS.159         	23.95          	5.585
MS.160         	23.903         	5.515
MS.161         	23.855         	5.557
MS.162         	23.807         	5.575
MS.163         	23.76          	5.573
MS.164         	23.712         	5.597
MS.165         	23.665         	5.464
MS.166         	23.618         	5.531
MS.167         	23.57          	5.551
MS.168         	23.522         	5.47
MS.169         	23.475         	5.511
MS.170         	23.43          	5.497
MS.171         	23.382         	5.517
MS.172         	23.335         	5.479
MS.173         	23.29          	5.529
MS.174         	23.243         	5.503
MS.175         	23.195         	5.501
MS.176         	23.15          	5.527
MS.177         	23.102         	5.521
MS.178         	23.057         	5.493
MS.179         	23.01          	5.479
MS.180         	22.965         	5.479
MS.181         	22.92          	5.464
MS.182         	22.872         	5.468
MS.183         	22.827         	5.585
MS.184         	22.782         	5.527
MS.185         	22.737         	5.533
MS.186         	22.692         	5.501
MS.187         	22.645         	5.525
MS.188         	22.6           	5.553
MS.189         	22.555         	5.547
MS.190         	22.51          	5.545
MS.191         	22.465         	5.477
MS.192         	22.42          	5.583
MS.193         	22.375         	5.513
MS.194         	22.33          	5.615
MS.195         	22.288         	5.559
MS.196         	22.243         	5.563
MS.197         	22.198         	5.595
MS.198         	22.153         	5.609
MS.199         	22.11          	5.575
MS.200         	22.065         	5.563
MS.201         	22.02          	5.601
MS.202         	21.977         	5.642
MS.203         	21.932         	5.557
MS.204         	21.89          	5.601
MS.205         	21.845         	5.555
MS.206         	21.802         	5.495
MS.207         	21.757         	5.505
MS.208         	21.715         	5.569
MS.209         	21.67          	5.503
MS.210         	21.627         	5.495
MS.211         	21.585         	5.601
MS.212         	21.542         	5.525
MS.213         	21.497         	5.527
MS.214         	21.455         	5.515
MS.215         	21.413         	5.497
MS.216         	21.37          	5.551
MS.217         	21.327         	5.485
MS.218         	21.285         	5.47
MS.219         	21.243         	5.541
MS.220         	21.2           	5.329
MS.221         	21.157         	5.456
MS.222         	21.115         	5.39
MS.223         	21.073         	5.235
MS.224         	21.03          	5.215
MS.225         	20.987         	5.424
MS.226         	20.948         	5.525
MS.227         	20.905         	5.513
MS.228         	20.862         	5.253
MS.229         	20.823         	5.188
MS.230         	20.78          	5.112
MS.231         	20.737         	5.188
MS.232         	20.698         	5.364
MS.233         	20.655         	5.285
MS.234         	20.615         	5.301
MS.235         	20.573         	5.348
MS.236         	20.532         	5.267
MS.237         	20.49          	5.219
MS.238         	20.45          	5.273
MS.239         	20.41          	5.247
MS.240         	20.368         	5.237
MS.241         	20.327         	5.138
MS.242         	20.288         	5.104
MS.243         	20.247         	5.054
MS.244         	20.205         	5.066
MS.245         	20.165         	5.084
MS.246         	20.125         	5.049
MS.247         	20.085         	5.136
MS.248         	20.045         	5.019
MS.249         	20.005         	5.16
MS.250         	19.965         	5.001
MS.251         	19.925         	5.166
MS.252         	19.885         	5.047
MS.253         	19.845         	5.033
MS.254         	19.805         	5.041
MS.255         	19.767         	5.062
MS.256         	19.727         	5.011
MS.257         	19.688         	4.991
MS.258         	19.647         	4.945
MS.259         	19.61          	4.921
MS.260         	19.57          	4.987
MS.261         	19.53          	4.913
MS.262         	19.493         	4.983
MS.263         	19.452         	4.949
MS.264         	19.415         	4.915
MS.265         	19.375         	4.981
MS.266         	19.337         	4.953
MS.267         	19.297         	4.975
MS.268         	19.26          	5.029
MS.269         	19.22          	5.007
MS.270         	19.182         	4.921
MS.271         	19.145         	4.945
MS.272         	19.105         	4.951
MS.273         	19.067         	4.979
MS.274         	19.03          	4.959
MS.275         	18.993         	4.991
MS.276         	18.952         	4.86
MS.277         	18.915         	4.999
MS.278         	18.877         	5.047
MS.279         	18.84          	4.911
MS.280         	18.802         	5.011
MS.281         	18.765         	4.987
MS.282         	18.727         	5.015
MS.283         	18.69          	4.848
MS.284         	18.653         	4.921
MS.285         	18.615         	4.973
MS.286         	18.577         	4.961
MS.287         	18.54          	4.876
MS.288         	18.505         	4.894
MS.289         	18.467         	4.86
MS.290         	18.43          	4.977
MS.291         	18.392         	4.939
MS.292         	18.358         	4.939
MS.293         	18.32          	4.904
MS.294         	18.282         	4.778
MS.295         	18.247         	4.84
MS.296         	18.21          	4.796
MS.297         	18.175         	4.81
MS.298         	18.137         	4.766
MS.299         	18.102         	4.576
MS.300         	18.065         	4.449
MS.301         	18.03          	4.635
MS.302         	17.993         	4.774
MS.303         	17.958         	4.834
MS.304         	17.92          	4.822
MS.305         	17.885         	4.326
MS.306         	17.85          	4.423
MS.307         	17.815         	4.429
MS.308         	17.778         	4.689
MS.309         	17.743         	4.695
MS.310         	17.708         	4.385
MS.311         	17.672         	4.167
MS.312         	17.637         	4.137
MS.313         	17.602         	4.286
MS.314         	17.567         	4.282
MS.315         	17.53          	3.905
MS.316         	17.495         	4.135
MS.317         	17.46          	4.099
MS.318         	17.427         	4.034
MS.319         	17.392         	4.085
MS.320         	17.358         	4.131
MS.321         	17.323         	3.903
MS.322         	17.288         	3.764
MS.323         	17.253         	4.006
MS.324         	17.217         	4.123
MS.325         	17.185         	4.351
MS.326         	17.15          	4.093
MS.327         	17.115         	3.766
MS.328         	17.083         	3.839
MS.329         	17.047         	3.734
MS.330         	17.012         	3.875
MS.331         	16.98          	3.73
MS.332         	16.945         	3.752
MS.333         	16.913         	3.493
MS.334         	16.878         	3.549
MS.335         	16.845         	3.464
MS.336         	16.81          	3.585
MS.337         	16.778         	3.676
MS.338         	16.743         	3.487
MS.339         	16.71          	3.311
MS.340         	16.675         	3.545
MS.341         	16.642         	3.658
MS.342         	16.61          	3.452
MS.343         	16.577         	3.142
MS.344         	16.542         	3.297
MS.345         	16.51          	3.396
MS.346         	16.477         	3.207
MS.347         	16.445         	3.513
MS.348         	16.413         	3.263
MS.349         	16.378         	3.128
MS.350         	16.345         	3.15
MS.351         	16.312         	3.241
MS.352         	16.28          	3.086
MS.353         	16.247         	2.812
MS.354         	16.215         	2.917
MS.355         	16.182         	2.896
MS.356         	16.15          	3.07
MS.357         	16.118         	3.142
MS.358         	16.087         	2.776
MS.359         	16.055         	2.633
MS.360         	16.022         	2.391
MS.361         	15.99          	2.693
MS.362         	15.957         	2.876
MS.363         	15.927         	2.238
MS.364         	15.895         	2.558
MS.365         	15.862         	1.986
MS.366         	15.83          	2.451
MS.367         	15.8           	2.864
MS.368         	15.767         	2.373
MS.369         	15.737         	2.212
MS.370         	15.705         	1.913
MS.371         	15.672         	2.189
MS.372         	15.642         	2.075
MS.373         	15.61          	2.065
MS.374         	15.58          	2.117
MS.375         	15.55          	2.292
MS.376         	15.517         	2.278
MS.377         	15.487         	2.282
MS.378         	15.455         	2.453
MS.379         	15.425         	1.962
MS.380         	15.395         	2.002
MS.381         	15.362         	2.054
MS.382         	15.332         	2.004
MS.383         	15.302         	1.934
MS.384         	15.273         	1.833
MS.385         	15.24          	1.94
MS.386         	15.21          	1.883
MS.387         	15.18          	1.974
MS.388         	15.15          	1.712
MS.389         	15.12          	1.732
MS.390         	15.09          	1.768
MS.391         	15.06          	1.855
MS.392         	15.03          	1.972
MS.393         	15             	1.499
MS.394         	14.97          	1.515
MS.395         	14.94          	1.779
MS.396         	14.91          	1.579
MS.397         	14.88          	1.47
MS.398         	14.85          	1.466
MS.399         	14.82          	1.501
MS.400         	14.79          	1.603
MS.401         	14.76          	1.533
MS.402         	14.733         	1.307
MS.403         	14.702         	1.408
MS.404         	14.672         	1.376
MS.405         	14.642         	1.392
MS.406         	14.615         	1.239
MS.407         	14.585         	1.198
MS.408         	14.555         	1.404
MS.409         	14.527         	1.269
MS.410         	14.497         	1.605
MS.411         	14.467         	1.144
MS.412         	14.44          	1.108
MS.413         	14.41          	1.204
MS.414         	14.382         	1.217
MS.415         	14.352         	1.146
MS.416         	14.325         	1.168
MS.417         	14.295         	1.148
MS.418         	14.267         	1.217
MS.419         	14.24          	1.074
MS.420         	14.21          	1.174
MS.421         	14.182         	1.088
MS.422         	14.155         	1.088
MS.423         	14.125         	0.989
MS.424         	14.097         	0.961
MS.425         	14.07          	1.041
MS.426         	14.04          	0.953
MS.427         	14.012         	0.924
MS.428         	13.985         	0.971
MS.429         	13.957         	0.922
MS.430         	13.93          	1.017
MS.431         	13.903         	1.001
MS.432         	13.872         	1.007
MS.433         	13.845         	0.963
MS.434         	13.818         	0.965
MS.435         	13.79          	0.888
MS.436         	13.762         	1.013
MS.437         	13.735         	0.828
MS.438         	13.707         	0.908
MS.439         	13.68          	0.832
MS.440         	13.653         	0.85
MS.441         	13.625         	0.729
MS.442         	13.6           	0.781
MS.443         	13.572         	0.731
MS.444         	13.545         	0.701
MS.445         	13.517         	0.846
MS.446         	13.49          	0.723
MS.447         	13.462         	0.685
MS.448         	13.438         	0.661
MS.449         	13.41          	0.818
MS.450         	13.382         	0.697
MS.451         	13.355         	0.661
MS.452         	13.33          	0.707
MS.453         	13.302         	0.655
MS.454         	13.278         	0.679
MS.455         	13.25          	0.703
MS.456         	13.222         	0.673
MS.457         	13.197         	0.572
MS.458         	13.17          	0.534
MS.459         	13.145         	0.655
MS.460         	13.117         	0.622
MS.461         	13.092         	0.641
MS.462         	13.065         	0.512
MS.463         	13.04          	0.538
MS.464         	13.012         	0.649
MS.465         	12.987         	0.632
MS.466         	12.962         	0.526
MS.467         	12.935         	0.651
MS.468         	12.91          	0.51
MS.469         	12.885         	0.626
MS.470         	12.858         	0.63
MS.471         	12.832         	0.649
MS.472         	12.807         	0.512
MS.473         	12.782         	0.606
MS.474         	12.755         	0.63
MS.475         	12.73          	0.51
MS.476         	12.705         	0.489
MS.477         	12.68          	0.483
MS.478         	12.655         	0.493
MS.479         	12.63          	0.634
MS.480         	12.602         	0.471
MS.481         	12.577         	0.461
MS.482         	12.552         	0.493
MS.483         	12.528         	0.479
MS.484         	12.502         	0.455
MS.485         	12.477         	0.506
MS.486         	12.452         	0.467
MS.487         	12.427         	0.5
MS.488         	12.403         	0.461
MS.489         	12.38          	0.493
MS.490         	12.355         	0.518
MS.491         	12.33          	0.514
MS.492         	12.305         	0.508
MS.493         	12.28          	0.481
MS.494         	12.255         	0.491
MS.495         	12.23          	0.365
MS.496         	12.207         	0.348
MS.497         	12.182         	0.506
MS.498         	12.157         	0.495
MS.499         	12.132         	0.371
MS.500         	12.11          	0.357
