File:              	C:\Qtrac\Data\Daniel M Sørensen\MScan multicentre study\Data from centres\Odense\Processed data\TKC00922B.QZD
Name:              	DK.ODE.NC.4.2
Protocol:          	MSCAN-R2
Date:              	22/9/20
Start time:        	08:31:18
Age:               	51
Sex:               	F
Temperature:       	33.2
S/R sites:         	ADM
NC/disease:        	NC
Operator:          	TK
Comments:
M-SCAN DATA (7.6-1.4m)
Scanpts: 110, 117, 567, 576
Stim. (mA)     	Amp. (mV)
MS.1           	27             	8.526
MS.2           	27             	8.407
MS.3           	27             	8.506
MS.4           	27             	8.385
MS.5           	27             	8.48
MS.6           	27             	8.419
MS.7           	27             	8.417
MS.8           	27             	8.604
MS.9           	27             	8.516
MS.10          	27             	8.532
MS.11          	27             	8.496
MS.12          	27             	8.451
MS.13          	27             	8.339
MS.14          	27             	8.578
MS.15          	27             	8.47
MS.16          	27             	8.57
MS.17          	27             	8.486
MS.18          	27             	8.51
MS.19          	27             	8.447
MS.20          	27             	8.6
MS.21          	27             	8.496
MS.22          	27             	8.472
MS.23          	27             	8.518
MS.24          	26.892         	8.578
MS.25          	26.837         	8.508
MS.26          	26.785         	8.472
MS.27          	26.73          	8.564
MS.28          	26.677         	8.488
MS.29          	26.625         	8.673
MS.30          	26.573         	8.474
MS.31          	26.517         	8.528
MS.32          	26.465         	8.604
MS.33          	26.412         	8.494
MS.34          	26.36          	8.47
MS.35          	26.307         	8.578
MS.36          	26.255         	8.512
MS.37          	26.202         	8.611
MS.38          	26.15          	8.669
MS.39          	26.097         	8.518
MS.40          	26.045         	8.651
MS.41          	25.993         	8.445
MS.42          	25.94          	8.441
MS.43          	25.89          	8.659
MS.44          	25.837         	8.534
MS.45          	25.785         	8.512
MS.46          	25.735         	8.429
MS.47          	25.682         	8.592
MS.48          	25.632         	8.464
MS.49          	25.58          	8.55
MS.50          	25.53          	8.47
MS.51          	25.477         	8.582
MS.52          	25.427         	8.53
MS.53          	25.377         	8.441
MS.54          	25.325         	8.451
MS.55          	25.275         	8.54
MS.56          	25.225         	8.429
MS.57          	25.175         	8.673
MS.58          	25.125         	8.534
MS.59          	25.075         	8.615
MS.60          	25.025         	8.542
MS.61          	24.975         	8.57
MS.62          	24.925         	8.514
MS.63          	24.875         	8.615
MS.64          	24.825         	8.613
MS.65          	24.775         	8.433
MS.66          	24.725         	8.625
MS.67          	24.675         	8.55
MS.68          	24.627         	8.607
MS.69          	24.577         	8.657
MS.70          	24.528         	8.52
MS.71          	24.48          	8.635
MS.72          	24.43          	8.604
MS.73          	24.382         	8.496
MS.74          	24.332         	8.615
MS.75          	24.285         	8.576
MS.76          	24.235         	8.645
MS.77          	24.188         	8.528
MS.78          	24.14          	8.548
MS.79          	24.09          	8.596
MS.80          	24.042         	8.542
MS.81          	23.995         	8.639
MS.82          	23.948         	8.57
MS.83          	23.9           	8.457
MS.84          	23.85          	8.625
MS.85          	23.802         	8.558
MS.86          	23.755         	8.536
MS.87          	23.707         	8.534
MS.88          	23.66          	8.651
MS.89          	23.615         	8.653
MS.90          	23.567         	8.431
MS.91          	23.52          	8.659
MS.92          	23.472         	8.536
MS.93          	23.425         	8.504
MS.94          	23.38          	8.55
MS.95          	23.332         	8.504
MS.96          	23.285         	8.562
MS.97          	23.24          	8.675
MS.98          	23.192         	8.729
MS.99          	23.145         	8.602
MS.100         	23.1           	8.506
MS.101         	23.055         	8.609
MS.102         	23.007         	8.421
MS.103         	22.962         	8.466
MS.104         	22.915         	8.538
MS.105         	22.87          	8.526
MS.106         	22.825         	8.365
MS.107         	22.78          	8.621
MS.108         	22.733         	8.609
MS.109         	22.688         	8.54
MS.110         	22.642         	8.55
MS.111         	22.597         	8.629
MS.112         	22.552         	8.621
MS.113         	22.507         	8.607
MS.114         	22.462         	8.598
MS.115         	22.417         	8.657
MS.116         	22.372         	8.532
MS.117         	22.327         	8.631
MS.118         	22.282         	8.613
MS.119         	22.237         	8.673
MS.120         	22.195         	8.685
MS.121         	22.15          	8.617
MS.122         	22.105         	8.683
MS.123         	22.062         	8.607
MS.124         	22.017         	8.701
MS.125         	21.972         	8.512
MS.126         	21.93          	8.596
MS.127         	21.885         	8.56
MS.128         	21.842         	8.794
MS.129         	21.797         	8.508
MS.130         	21.755         	8.496
MS.131         	21.712         	8.578
MS.132         	21.667         	8.439
MS.133         	21.625         	8.53
MS.134         	21.583         	8.609
MS.135         	21.538         	8.663
MS.136         	21.495         	8.363
MS.137         	21.452         	8.415
MS.138         	21.41          	8.621
MS.139         	21.368         	8.478
MS.140         	21.325         	8.607
MS.141         	21.282         	8.536
MS.142         	21.24          	8.453
MS.143         	21.198         	8.441
MS.144         	21.155         	8.484
MS.145         	21.112         	8.431
MS.146         	21.07          	8.502
MS.147         	21.028         	8.337
MS.148         	20.985         	8.369
MS.149         	20.942         	8.592
MS.150         	20.903         	8.435
MS.151         	20.86          	8.484
MS.152         	20.817         	8.345
MS.153         	20.778         	8.383
MS.154         	20.735         	8.381
MS.155         	20.695         	8.325
MS.156         	20.653         	8.413
MS.157         	20.61          	8.286
MS.158         	20.57          	8.393
MS.159         	20.53          	8.274
MS.160         	20.487         	8.323
MS.161         	20.448         	8.363
MS.162         	20.405         	8.327
MS.163         	20.365         	8.341
MS.164         	20.325         	8.232
MS.165         	20.285         	8.26
MS.166         	20.243         	8.28
MS.167         	20.202         	8.409
MS.168         	20.163         	8.206
MS.169         	20.122         	8.28
MS.170         	20.083         	8.218
MS.171         	20.042         	8.29
MS.172         	20.002         	8.31
MS.173         	19.962         	8.379
MS.174         	19.922         	8.302
MS.175         	19.882         	8.316
MS.176         	19.842         	8.184
MS.177         	19.802         	8.151
MS.178         	19.762         	8.238
MS.179         	19.725         	8.125
MS.180         	19.685         	8.19
MS.181         	19.645         	8.171
MS.182         	19.605         	8.25
MS.183         	19.567         	8.002
MS.184         	19.528         	8.006
MS.185         	19.487         	7.998
MS.186         	19.45          	8.129
MS.187         	19.41          	7.974
MS.188         	19.372         	8
MS.189         	19.333         	7.964
MS.190         	19.295         	7.932
MS.191         	19.255         	7.998
MS.192         	19.217         	7.908
MS.193         	19.18          	7.94
MS.194         	19.14          	7.781
MS.195         	19.102         	7.871
MS.196         	19.065         	7.91
MS.197         	19.028         	7.92
MS.198         	18.987         	7.865
MS.199         	18.95          	7.775
MS.200         	18.913         	7.773
MS.201         	18.875         	7.748
MS.202         	18.837         	7.664
MS.203         	18.8           	7.734
MS.204         	18.762         	7.636
MS.205         	18.725         	7.825
MS.206         	18.688         	7.654
MS.207         	18.65          	7.857
MS.208         	18.612         	7.712
MS.209         	18.575         	7.773
MS.210         	18.538         	7.583
MS.211         	18.5           	7.567
MS.212         	18.465         	7.622
MS.213         	18.427         	7.569
MS.214         	18.39          	7.469
MS.215         	18.352         	7.68
MS.216         	18.317         	7.422
MS.217         	18.28          	7.491
MS.218         	18.245         	7.531
MS.219         	18.208         	7.473
MS.220         	18.17          	7.487
MS.221         	18.135         	7.332
MS.222         	18.097         	7.448
MS.223         	18.062         	7.414
MS.224         	18.028         	7.388
MS.225         	17.99          	7.281
MS.226         	17.955         	7.372
MS.227         	17.917         	7.354
MS.228         	17.882         	7.255
MS.229         	17.847         	7.281
MS.230         	17.812         	7.404
MS.231         	17.775         	7.348
MS.232         	17.74          	7.295
MS.233         	17.705         	7.269
MS.234         	17.67          	7.321
MS.235         	17.635         	7.211
MS.236         	17.6           	7.38
MS.237         	17.562         	7.154
MS.238         	17.528         	7.231
MS.239         	17.493         	7.029
MS.240         	17.458         	7.084
MS.241         	17.422         	7.209
MS.242         	17.39          	7.15
MS.243         	17.355         	6.987
MS.244         	17.32          	6.792
MS.245         	17.285         	6.898
MS.246         	17.25          	6.892
MS.247         	17.215         	6.844
MS.248         	17.182         	7.06
MS.249         	17.147         	6.784
MS.250         	17.112         	6.961
MS.251         	17.077         	7.005
MS.252         	17.045         	7.017
MS.253         	17.01          	6.977
MS.254         	16.977         	6.836
MS.255         	16.942         	6.792
MS.256         	16.91          	6.772
MS.257         	16.875         	6.512
MS.258         	16.842         	6.715
MS.259         	16.807         	6.322
MS.260         	16.775         	6.675
MS.261         	16.74          	6.645
MS.262         	16.708         	6.413
MS.263         	16.672         	6.655
MS.264         	16.64          	6.308
MS.265         	16.608         	6.32
MS.266         	16.575         	6.58
MS.267         	16.54          	6.214
MS.268         	16.507         	6.385
MS.269         	16.475         	6.226
MS.270         	16.442         	6
MS.271         	16.41          	6.012
MS.272         	16.378         	6.131
MS.273         	16.342         	6.051
MS.274         	16.31          	6.198
MS.275         	16.278         	5.861
MS.276         	16.245         	5.813
MS.277         	16.212         	6.038
MS.278         	16.18          	5.624
MS.279         	16.147         	5.509
MS.280         	16.118         	5.799
MS.281         	16.085         	5.718
MS.282         	16.052         	5.418
MS.283         	16.02          	5.428
MS.284         	15.987         	5.581
MS.285         	15.955         	5.309
MS.286         	15.925         	5.396
MS.287         	15.892         	5.537
MS.288         	15.86          	5.382
MS.289         	15.83          	5.311
MS.290         	15.797         	5.307
MS.291         	15.765         	5.193
MS.292         	15.735         	5.06
MS.293         	15.702         	5.027
MS.294         	15.672         	4.947
MS.295         	15.64          	4.981
MS.296         	15.61          	4.981
MS.297         	15.577         	5.309
MS.298         	15.547         	4.645
MS.299         	15.515         	4.927
MS.300         	15.485         	4.723
MS.301         	15.452         	4.683
MS.302         	15.422         	4.574
MS.303         	15.392         	4.562
MS.304         	15.36          	4.552
MS.305         	15.33          	4.655
MS.306         	15.3           	4.465
MS.307         	15.27          	4.512
MS.308         	15.237         	4.53
MS.309         	15.207         	4.578
MS.310         	15.177         	4.467
MS.311         	15.148         	4.276
MS.312         	15.117         	4.339
MS.313         	15.087         	4.57
MS.314         	15.057         	4.433
MS.315         	15.027         	4.179
MS.316         	14.997         	4.119
MS.317         	14.967         	4.308
MS.318         	14.938         	4.401
MS.319         	14.907         	4.069
MS.320         	14.877         	3.926
MS.321         	14.847         	4.038
MS.322         	14.818         	4.02
MS.323         	14.787         	3.976
MS.324         	14.757         	3.764
MS.325         	14.73          	4.077
MS.326         	14.7           	3.509
MS.327         	14.67          	3.503
MS.328         	14.64          	3.265
MS.329         	14.612         	3.215
MS.330         	14.582         	3.325
MS.331         	14.552         	3.589
MS.332         	14.525         	2.997
MS.333         	14.495         	2.947
MS.334         	14.467         	3.269
MS.335         	14.438         	3.341
MS.336         	14.407         	2.673
MS.337         	14.38          	2.749
MS.338         	14.35          	3.152
MS.339         	14.322         	2.927
MS.340         	14.295         	3.047
MS.341         	14.265         	2.842
MS.342         	14.237         	2.5
MS.343         	14.207         	2.31
MS.344         	14.18          	2.657
MS.345         	14.153         	2.222
MS.346         	14.122         	2.395
MS.347         	14.095         	2.691
MS.348         	14.068         	2.073
MS.349         	14.04          	2.322
MS.350         	14.01          	2.628
MS.351         	13.983         	2.004
MS.352         	13.955         	2.046
MS.353         	13.927         	2.175
MS.354         	13.9           	2.095
MS.355         	13.872         	2.187
MS.356         	13.842         	2.149
MS.357         	13.815         	1.869
MS.358         	13.787         	1.988
MS.359         	13.76          	2.089
MS.360         	13.733         	2.079
MS.361         	13.705         	1.93
MS.362         	13.677         	2.052
MS.363         	13.653         	1.774
MS.364         	13.625         	1.805
MS.365         	13.597         	1.801
MS.366         	13.57          	2.024
MS.367         	13.542         	1.627
MS.368         	13.515         	1.869
MS.369         	13.487         	1.847
MS.370         	13.462         	1.793
MS.371         	13.435         	1.609
MS.372         	13.407         	1.885
MS.373         	13.38          	1.724
MS.374         	13.355         	1.589
MS.375         	13.327         	1.684
MS.376         	13.3           	1.428
MS.377         	13.275         	1.573
MS.378         	13.247         	1.593
MS.379         	13.222         	1.482
MS.380         	13.195         	1.499
MS.381         	13.167         	1.501
MS.382         	13.142         	1.283
MS.383         	13.115         	1.49
MS.384         	13.09          	1.452
MS.385         	13.062         	1.474
MS.386         	13.037         	1.591
MS.387         	13.012         	1.305
MS.388         	12.985         	1.412
MS.389         	12.96          	1.319
MS.390         	12.932         	1.354
MS.391         	12.907         	1.285
MS.392         	12.882         	1.337
MS.393         	12.858         	1.297
MS.394         	12.83          	1.434
MS.395         	12.805         	1.37
MS.396         	12.78          	1.196
MS.397         	12.755         	1.156
MS.398         	12.727         	1.174
MS.399         	12.702         	1.231
MS.400         	12.677         	1.217
MS.401         	12.653         	1.247
MS.402         	12.627         	1.126
MS.403         	12.602         	1.162
MS.404         	12.577         	1.202
MS.405         	12.552         	1.259
MS.406         	12.528         	1.255
MS.407         	12.502         	1.281
MS.408         	12.477         	1.192
MS.409         	12.452         	1.202
MS.410         	12.427         	1.217
MS.411         	12.403         	1.227
MS.412         	12.377         	1.267
MS.413         	12.352         	1.213
MS.414         	12.327         	1.198
MS.415         	12.302         	1.17
MS.416         	12.278         	1.432
MS.417         	12.255         	1.235
MS.418         	12.23          	1.335
MS.419         	12.205         	1.152
MS.420         	12.18          	1.047
MS.421         	12.155         	1.213
MS.422         	12.132         	1.194
MS.423         	12.108         	1.251
MS.424         	12.082         	1.215
MS.425         	12.06          	1.055
MS.426         	12.035         	0.997
MS.427         	12.01          	1.321
MS.428         	11.988         	0.924
MS.429         	11.962         	1.033
MS.430         	11.94          	1.158
MS.431         	11.915         	0.991
MS.432         	11.892         	0.991
MS.433         	11.867         	1.106
MS.434         	11.845         	0.91
MS.435         	11.82          	1.08
MS.436         	11.797         	1.037
MS.437         	11.773         	0.947
MS.438         	11.75          	1.007
MS.439         	11.727         	0.989
MS.440         	11.702         	0.957
MS.441         	11.68          	1.086
MS.442         	11.655         	1.146
MS.443         	11.632         	0.995
MS.444         	11.61          	0.898
MS.445         	11.587         	1.13
MS.446         	11.562         	1.08
MS.447         	11.54          	1.144
MS.448         	11.517         	0.9
MS.449         	11.495         	0.989
MS.450         	11.47          	1.086
MS.451         	11.447         	0.967
MS.452         	11.425         	1.104
MS.453         	11.403         	1.021
MS.454         	11.38          	0.848
MS.455         	11.358         	1.011
MS.456         	11.335         	0.896
MS.457         	11.312         	0.882
MS.458         	11.29          	1.065
MS.459         	11.267         	0.987
MS.460         	11.245         	0.914
MS.461         	11.222         	0.725
MS.462         	11.2           	0.81
MS.463         	11.177         	0.918
MS.464         	11.155         	1.043
MS.465         	11.132         	0.775
MS.466         	11.11          	1.003
MS.467         	11.087         	1.033
MS.468         	11.065         	0.999
MS.469         	11.042         	1.094
MS.470         	11.023         	0.866
MS.471         	11             	0.922
MS.472         	10.977         	0.89
MS.473         	10.955         	0.92
MS.474         	10.932         	0.937
MS.475         	10.912         	0.983
MS.476         	10.89          	0.929
MS.477         	10.867         	0.868
MS.478         	10.847         	0.92
MS.479         	10.825         	0.85
MS.480         	10.802         	0.81
MS.481         	10.782         	0.542
MS.482         	10.76          	0.638
MS.483         	10.738         	0.858
MS.484         	10.717         	0.792
MS.485         	10.695         	0.677
MS.486         	10.675         	0.679
MS.487         	10.653         	0.357
MS.488         	10.632         	0.638
MS.489         	10.61          	0.949
MS.490         	10.59          	0.502
MS.491         	10.568         	0.441
MS.492         	10.547         	0.411
MS.493         	10.525         	0.294
MS.494         	10.505         	0.411
MS.495         	10.485         	0.465
MS.496         	10.462         	0.344
MS.497         	10.443         	0.214
MS.498         	10.42          	0.441
MS.499         	10.4           	0.143
MS.500         	10.38          	0.236
MS.501         	10.36          	0.211
