File:              	C:\Qtrac\Data\Daniel M Sørensen\MScan multicentre study\Data from centres\Odense\Processed data\TKC00218B.QZD
Name:              	DK.ODE.NC.1.1
Protocol:          	MSCAN-R2
Date:              	18/2/20
Start time:        	14:07:42
Age:               	32
Sex:               	M
Temperature:       	31.8
S/R sites:         	ADM
NC/disease:        	NC
Operator:          	TK
Comments:
M-SCAN DATA (6.9-1.5m)
Scanpts: 38, 45, 564, 585
Stim. (mA)     	Amp. (mV)
MS.1           	16.5           	10.059
MS.2           	16.5           	10.031
MS.3           	16.5           	10.061
MS.4           	16.5           	10.127
MS.5           	16.5           	9.93
MS.6           	16.5           	10.119
MS.7           	16.5           	10.006
MS.8           	16.5           	10.071
MS.9           	16.5           	9.97
MS.10          	16.5           	10.113
MS.11          	16.5           	10.049
MS.12          	16.5           	10.039
MS.13          	16.5           	10.035
MS.14          	16.5           	9.928
MS.15          	16.5           	9.924
MS.16          	16.5           	10.121
MS.17          	16.5           	10
MS.18          	16.5           	9.964
MS.19          	16.5           	10.135
MS.20          	16.5           	10
MS.21          	16.5           	10.037
MS.22          	16.5           	9.992
MS.23          	16.5           	9.982
MS.24          	16.435         	10.085
MS.25          	16.4           	10.006
MS.26          	16.368         	10.067
MS.27          	16.335         	10.079
MS.28          	16.302         	10.125
MS.29          	16.27          	10.006
MS.30          	16.237         	10.123
MS.31          	16.205         	9.926
MS.32          	16.172         	9.972
MS.33          	16.14          	10.024
MS.34          	16.108         	10.127
MS.35          	16.077         	10.139
MS.36          	16.045         	10.109
MS.37          	16.012         	10.057
MS.38          	15.98          	10.079
MS.39          	15.947         	9.908
MS.40          	15.917         	10.115
MS.41          	15.885         	10.033
MS.42          	15.852         	10.155
MS.43          	15.822         	10.075
MS.44          	15.79          	10.121
MS.45          	15.757         	9.966
MS.46          	15.727         	10.083
MS.47          	15.695         	9.984
MS.48          	15.665         	10.127
MS.49          	15.632         	9.934
MS.50          	15.602         	10.067
MS.51          	15.57          	10.031
MS.52          	15.54          	10.143
MS.53          	15.507         	10.147
MS.54          	15.477         	10.073
MS.55          	15.445         	10.149
MS.56          	15.415         	10
MS.57          	15.385         	9.96
MS.58          	15.352         	9.946
MS.59          	15.322         	9.998
MS.60          	15.292         	9.906
MS.61          	15.262         	9.988
MS.62          	15.233         	9.877
MS.63          	15.2           	9.914
MS.64          	15.17          	9.956
MS.65          	15.14          	10.045
MS.66          	15.11          	9.956
MS.67          	15.08          	9.926
MS.68          	15.05          	9.865
MS.69          	15.02          	9.819
MS.70          	14.99          	10.059
MS.71          	14.96          	10.008
MS.72          	14.93          	9.942
MS.73          	14.9           	10.107
MS.74          	14.87          	10.055
MS.75          	14.84          	10.063
MS.76          	14.81          	9.968
MS.77          	14.78          	10.055
MS.78          	14.752         	9.934
MS.79          	14.722         	9.869
MS.80          	14.693         	9.875
MS.81          	14.662         	10.031
MS.82          	14.635         	9.771
MS.83          	14.605         	9.97
MS.84          	14.575         	9.787
MS.85          	14.547         	9.799
MS.86          	14.517         	9.883
MS.87          	14.487         	9.956
MS.88          	14.46          	9.777
MS.89          	14.43          	9.982
MS.90          	14.403         	9.795
MS.91          	14.372         	9.912
MS.92          	14.345         	9.807
MS.93          	14.315         	9.831
MS.94          	14.287         	9.867
MS.95          	14.257         	9.869
MS.96          	14.23          	9.885
MS.97          	14.202         	9.694
MS.98          	14.172         	9.783
MS.99          	14.145         	9.845
MS.100         	14.117         	9.877
MS.101         	14.087         	9.716
MS.102         	14.06          	9.896
MS.103         	14.032         	9.747
MS.104         	14.005         	9.747
MS.105         	13.975         	9.646
MS.106         	13.947         	9.775
MS.107         	13.92          	9.865
MS.108         	13.892         	9.72
MS.109         	13.865         	9.575
MS.110         	13.837         	9.662
MS.111         	13.81          	9.618
MS.112         	13.782         	9.573
MS.113         	13.755         	9.672
MS.114         	13.727         	9.815
MS.115         	13.7           	9.616
MS.116         	13.672         	9.632
MS.117         	13.645         	9.571
MS.118         	13.617         	9.656
MS.119         	13.59          	9.555
MS.120         	13.562         	9.505
MS.121         	13.535         	9.589
MS.122         	13.51          	9.571
MS.123         	13.483         	9.65
MS.124         	13.455         	9.769
MS.125         	13.427         	9.497
MS.126         	13.403         	9.68
MS.127         	13.375         	9.63
MS.128         	13.347         	9.495
MS.129         	13.32          	9.664
MS.130         	13.295         	9.64
MS.131         	13.267         	9.499
MS.132         	13.242         	9.66
MS.133         	13.215         	9.557
MS.134         	13.188         	9.658
MS.135         	13.162         	9.456
MS.136         	13.135         	9.636
MS.137         	13.11          	9.569
MS.138         	13.082         	9.537
MS.139         	13.057         	9.585
MS.140         	13.032         	9.646
MS.141         	13.005         	9.448
MS.142         	12.98          	9.495
MS.143         	12.952         	9.543
MS.144         	12.927         	9.402
MS.145         	12.903         	9.503
MS.146         	12.875         	9.517
MS.147         	12.85          	9.475
MS.148         	12.825         	9.579
MS.149         	12.8           	9.456
MS.150         	12.773         	9.491
MS.151         	12.747         	9.398
MS.152         	12.722         	9.336
MS.153         	12.697         	9.384
MS.154         	12.672         	9.452
MS.155         	12.645         	9.465
MS.156         	12.62          	9.152
MS.157         	12.595         	9.37
MS.158         	12.57          	9.493
MS.159         	12.545         	9.465
MS.160         	12.52          	9.61
MS.161         	12.495         	9.334
MS.162         	12.47          	9.406
MS.163         	12.445         	9.07
MS.164         	12.42          	9.273
MS.165         	12.395         	9.303
MS.166         	12.37          	9.158
MS.167         	12.347         	9.062
MS.168         	12.322         	9.06
MS.169         	12.297         	9.046
MS.170         	12.273         	9.054
MS.171         	12.247         	9.273
MS.172         	12.222         	9.376
MS.173         	12.2           	9.195
MS.174         	12.175         	9.132
MS.175         	12.15          	9.201
MS.176         	12.125         	9.05
MS.177         	12.102         	9.134
MS.178         	12.077         	8.874
MS.179         	12.052         	8.909
MS.180         	12.03          	8.826
MS.181         	12.005         	8.909
MS.182         	11.983         	8.999
MS.183         	11.957         	8.991
MS.184         	11.932         	8.687
MS.185         	11.91          	8.802
MS.186         	11.885         	9.003
MS.187         	11.863         	8.963
MS.188         	11.837         	8.77
MS.189         	11.815         	8.971
MS.190         	11.79          	8.84
MS.191         	11.767         	8.85
MS.192         	11.745         	8.695
MS.193         	11.72          	8.564
MS.194         	11.697         	8.699
MS.195         	11.675         	8.639
MS.196         	11.65          	8.76
MS.197         	11.627         	8.56
MS.198         	11.605         	8.47
MS.199         	11.58          	8.57
MS.200         	11.557         	8.413
MS.201         	11.535         	8.506
MS.202         	11.512         	8.367
MS.203         	11.488         	8.506
MS.204         	11.465         	8.55
MS.205         	11.443         	8.349
MS.206         	11.42          	8.526
MS.207         	11.398         	8.266
MS.208         	11.375         	8.425
MS.209         	11.352         	8.294
MS.210         	11.33          	8.451
MS.211         	11.307         	8.506
MS.212         	11.282         	8.409
MS.213         	11.26          	8.427
MS.214         	11.238         	8.47
MS.215         	11.215         	8.012
MS.216         	11.195         	8.252
MS.217         	11.172         	8.264
MS.218         	11.15          	8.055
MS.219         	11.127         	8.149
MS.220         	11.105         	8.127
MS.221         	11.082         	8.236
MS.222         	11.06          	7.881
MS.223         	11.037         	7.96
MS.224         	11.015         	8.057
MS.225         	10.995         	7.857
MS.226         	10.972         	7.74
MS.227         	10.95          	8.087
MS.228         	10.927         	7.93
MS.229         	10.907         	7.861
MS.230         	10.885         	7.593
MS.231         	10.863         	7.557
MS.232         	10.84          	7.636
MS.233         	10.82          	7.851
MS.234         	10.797         	7.583
MS.235         	10.778         	7.485
MS.236         	10.755         	7.75
MS.237         	10.733         	7.714
MS.238         	10.712         	7.547
MS.239         	10.69          	7.34
MS.240         	10.67          	7.591
MS.241         	10.648         	7.235
MS.242         	10.627         	7.64
MS.243         	10.605         	7.094
MS.244         	10.585         	7.573
MS.245         	10.562         	7.261
MS.246         	10.542         	7.086
MS.247         	10.52          	7.428
MS.248         	10.5           	7.259
MS.249         	10.48          	7.493
MS.250         	10.457         	7.18
MS.251         	10.438         	6.945
MS.252         	10.415         	6.848
MS.253         	10.395         	7.334
MS.254         	10.375         	7.404
MS.255         	10.355         	7.231
MS.256         	10.332         	6.989
MS.257         	10.312         	6.725
MS.258         	10.292         	7.017
MS.259         	10.273         	6.999
MS.260         	10.25          	6.55
MS.261         	10.23          	6.713
MS.262         	10.21          	6.617
MS.263         	10.19          	6.572
MS.264         	10.17          	6.582
MS.265         	10.15          	6.463
MS.266         	10.127         	6.826
MS.267         	10.108         	6.697
MS.268         	10.087         	6.506
MS.269         	10.068         	6.639
MS.270         	10.047         	6.474
MS.271         	10.028         	6.292
MS.272         	10.007         	6.693
MS.273         	9.988          	6.437
MS.274         	9.967          	6.465
MS.275         	9.948          	6.298
MS.276         	9.927          	6.429
MS.277         	9.907          	6.403
MS.278         	9.887          	5.962
MS.279         	9.867          	6.224
MS.280         	9.85           	6.206
MS.281         	9.83           	5.942
MS.282         	9.81           	6.022
MS.283         	9.79           	6.026
MS.284         	9.77           	6.107
MS.285         	9.75           	5.887
MS.286         	9.733          	5.833
MS.287         	9.712          	5.706
MS.288         	9.693          	5.672
MS.289         	9.672          	5.873
MS.290         	9.655          	5.756
MS.291         	9.635          	5.581
MS.292         	9.615          	5.565
MS.293         	9.595          	5.134
MS.294         	9.577          	5.366
MS.295         	9.557          	5.122
MS.296         	9.537          	5.311
MS.297         	9.52           	5.338
MS.298         	9.5            	5.176
MS.299         	9.483          	5.126
MS.300         	9.462          	4.711
MS.301         	9.445          	4.872
MS.302         	9.425          	4.896
MS.303         	9.405          	4.766
MS.304         	9.387          	4.582
MS.305         	9.367          	4.798
MS.306         	9.35           	4.538
MS.307         	9.33           	4.6
MS.308         	9.312          	4.328
MS.309         	9.295          	4.445
MS.310         	9.275          	4.415
MS.311         	9.257          	4.546
MS.312         	9.238          	3.922
MS.313         	9.22           	4.153
MS.314         	9.202          	4.195
MS.315         	9.182          	4.022
MS.316         	9.165          	4.079
MS.317         	9.148          	3.885
MS.318         	9.127          	3.873
MS.319         	9.11           	3.758
MS.320         	9.092          	4.085
MS.321         	9.073          	3.593
MS.322         	9.055          	3.766
MS.323         	9.037          	3.424
MS.324         	9.02           	3.515
MS.325         	9              	3.617
MS.326         	8.983          	3.436
MS.327         	8.965          	3.337
MS.328         	8.948          	3.491
MS.329         	8.93           	3.196
MS.330         	8.912          	3.205
MS.331         	8.895          	3.053
MS.332         	8.875          	3.108
MS.333         	8.858          	3.418
MS.334         	8.84           	3.176
MS.335         	8.823          	2.925
MS.336         	8.805          	3.049
MS.337         	8.787          	3.072
MS.338         	8.77           	3.096
MS.339         	8.752          	2.832
MS.340         	8.735          	2.721
MS.341         	8.717          	2.667
MS.342         	8.7            	2.753
MS.343         	8.682          	2.477
MS.344         	8.665          	2.622
MS.345         	8.648          	2.534
MS.346         	8.63           	2.536
MS.347         	8.613          	2.399
MS.348         	8.597          	2.465
MS.349         	8.58           	2.308
MS.350         	8.562          	2.203
MS.351         	8.545          	2.304
MS.352         	8.528          	2.308
MS.353         	8.51           	2.06
MS.354         	8.495          	2.077
MS.355         	8.477          	1.855
MS.356         	8.46           	2.06
MS.357         	8.443          	1.831
MS.358         	8.427          	1.901
MS.359         	8.41           	2.125
MS.360         	8.392          	1.897
MS.361         	8.375          	1.662
MS.362         	8.36           	1.849
MS.363         	8.342          	1.593
MS.364         	8.325          	1.726
MS.365         	8.31           	1.734
MS.366         	8.292          	1.549
MS.367         	8.275          	1.337
MS.368         	8.26           	1.736
MS.369         	8.242          	1.533
MS.370         	8.227          	1.382
MS.371         	8.21           	1.277
MS.372         	8.193          	1.267
MS.373         	8.177          	1.221
MS.374         	8.16           	1.456
MS.375         	8.145          	1.45
MS.376         	8.127          	1.376
MS.377         	8.113          	1.09
MS.378         	8.095          	1.235
MS.379         	8.08           	1.327
MS.380         	8.062          	1.043
MS.381         	8.047          	1.009
MS.382         	8.033          	0.91
MS.383         	8.015          	1.021
MS.384         	8              	0.969
MS.385         	7.982          	0.886
MS.386         	7.967          	0.896
MS.387         	7.952          	0.949
MS.388         	7.935          	1.041
MS.389         	7.92           	0.886
MS.390         	7.905          	0.838
MS.391         	7.887          	0.916
MS.392         	7.872          	1.043
MS.393         	7.857          	0.894
MS.394         	7.84           	0.826
MS.395         	7.825          	0.91
MS.396         	7.81           	0.814
MS.397         	7.795          	0.828
MS.398         	7.777          	0.826
MS.399         	7.762          	0.92
MS.400         	7.747          	0.683
MS.401         	7.732          	0.612
MS.402         	7.717          	0.512
MS.403         	7.7            	0.647
MS.404         	7.685          	0.651
MS.405         	7.67           	0.524
MS.406         	7.655          	0.685
MS.407         	7.64           	0.667
MS.408         	7.625          	0.52
MS.409         	7.61           	0.556
MS.410         	7.595          	0.584
MS.411         	7.58           	0.568
MS.412         	7.562          	0.556
MS.413         	7.547          	0.532
MS.414         	7.532          	0.506
MS.415         	7.517          	0.534
MS.416         	7.503          	0.512
MS.417         	7.487          	0.504
MS.418         	7.472          	0.483
MS.419         	7.457          	0.477
MS.420         	7.442          	0.487
MS.421         	7.427          	0.522
MS.422         	7.415          	0.385
MS.423         	7.4            	0.367
MS.424         	7.385          	0.397
MS.425         	7.37           	0.411
MS.426         	7.355          	0.467
MS.427         	7.34           	0.361
MS.428         	7.325          	0.28
MS.429         	7.31           	0.391
MS.430         	7.295          	0.264
MS.431         	7.282          	0.342
MS.432         	7.267          	0.27
MS.433         	7.253          	0.282
MS.434         	7.237          	0.33
MS.435         	7.222          	0.308
MS.436         	7.21           	0.27
MS.437         	7.195          	0.278
MS.438         	7.18           	0.238
MS.439         	7.165          	0.189
MS.440         	7.152          	0.232
MS.441         	7.137          	0.165
MS.442         	7.122          	0.24
MS.443         	7.11           	0.165
MS.444         	7.095          	0.119
MS.445         	7.08           	0.165
MS.446         	7.067          	0.093
MS.447         	7.052          	0.228
MS.448         	7.037          	0.169
MS.449         	7.025          	0.109
MS.450         	7.01           	0.083
MS.451         	6.995          	0.193
MS.452         	6.983          	0.165
MS.453         	6.967          	0.207
MS.454         	6.955          	0.079
MS.455         	6.94           	0.199
MS.456         	6.927          	0.147
MS.457         	6.912          	0.199
MS.458         	6.9            	0.143
MS.459         	6.885          	0.139
MS.460         	6.872          	0.185
MS.461         	6.858          	0.103
MS.462         	6.845          	0.137
MS.463         	6.83           	0.052
MS.464         	6.817          	0.044
MS.465         	6.802          	0.173
MS.466         	6.79           	0.143
MS.467         	6.775          	0.024
MS.468         	6.762          	0.163
MS.469         	6.747          	0.089
MS.470         	6.735          	0.03
MS.471         	6.722          	0.026
MS.472         	6.707          	0.06
MS.473         	6.695          	0.101
MS.474         	6.682          	0.097
MS.475         	6.668          	0.097
MS.476         	6.655          	-0.006
MS.477         	6.642          	0.038
MS.478         	6.628          	0.006
MS.479         	6.615          	0.004
MS.480         	6.602          	0.115
MS.481         	6.587          	0.129
MS.482         	6.575          	0.052
MS.483         	6.562          	-0.01
MS.484         	6.55           	0.075
MS.485         	6.535          	0.014
MS.486         	6.523          	0.052
MS.487         	6.51           	0.056
MS.488         	6.497          	0.022
MS.489         	6.485          	0.095
MS.490         	6.47           	0.068
MS.491         	6.457          	0.012
MS.492         	6.445          	0.034
MS.493         	6.432          	0.163
MS.494         	6.42           	0.062
MS.495         	6.407          	0.056
MS.496         	6.395          	0.036
MS.497         	6.38           	0.046
MS.498         	6.367          	0.002
MS.499         	6.355          	0.087
MS.500         	6.342          	0.056
