File:              	C:\Qtrac\Data\Daniel M Sørensen\MScan multicentre study\Data from centres\Odense\Processed data\TKC00226B.QZD
Name:              	DK.ODE.NC.1.2
Protocol:          	MSCAN-R2
Date:              	26/2/20
Start time:        	14:59:42
Age:               	32
Sex:               	m
Temperature:       	31.9
S/R sites:         	ADM
NC/disease:        	NC
Operator:          	TK
Comments:
M-SCAN DATA (7.6-2.3m)
Scanpts: 15, 21, 486, 504
Stim. (mA)     	Amp. (mV)
MS.1           	18.5           	10.103
MS.2           	19             	10.103
MS.3           	19             	10.109
MS.4           	19             	10.188
MS.5           	19             	10.18
MS.6           	19             	10.214
MS.7           	19             	10.151
MS.8           	19             	10.224
MS.9           	19             	10.298
MS.10          	19             	10.286
MS.11          	19             	10.27
MS.12          	19             	10.246
MS.13          	19             	10.262
MS.14          	19             	10.276
MS.15          	19             	10.28
MS.16          	19             	10.268
MS.17          	19             	10.25
MS.18          	19             	10.284
MS.19          	19             	10.268
MS.20          	19             	10.294
MS.21          	19             	10.312
MS.22          	19             	10.234
MS.23          	18.925         	10.276
MS.24          	18.887         	10.25
MS.25          	18.847         	10.27
MS.26          	18.81          	10.236
MS.27          	18.772         	10.26
MS.28          	18.735         	10.242
MS.29          	18.698         	10.254
MS.30          	18.66          	10.22
MS.31          	18.622         	10.228
MS.32          	18.587         	10.26
MS.33          	18.55          	10.23
MS.34          	18.512         	10.264
MS.35          	18.475         	10.228
MS.36          	18.438         	10.244
MS.37          	18.403         	10.206
MS.38          	18.365         	10.242
MS.39          	18.327         	10.22
MS.40          	18.292         	10.206
MS.41          	18.255         	10.178
MS.42          	18.217         	10.204
MS.43          	18.182         	10.222
MS.44          	18.145         	10.115
MS.45          	18.11          	10.182
MS.46          	18.073         	10.22
MS.47          	18.038         	10.176
MS.48          	18             	10.111
MS.49          	17.965         	10.192
MS.50          	17.93          	10.163
MS.51          	17.892         	10.172
MS.52          	17.858         	10.129
MS.53          	17.823         	10.143
MS.54          	17.788         	10.174
MS.55          	17.75          	10.125
MS.56          	17.715         	10.194
MS.57          	17.68          	10.258
MS.58          	17.645         	10.115
MS.59          	17.61          	10.103
MS.60          	17.575         	10.182
MS.61          	17.54          	10.123
MS.62          	17.505         	10.194
MS.63          	17.47          	10.274
MS.64          	17.435         	10.176
MS.65          	17.4           	10.153
MS.66          	17.365         	10.131
MS.67          	17.33          	10.069
MS.68          	17.295         	10.111
MS.69          	17.26          	10.129
MS.70          	17.227         	10.19
MS.71          	17.192         	10.079
MS.72          	17.157         	10.067
MS.73          	17.122         	9.992
MS.74          	17.09          	10.097
MS.75          	17.055         	9.96
MS.76          	17.02          	10.043
MS.77          	16.987         	10.02
MS.78          	16.952         	9.831
MS.79          	16.92          	9.946
MS.80          	16.885         	9.96
MS.81          	16.852         	9.934
MS.82          	16.817         	9.916
MS.83          	16.785         	9.92
MS.84          	16.75          	9.839
MS.85          	16.717         	9.833
MS.86          	16.682         	9.847
MS.87          	16.65          	9.61
MS.88          	16.618         	9.73
MS.89          	16.585         	9.736
MS.90          	16.55          	9.72
MS.91          	16.517         	9.626
MS.92          	16.485         	9.565
MS.93          	16.452         	9.722
MS.94          	16.42          	9.624
MS.95          	16.385         	9.714
MS.96          	16.352         	9.529
MS.97          	16.32          	9.682
MS.98          	16.288         	9.593
MS.99          	16.255         	9.704
MS.100         	16.222         	9.507
MS.101         	16.19          	9.525
MS.102         	16.157         	9.332
MS.103         	16.125         	9.394
MS.104         	16.095         	9.507
MS.105         	16.062         	9.438
MS.106         	16.03          	9.43
MS.107         	15.997         	9.382
MS.108         	15.965         	9.41
MS.109         	15.932         	9.297
MS.110         	15.902         	9.084
MS.111         	15.87          	9.086
MS.112         	15.837         	8.973
MS.113         	15.807         	8.84
MS.114         	15.775         	8.961
MS.115         	15.742         	8.76
MS.116         	15.712         	8.981
MS.117         	15.68          	8.79
MS.118         	15.65          	8.967
MS.119         	15.617         	8.921
MS.120         	15.587         	8.884
MS.121         	15.555         	8.729
MS.122         	15.525         	8.862
MS.123         	15.492         	8.8
MS.124         	15.462         	8.826
MS.125         	15.432         	8.901
MS.126         	15.4           	8.552
MS.127         	15.37          	8.83
MS.128         	15.34          	8.621
MS.129         	15.31          	8.582
MS.130         	15.277         	8.659
MS.131         	15.247         	8.604
MS.132         	15.217         	8.558
MS.133         	15.188         	8.278
MS.134         	15.157         	8.379
MS.135         	15.127         	8.468
MS.136         	15.095         	8.653
MS.137         	15.065         	8.522
MS.138         	15.035         	8.337
MS.139         	15.005         	8.445
MS.140         	14.975         	8.385
MS.141         	14.945         	8.405
MS.142         	14.915         	8.173
MS.143         	14.885         	8.323
MS.144         	14.858         	8.369
MS.145         	14.827         	8.184
MS.146         	14.797         	8.331
MS.147         	14.767         	8.381
MS.148         	14.737         	8.075
MS.149         	14.707         	8.151
MS.150         	14.68          	8.095
MS.151         	14.65          	8.043
MS.152         	14.62          	8.131
MS.153         	14.592         	8.067
MS.154         	14.562         	7.881
MS.155         	14.532         	7.908
MS.156         	14.505         	7.994
MS.157         	14.475         	7.932
MS.158         	14.447         	7.861
MS.159         	14.417         	7.926
MS.160         	14.387         	7.787
MS.161         	14.36          	7.968
MS.162         	14.33          	8.008
MS.163         	14.302         	7.702
MS.164         	14.275         	7.827
MS.165         	14.245         	7.648
MS.166         	14.217         	7.72
MS.167         	14.188         	7.589
MS.168         	14.16          	7.674
MS.169         	14.132         	7.656
MS.170         	14.102         	7.473
MS.171         	14.075         	7.785
MS.172         	14.047         	7.291
MS.173         	14.02          	7.376
MS.174         	13.992         	7.487
MS.175         	13.962         	7.489
MS.176         	13.935         	7.511
MS.177         	13.907         	7.382
MS.178         	13.88          	7.128
MS.179         	13.852         	7.201
MS.180         	13.825         	7.237
MS.181         	13.797         	7.287
MS.182         	13.77          	7.241
MS.183         	13.742         	7.267
MS.184         	13.715         	7.311
MS.185         	13.688         	7.025
MS.186         	13.66          	6.965
MS.187         	13.632         	6.957
MS.188         	13.605         	6.931
MS.189         	13.577         	7.12
MS.190         	13.55          	7.1
MS.191         	13.523         	6.76
MS.192         	13.497         	6.671
MS.193         	13.47          	6.866
MS.194         	13.443         	6.725
MS.195         	13.415         	6.512
MS.196         	13.39          	6.774
MS.197         	13.362         	6.663
MS.198         	13.335         	6.649
MS.199         	13.31          	6.723
MS.200         	13.282         	6.504
MS.201         	13.255         	6.538
MS.202         	13.23          	6.629
MS.203         	13.202         	6.858
MS.204         	13.177         	6.484
MS.205         	13.15          	6.439
MS.206         	13.125         	6.552
MS.207         	13.097         	6.437
MS.208         	13.072         	6.49
MS.209         	13.045         	6.328
MS.210         	13.02          	6.478
MS.211         	12.992         	6.129
MS.212         	12.967         	6.137
MS.213         	12.943         	6.423
MS.214         	12.915         	6.328
MS.215         	12.89          	6.276
MS.216         	12.865         	6.371
MS.217         	12.837         	5.948
MS.218         	12.812         	6.014
MS.219         	12.787         	6.01
MS.220         	12.762         	6.131
MS.221         	12.735         	6.105
MS.222         	12.71          	6.115
MS.223         	12.685         	5.998
MS.224         	12.66          	5.845
MS.225         	12.635         	5.861
MS.226         	12.61          	5.847
MS.227         	12.585         	5.877
MS.228         	12.56          	5.815
MS.229         	12.535         	5.706
MS.230         	12.51          	5.849
MS.231         	12.485         	5.549
MS.232         	12.46          	5.763
MS.233         	12.435         	5.507
MS.234         	12.41          	5.738
MS.235         	12.385         	5.541
MS.236         	12.36          	5.694
MS.237         	12.335         	5.46
MS.238         	12.31          	5.565
MS.239         	12.285         	5.531
MS.240         	12.26          	5.263
MS.241         	12.238         	5.16
MS.242         	12.212         	5.257
MS.243         	12.188         	5.394
MS.244         	12.162         	5.19
MS.245         	12.14          	5.078
MS.246         	12.115         	5.182
MS.247         	12.09          	5.017
MS.248         	12.068         	5.041
MS.249         	12.042         	4.913
MS.250         	12.017         	4.919
MS.251         	11.995         	4.778
MS.252         	11.97          	4.643
MS.253         	11.947         	4.761
MS.254         	11.922         	4.631
MS.255         	11.9           	4.588
MS.256         	11.875         	4.504
MS.257         	11.852         	4.254
MS.258         	11.827         	4.618
MS.259         	11.805         	4.671
MS.260         	11.78          	4.272
MS.261         	11.757         	4.357
MS.262         	11.733         	4.375
MS.263         	11.71          	4.365
MS.264         	11.688         	4.284
MS.265         	11.662         	4.204
MS.266         	11.64          	4.175
MS.267         	11.617         	4.061
MS.268         	11.592         	4.093
MS.269         	11.57          	3.926
MS.270         	11.547         	4.052
MS.271         	11.525         	3.988
MS.272         	11.5           	3.99
MS.273         	11.477         	3.881
MS.274         	11.455         	3.803
MS.275         	11.432         	3.728
MS.276         	11.41          	3.668
MS.277         	11.387         	3.539
MS.278         	11.365         	3.692
MS.279         	11.34          	3.482
MS.280         	11.318         	3.493
MS.281         	11.295         	3.321
MS.282         	11.273         	3.446
MS.283         	11.25          	3.362
MS.284         	11.227         	3.221
MS.285         	11.205         	3.233
MS.286         	11.182         	3.35
MS.287         	11.16          	3.388
MS.288         	11.14          	3.025
MS.289         	11.117         	3.178
MS.290         	11.095         	3.041
MS.291         	11.073         	3.088
MS.292         	11.05          	3.033
MS.293         	11.028         	3.078
MS.294         	11.005         	2.786
MS.295         	10.985         	3.009
MS.296         	10.962         	2.659
MS.297         	10.94          	2.743
MS.298         	10.917         	2.669
MS.299         	10.898         	2.675
MS.300         	10.875         	2.606
MS.301         	10.852         	2.576
MS.302         	10.83          	2.628
MS.303         	10.81          	2.612
MS.304         	10.787         	2.344
MS.305         	10.767         	2.449
MS.306         	10.745         	2.504
MS.307         	10.722         	2.387
MS.308         	10.702         	2.534
MS.309         	10.68          	2.355
MS.310         	10.66          	2.405
MS.311         	10.637         	2.405
MS.312         	10.617         	2.383
MS.313         	10.595         	2.173
MS.314         	10.575         	2.212
MS.315         	10.552         	2.212
MS.316         	10.532         	2.296
MS.317         	10.51          	2.073
MS.318         	10.49          	2.101
MS.319         	10.47          	2.089
MS.320         	10.448         	1.972
MS.321         	10.427         	1.94
MS.322         	10.407         	1.954
MS.323         	10.385         	1.915
MS.324         	10.365         	1.986
MS.325         	10.345         	1.855
MS.326         	10.323         	1.829
MS.327         	10.302         	1.807
MS.328         	10.282         	1.982
MS.329         	10.262         	1.845
MS.330         	10.242         	1.728
MS.331         	10.22          	1.746
MS.332         	10.2           	1.68
MS.333         	10.18          	1.635
MS.334         	10.16          	1.595
MS.335         	10.14          	1.629
MS.336         	10.12          	1.631
MS.337         	10.1           	1.589
MS.338         	10.08          	1.559
MS.339         	10.057         	1.38
MS.340         	10.037         	1.307
MS.341         	10.017         	1.513
MS.342         	9.997          	1.366
MS.343         	9.977          	1.44
MS.344         	9.957          	1.386
MS.345         	9.938          	1.412
MS.346         	9.92           	1.239
MS.347         	9.9            	1.305
MS.348         	9.88           	1.084
MS.349         	9.86           	1.309
MS.350         	9.84           	1.047
MS.351         	9.82           	1.186
MS.352         	9.8            	1.295
MS.353         	9.78           	1.011
MS.354         	9.762          	1.154
MS.355         	9.742          	0.937
MS.356         	9.722          	1.033
MS.357         	9.702          	1.039
MS.358         	9.682          	0.812
MS.359         	9.665          	0.981
MS.360         	9.645          	0.862
MS.361         	9.625          	0.862
MS.362         	9.608          	0.848
MS.363         	9.587          	0.822
MS.364         	9.568          	0.834
MS.365         	9.55           	0.685
MS.366         	9.53           	0.741
MS.367         	9.51           	0.731
MS.368         	9.492          	0.85
MS.369         	9.472          	0.822
MS.370         	9.455          	0.699
MS.371         	9.435          	0.608
MS.372         	9.415          	0.723
MS.373         	9.398          	0.596
MS.374         	9.377          	0.504
MS.375         	9.36           	0.781
MS.376         	9.34           	0.673
MS.377         	9.323          	0.695
MS.378         	9.305          	0.612
MS.379         	9.285          	0.608
MS.380         	9.267          	0.55
MS.381         	9.247          	0.645
MS.382         	9.23           	0.528
MS.383         	9.212          	0.6
MS.384         	9.193          	0.502
MS.385         	9.175          	0.481
MS.386         	9.155          	0.481
MS.387         	9.137          	0.564
MS.388         	9.12           	0.487
MS.389         	9.102          	0.467
MS.390         	9.082          	0.431
MS.391         	9.065          	0.51
MS.392         	9.047          	0.445
MS.393         	9.03           	0.379
MS.394         	9.01           	0.332
MS.395         	8.992          	0.35
MS.396         	8.975          	0.31
MS.397         	8.957          	0.326
MS.398         	8.94           	0.427
MS.399         	8.92           	0.24
MS.400         	8.903          	0.33
MS.401         	8.885          	0.298
MS.402         	8.867          	0.419
MS.403         	8.85           	0.268
MS.404         	8.832          	0.272
MS.405         	8.815          	0.207
MS.406         	8.797          	0.246
MS.407         	8.78           	0.244
MS.408         	8.762          	0.187
MS.409         	8.745          	0.207
MS.410         	8.727          	0.201
MS.411         	8.71           	0.089
MS.412         	8.693          	0.258
MS.413         	8.675          	0.236
MS.414         	8.658          	0.129
MS.415         	8.64           	0.181
MS.416         	8.622          	0.151
MS.417         	8.605          	0.145
MS.418         	8.587          	0.153
MS.419         	8.573          	0.075
MS.420         	8.555          	0.101
MS.421         	8.537          	0.095
MS.422         	8.52           	0.07
MS.423         	8.502          	0.07
MS.424         	8.485          	0.105
MS.425         	8.47           	0.105
MS.426         	8.452          	0.097
MS.427         	8.435          	0.113
MS.428         	8.417          	0.07
MS.429         	8.403          	0.085
MS.430         	8.385          	0.068
MS.431         	8.367          	0.131
MS.432         	8.352          	0.052
MS.433         	8.335          	0.085
MS.434         	8.318          	0.087
MS.435         	8.302          	0.079
MS.436         	8.285          	0.089
MS.437         	8.267          	0.089
MS.438         	8.252          	0.058
MS.439         	8.235          	0.048
MS.440         	8.22           	0.081
MS.441         	8.202          	0.087
MS.442         	8.185          	0.111
MS.443         	8.17           	0.062
MS.444         	8.153          	0.042
MS.445         	8.137          	0.054
MS.446         	8.12           	0.022
MS.447         	8.105          	0.075
MS.448         	8.087          	0.042
MS.449         	8.073          	0.034
MS.450         	8.055          	0.05
MS.451         	8.04           	0.032
MS.452         	8.025          	0.042
MS.453         	8.007          	0.048
MS.454         	7.992          	0.03
MS.455         	7.975          	0.054
MS.456         	7.96           	0.02
MS.457         	7.945          	0.012
MS.458         	7.927          	0.022
MS.459         	7.912          	0.022
MS.460         	7.898          	0.022
MS.461         	7.88           	0.054
MS.462         	7.865          	0.018
MS.463         	7.85           	0.02
MS.464         	7.832          	0.024
MS.465         	7.817          	0.018
MS.466         	7.802          	0.02
MS.467         	7.787          	0.02
MS.468         	7.773          	0.018
MS.469         	7.755          	0.024
MS.470         	7.74           	0.016
MS.471         	7.725          	0.024
MS.472         	7.71           	0.012
MS.473         	7.695          	0.04
MS.474         	7.677          	0.018
MS.475         	7.662          	0.032
MS.476         	7.648          	0.024
MS.477         	7.632          	0.02
MS.478         	7.617          	0.012
MS.479         	7.602          	0.018
MS.480         	7.587          	0.012
MS.481         	7.572          	0.01
MS.482         	7.557          	0.024
MS.483         	7.543          	0.02
MS.484         	7.527          	0.018
MS.485         	7.512          	0.012
MS.486         	7.497          	0.02
MS.487         	7.482          	0.014
MS.488         	7.467          	0.012
MS.489         	7.452          	0.01
MS.490         	7.438          	0.014
MS.491         	7.422          	0.016
MS.492         	7.407          	0.004
MS.493         	7.392          	0.018
MS.494         	7.378          	0.018
MS.495         	7.362          	0.01
MS.496         	7.347          	0.012
MS.497         	7.332          	0.014
MS.498         	7.317          	0.008
MS.499         	7.305          	0.016
MS.500         	7.29           	0.014
