File:              	C:\Qtrac\Data\Daniel M Sørensen\MScan multicentre study\Data from centres\Antalya\Processed data\TR.NC.ANT.8.2- NCC01208C.QZD
Name:              	TR.NC.ANT.8.2
Protocol:          	MSCAN-R2
Date:              	8/12/20
Start time:        	15:49:18
Age:               	45
Sex:               	f
Temperature:       	33.8
S/R sites:         	ADM
NC/disease:        	NC
Operator:          	ab
Comments:
M-SCAN DATA (8.5-0.8m)
Scanpts: 123, 134, 645, 650
Stim. (mA)     	Amp. (mV)
MS.1           	36             	7.084
MS.2           	36             	7.102
MS.3           	36             	7.068
MS.4           	36             	7.046
MS.5           	36             	7.066
MS.6           	36             	7.092
MS.7           	36             	7.136
MS.8           	36             	7.064
MS.9           	36             	7.029
MS.10          	36             	7.052
MS.11          	36             	7.001
MS.12          	36             	7.013
MS.13          	36             	7.009
MS.14          	36             	7.011
MS.15          	36             	7.108
MS.16          	36             	7.108
MS.17          	36             	6.991
MS.18          	36             	6.975
MS.19          	36             	7.056
MS.20          	36             	7.048
MS.21          	36             	6.925
MS.22          	36             	7.076
MS.23          	36             	7.074
MS.24          	35.855         	6.951
MS.25          	35.785         	7.058
MS.26          	35.712         	7.039
MS.27          	35.642         	7.023
MS.28          	35.57          	6.919
MS.29          	35.5           	6.927
MS.30          	35.427         	6.951
MS.31          	35.357         	6.957
MS.32          	35.287         	6.957
MS.33          	35.217         	6.979
MS.34          	35.145         	6.989
MS.35          	35.075         	6.943
MS.36          	35.005         	6.868
MS.37          	34.935         	6.901
MS.38          	34.865         	6.971
MS.39          	34.798         	6.913
MS.40          	34.728         	6.901
MS.41          	34.657         	6.973
MS.42          	34.587         	6.917
MS.43          	34.52          	6.961
MS.44          	34.45          	6.89
MS.45          	34.382         	6.943
MS.46          	34.312         	6.925
MS.47          	34.245         	6.935
MS.48          	34.175         	6.816
MS.49          	34.107         	6.838
MS.50          	34.04          	6.898
MS.51          	33.972         	6.866
MS.52          	33.903         	6.919
MS.53          	33.835         	6.84
MS.54          	33.767         	6.84
MS.55          	33.7           	6.88
MS.56          	33.632         	6.882
MS.57          	33.565         	6.965
MS.58          	33.5           	6.911
MS.59          	33.432         	6.985
MS.60          	33.365         	6.975
MS.61          	33.298         	6.977
MS.62          	33.232         	7.027
MS.63          	33.165         	7.031
MS.64          	33.1           	6.953
MS.65          	33.032         	6.971
MS.66          	32.967         	6.862
MS.67          	32.903         	6.892
MS.68          	32.835         	6.864
MS.69          	32.77          	6.868
MS.70          	32.705         	6.854
MS.71          	32.64          	6.868
MS.72          	32.575         	6.721
MS.73          	32.51          	7.023
MS.74          	32.445         	6.931
MS.75          	32.38          	6.747
MS.76          	32.315         	6.923
MS.77          	32.25          	6.701
MS.78          	32.185         	6.844
MS.79          	32.12          	6.663
MS.80          	32.057         	6.665
MS.81          	31.992         	6.758
MS.82          	31.93          	6.766
MS.83          	31.865         	6.719
MS.84          	31.802         	6.679
MS.85          	31.737         	6.739
MS.86          	31.675         	6.725
MS.87          	31.612         	6.782
MS.88          	31.547         	6.699
MS.89          	31.485         	6.711
MS.90          	31.422         	6.665
MS.91          	31.36          	6.663
MS.92          	31.297         	6.582
MS.93          	31.235         	6.57
MS.94          	31.172         	6.496
MS.95          	31.11          	6.635
MS.96          	31.047         	6.604
MS.97          	30.985         	6.655
MS.98          	30.922         	6.6
MS.99          	30.862         	6.677
MS.100         	30.8           	6.679
MS.101         	30.737         	6.594
MS.102         	30.677         	6.532
MS.103         	30.615         	6.496
MS.104         	30.555         	6.566
MS.105         	30.492         	6.572
MS.106         	30.432         	6.586
MS.107         	30.372         	6.395
MS.108         	30.31          	6.528
MS.109         	30.25          	6.528
MS.110         	30.19          	6.554
MS.111         	30.13          	6.562
MS.112         	30.07          	6.707
MS.113         	30.01          	6.725
MS.114         	29.95          	6.747
MS.115         	29.89          	6.677
MS.116         	29.83          	6.776
MS.117         	29.77          	6.88
MS.118         	29.71          	6.917
MS.119         	29.653         	6.903
MS.120         	29.592         	6.901
MS.121         	29.532         	6.794
MS.122         	29.475         	6.689
MS.123         	29.415         	6.808
MS.124         	29.358         	6.792
MS.125         	29.297         	6.868
MS.126         	29.24          	6.792
MS.127         	29.18          	6.814
MS.128         	29.122         	6.927
MS.129         	29.065         	6.915
MS.130         	29.007         	6.812
MS.131         	28.948         	6.876
MS.132         	28.89          	6.834
MS.133         	28.832         	6.86
MS.134         	28.775         	6.854
MS.135         	28.717         	6.804
MS.136         	28.66          	6.772
MS.137         	28.602         	6.836
MS.138         	28.545         	6.83
MS.139         	28.49          	6.784
MS.140         	28.432         	6.731
MS.141         	28.375         	6.911
MS.142         	28.317         	6.933
MS.143         	28.262         	6.937
MS.144         	28.205         	6.856
MS.145         	28.15          	6.727
MS.146         	28.092         	6.884
MS.147         	28.037         	6.693
MS.148         	27.98          	6.804
MS.149         	27.925         	7.104
MS.150         	27.87          	7.011
MS.151         	27.812         	6.995
MS.152         	27.757         	6.985
MS.153         	27.702         	6.907
MS.154         	27.647         	6.933
MS.155         	27.592         	6.923
MS.156         	27.537         	6.84
MS.157         	27.483         	6.786
MS.158         	27.427         	6.836
MS.159         	27.372         	6.788
MS.160         	27.317         	6.717
MS.161         	27.262         	6.695
MS.162         	27.207         	6.627
MS.163         	27.153         	6.695
MS.164         	27.1           	6.764
MS.165         	27.045         	6.691
MS.166         	26.993         	6.721
MS.167         	26.938         	6.649
MS.168         	26.882         	6.649
MS.169         	26.83          	6.627
MS.170         	26.775         	6.651
MS.171         	26.722         	6.578
MS.172         	26.67          	6.753
MS.173         	26.615         	6.604
MS.174         	26.562         	6.574
MS.175         	26.51          	6.598
MS.176         	26.457         	6.556
MS.177         	26.405         	6.615
MS.178         	26.35          	6.635
MS.179         	26.297         	6.594
MS.180         	26.245         	6.524
MS.181         	26.192         	6.737
MS.182         	26.14          	6.729
MS.183         	26.09          	6.78
MS.184         	26.037         	6.655
MS.185         	25.985         	6.564
MS.186         	25.932         	6.711
MS.187         	25.88          	6.619
MS.188         	25.83          	6.659
MS.189         	25.778         	6.695
MS.190         	25.727         	6.635
MS.191         	25.675         	6.653
MS.192         	25.622         	6.592
MS.193         	25.573         	6.49
MS.194         	25.522         	6.615
MS.195         	25.47          	6.465
MS.196         	25.42          	6.592
MS.197         	25.368         	6.409
MS.198         	25.317         	6.391
MS.199         	25.267         	6.459
MS.200         	25.217         	6.498
MS.201         	25.167         	6.484
MS.202         	25.115         	6.558
MS.203         	25.065         	6.32
MS.204         	25.015         	6.586
MS.205         	24.965         	6.621
MS.206         	24.915         	6.476
MS.207         	24.868         	6.437
MS.208         	24.817         	6.469
MS.209         	24.767         	6.512
MS.210         	24.717         	6.596
MS.211         	24.667         	6.556
MS.212         	24.62          	6.566
MS.213         	24.57          	6.474
MS.214         	24.52          	6.457
MS.215         	24.472         	6.762
MS.216         	24.422         	6.653
MS.217         	24.375         	6.405
MS.218         	24.325         	6.403
MS.219         	24.278         	6.256
MS.220         	24.227         	6.22
MS.221         	24.18          	6.248
MS.222         	24.132         	6.087
MS.223         	24.082         	6.145
MS.224         	24.035         	6.216
MS.225         	23.987         	6.149
MS.226         	23.94          	6.051
MS.227         	23.892         	6.097
MS.228         	23.842         	6.093
MS.229         	23.795         	6.004
MS.230         	23.747         	6.049
MS.231         	23.7           	5.94
MS.232         	23.653         	6.008
MS.233         	23.608         	5.984
MS.234         	23.56          	5.968
MS.235         	23.512         	5.978
MS.236         	23.465         	5.887
MS.237         	23.417         	5.869
MS.238         	23.372         	5.692
MS.239         	23.325         	5.825
MS.240         	23.278         	5.954
MS.241         	23.233         	5.756
MS.242         	23.185         	5.624
MS.243         	23.14          	5.777
MS.244         	23.092         	5.781
MS.245         	23.047         	5.668
MS.246         	23             	5.692
MS.247         	22.955         	5.718
MS.248         	22.907         	5.64
MS.249         	22.862         	5.73
MS.250         	22.817         	5.654
MS.251         	22.772         	5.597
MS.252         	22.725         	5.605
MS.253         	22.68          	5.477
MS.254         	22.635         	5.611
MS.255         	22.59          	5.529
MS.256         	22.545         	5.456
MS.257         	22.5           	5.477
MS.258         	22.455         	5.654
MS.259         	22.41          	5.551
MS.260         	22.365         	5.499
MS.261         	22.32          	5.543
MS.262         	22.275         	5.491
MS.263         	22.233         	5.436
MS.264         	22.188         	5.289
MS.265         	22.142         	5.533
MS.266         	22.097         	5.41
MS.267         	22.055         	5.303
MS.268         	22.01          	5.319
MS.269         	21.967         	5.317
MS.270         	21.922         	5.315
MS.271         	21.877         	5.386
MS.272         	21.835         	5.269
MS.273         	21.792         	5.207
MS.274         	21.747         	5.166
MS.275         	21.705         	5.333
MS.276         	21.66          	5.259
MS.277         	21.618         	5.112
MS.278         	21.575         	5.102
MS.279         	21.532         	5.174
MS.280         	21.487         	5.1
MS.281         	21.445         	4.963
MS.282         	21.403         	4.981
MS.283         	21.36          	4.943
MS.284         	21.317         	4.991
MS.285         	21.275         	5.005
MS.286         	21.233         	4.87
MS.287         	21.19          	4.931
MS.288         	21.147         	4.953
MS.289         	21.105         	4.854
MS.290         	21.062         	4.919
MS.291         	21.02          	4.834
MS.292         	20.98          	4.719
MS.293         	20.938         	4.8
MS.294         	20.895         	4.856
MS.295         	20.852         	4.842
MS.296         	20.812         	4.681
MS.297         	20.77          	4.689
MS.298         	20.727         	4.77
MS.299         	20.688         	4.77
MS.300         	20.645         	4.663
MS.301         	20.605         	4.685
MS.302         	20.562         	4.622
MS.303         	20.522         	4.669
MS.304         	20.483         	4.602
MS.305         	20.44          	4.556
MS.306         	20.4           	4.606
MS.307         	20.36          	4.616
MS.308         	20.317         	4.516
MS.309         	20.278         	4.467
MS.310         	20.237         	4.477
MS.311         	20.198         	4.556
MS.312         	20.157         	4.496
MS.313         	20.115         	4.496
MS.314         	20.075         	4.345
MS.315         	20.035         	4.359
MS.316         	19.995         	4.461
MS.317         	19.955         	4.544
MS.318         	19.915         	4.469
MS.319         	19.875         	4.49
MS.320         	19.837         	4.482
MS.321         	19.797         	4.351
MS.322         	19.757         	4.498
MS.323         	19.717         	4.425
MS.324         	19.677         	4.357
MS.325         	19.64          	4.312
MS.326         	19.6           	4.29
MS.327         	19.56          	4.312
MS.328         	19.522         	4.081
MS.329         	19.483         	4.204
MS.330         	19.442         	4.089
MS.331         	19.405         	4.258
MS.332         	19.365         	3.982
MS.333         	19.327         	3.899
MS.334         	19.288         	4.077
MS.335         	19.25          	4.147
MS.336         	19.212         	3.869
MS.337         	19.172         	3.841
MS.338         	19.135         	3.877
MS.339         	19.097         	3.897
MS.340         	19.057         	3.99
MS.341         	19.02          	3.799
MS.342         	18.983         	3.897
MS.343         	18.945         	3.863
MS.344         	18.907         	3.821
MS.345         	18.87          	3.996
MS.346         	18.83          	3.797
MS.347         	18.792         	3.662
MS.348         	18.755         	3.706
MS.349         	18.717         	3.865
MS.350         	18.68          	3.686
MS.351         	18.645         	3.75
MS.352         	18.608         	3.807
MS.353         	18.57          	3.924
MS.354         	18.532         	3.847
MS.355         	18.495         	3.535
MS.356         	18.458         	3.718
MS.357         	18.422         	3.865
MS.358         	18.385         	3.692
MS.359         	18.347         	3.831
MS.360         	18.31          	3.533
MS.361         	18.275         	3.543
MS.362         	18.237         	3.686
MS.363         	18.202         	3.742
MS.364         	18.165         	3.781
MS.365         	18.13          	3.15
MS.366         	18.092         	3.567
MS.367         	18.057         	3.65
MS.368         	18.02          	3.686
MS.369         	17.985         	3.241
MS.370         	17.948         	3.19
MS.371         	17.913         	3.207
MS.372         	17.878         	3.374
MS.373         	17.842         	3.438
MS.374         	17.805         	3.132
MS.375         	17.77          	3.148
MS.376         	17.735         	3.092
MS.377         	17.7           	3.09
MS.378         	17.665         	3.43
MS.379         	17.628         	3.164
MS.380         	17.592         	3.015
MS.381         	17.557         	3.09
MS.382         	17.522         	2.993
MS.383         	17.487         	3.124
MS.384         	17.452         	2.975
MS.385         	17.417         	2.856
MS.386         	17.382         	2.919
MS.387         	17.347         	2.892
MS.388         	17.315         	2.933
MS.389         	17.28          	2.747
MS.390         	17.245         	2.723
MS.391         	17.21          	2.888
MS.392         	17.175         	2.937
MS.393         	17.142         	3.192
MS.394         	17.108         	2.876
MS.395         	17.073         	2.993
MS.396         	17.04          	3.031
MS.397         	17.005         	3.12
MS.398         	16.97          	3.138
MS.399         	16.938         	3.015
MS.400         	16.903         	2.917
MS.401         	16.87          	2.923
MS.402         	16.835         	2.937
MS.403         	16.802         	2.792
MS.404         	16.767         	2.719
MS.405         	16.735         	2.846
MS.406         	16.702         	2.808
MS.407         	16.667         	2.969
MS.408         	16.635         	2.643
MS.409         	16.602         	2.618
MS.410         	16.567         	2.741
MS.411         	16.535         	2.618
MS.412         	16.503         	2.659
MS.413         	16.47          	2.578
MS.414         	16.438         	2.612
MS.415         	16.405         	2.633
MS.416         	16.37          	2.471
MS.417         	16.337         	2.429
MS.418         	16.305         	2.548
MS.419         	16.272         	2.725
MS.420         	16.24          	2.326
MS.421         	16.208         	2.181
MS.422         	16.175         	2.393
MS.423         	16.142         	2.596
MS.424         	16.11          	2.647
MS.425         	16.08          	2.234
MS.426         	16.047         	2.222
MS.427         	16.015         	2.379
MS.428         	15.983         	2.54
MS.429         	15.95          	2.433
MS.430         	15.92          	2.212
MS.431         	15.887         	2.314
MS.432         	15.855         	2.216
MS.433         	15.825         	2.411
MS.434         	15.792         	2.117
MS.435         	15.76          	2.129
MS.436         	15.73          	2.256
MS.437         	15.697         	2.29
MS.438         	15.667         	2.111
MS.439         	15.635         	2.248
MS.440         	15.605         	2.113
MS.441         	15.572         	1.934
MS.442         	15.542         	2.097
MS.443         	15.51          	2.103
MS.444         	15.48          	2.107
MS.445         	15.447         	1.875
MS.446         	15.417         	1.795
MS.447         	15.387         	2.024
MS.448         	15.355         	1.915
MS.449         	15.325         	1.853
MS.450         	15.295         	1.934
MS.451         	15.265         	1.861
MS.452         	15.235         	1.847
MS.453         	15.202         	1.615
MS.454         	15.172         	1.698
MS.455         	15.142         	1.567
MS.456         	15.112         	1.627
MS.457         	15.082         	1.589
MS.458         	15.052         	1.551
MS.459         	15.023         	1.523
MS.460         	14.992         	1.672
MS.461         	14.962         	1.319
MS.462         	14.932         	1.462
MS.463         	14.902         	1.503
MS.464         	14.872         	1.535
MS.465         	14.842         	1.513
MS.466         	14.812         	1.41
MS.467         	14.782         	1.535
MS.468         	14.755         	1.545
MS.469         	14.725         	1.633
MS.470         	14.695         	1.47
MS.471         	14.665         	1.535
MS.472         	14.637         	1.482
MS.473         	14.608         	1.392
MS.474         	14.577         	1.196
MS.475         	14.55          	1.267
MS.476         	14.52          	1.275
MS.477         	14.49          	1.339
MS.478         	14.462         	1.13
MS.479         	14.432         	1.267
MS.480         	14.405         	1.104
MS.481         	14.375         	1.219
MS.482         	14.347         	1.213
MS.483         	14.318         	1.217
MS.484         	14.29          	1.382
MS.485         	14.26          	1.213
MS.486         	14.233         	1.188
MS.487         	14.205         	1.295
MS.488         	14.175         	1.285
MS.489         	14.148         	1.378
MS.490         	14.12          	1.267
MS.491         	14.09          	1.243
MS.492         	14.062         	1.287
MS.493         	14.035         	1.19
MS.494         	14.007         	1.223
MS.495         	13.977         	1.055
MS.496         	13.95          	1.213
MS.497         	13.922         	1.128
MS.498         	13.895         	1.2
MS.499         	13.867         	1.186
MS.500         	13.84          	1.225
