File:              	C:\Qtrac\Data\Daniel M Sørensen\MScan multicentre study\Data from centres\Antalya\Processed data\TR.NC.ANT.3.1- NCC00315G.QZD
Name:              	TR.NC.ANT.3.1
Protocol:          	MSCAN-R2
Date:              	15/3/20
Start time:        	16:04:42
Age:               	37
Sex:               	f
Temperature:       	30.3
S/R sites:         	ADM
NC/disease:        	NC
Operator:          	ab
Comments:          	left ADM
M-SCAN DATA (7.6-0.6m)
Scanpts: 135, 141, 679, 686
Stim. (mA)     	Amp. (mV)
MS.1           	15             	7.898
MS.2           	15             	7.924
MS.3           	15             	7.855
MS.4           	15             	7.863
MS.5           	15             	7.869
MS.6           	15             	7.851
MS.7           	15             	7.849
MS.8           	15             	7.843
MS.9           	15             	7.857
MS.10          	15             	7.807
MS.11          	15             	7.763
MS.12          	15             	7.797
MS.13          	15             	7.829
MS.14          	15             	7.891
MS.15          	15             	7.883
MS.16          	15             	7.839
MS.17          	15             	7.833
MS.18          	15             	7.801
MS.19          	15             	7.797
MS.20          	15             	7.761
MS.21          	15             	7.833
MS.22          	15             	7.877
MS.23          	15             	7.887
MS.24          	14.94          	7.829
MS.25          	14.91          	7.855
MS.26          	14.88          	7.803
MS.27          	14.85          	7.734
MS.28          	14.82          	7.815
MS.29          	14.792         	7.771
MS.30          	14.762         	7.813
MS.31          	14.733         	7.805
MS.32          	14.702         	7.835
MS.33          	14.672         	7.827
MS.34          	14.645         	7.793
MS.35          	14.615         	7.664
MS.36          	14.585         	7.678
MS.37          	14.557         	7.656
MS.38          	14.527         	7.831
MS.39          	14.497         	7.865
MS.40          	14.47          	7.906
MS.41          	14.44          	7.857
MS.42          	14.412         	7.839
MS.43          	14.382         	7.785
MS.44          	14.355         	7.785
MS.45          	14.325         	7.769
MS.46          	14.297         	7.658
MS.47          	14.267         	7.767
MS.48          	14.24          	7.833
MS.49          	14.212         	7.879
MS.50          	14.182         	7.797
MS.51          	14.155         	7.837
MS.52          	14.127         	7.853
MS.53          	14.097         	7.839
MS.54          	14.07          	7.789
MS.55          	14.042         	7.799
MS.56          	14.015         	7.821
MS.57          	13.985         	7.845
MS.58          	13.957         	7.799
MS.59          	13.93          	7.849
MS.60          	13.903         	7.879
MS.61          	13.875         	7.928
MS.62          	13.847         	7.916
MS.63          	13.82          	7.934
MS.64          	13.792         	7.924
MS.65          	13.765         	7.916
MS.66          	13.737         	7.92
MS.67          	13.71          	7.934
MS.68          	13.682         	7.95
MS.69          	13.655         	7.924
MS.70          	13.627         	7.922
MS.71          	13.6           	7.928
MS.72          	13.572         	7.896
MS.73          	13.545         	7.881
MS.74          	13.517         	7.877
MS.75          	13.492         	7.914
MS.76          	13.465         	7.964
MS.77          	13.438         	7.91
MS.78          	13.41          	7.964
MS.79          	13.385         	7.891
MS.80          	13.358         	7.968
MS.81          	13.33          	7.958
MS.82          	13.305         	7.932
MS.83          	13.278         	8.016
MS.84          	13.25          	7.91
MS.85          	13.225         	7.922
MS.86          	13.197         	7.906
MS.87          	13.172         	7.94
MS.88          	13.145         	7.944
MS.89          	13.12          	7.916
MS.90          	13.092         	7.916
MS.91          	13.068         	7.891
MS.92          	13.04          	7.934
MS.93          	13.015         	7.859
MS.94          	12.987         	7.889
MS.95          	12.962         	7.694
MS.96          	12.938         	7.75
MS.97          	12.91          	7.809
MS.98          	12.885         	7.777
MS.99          	12.86          	7.811
MS.100         	12.832         	7.871
MS.101         	12.807         	7.926
MS.102         	12.782         	7.934
MS.103         	12.757         	7.877
MS.104         	12.73          	7.859
MS.105         	12.705         	7.865
MS.106         	12.68          	7.805
MS.107         	12.655         	7.821
MS.108         	12.63          	7.9
MS.109         	12.605         	7.863
MS.110         	12.58          	7.847
MS.111         	12.555         	7.841
MS.112         	12.53          	7.867
MS.113         	12.505         	7.881
MS.114         	12.48          	7.932
MS.115         	12.455         	7.93
MS.116         	12.43          	7.942
MS.117         	12.405         	7.948
MS.118         	12.38          	7.93
MS.119         	12.355         	7.898
MS.120         	12.33          	7.926
MS.121         	12.305         	7.926
MS.122         	12.28          	7.934
MS.123         	12.257         	7.958
MS.124         	12.233         	7.942
MS.125         	12.207         	7.922
MS.126         	12.182         	7.9
MS.127         	12.157         	7.924
MS.128         	12.135         	7.885
MS.129         	12.11          	7.889
MS.130         	12.085         	7.91
MS.131         	12.062         	7.948
MS.132         	12.037         	7.912
MS.133         	12.012         	7.926
MS.134         	11.99          	7.94
MS.135         	11.965         	7.936
MS.136         	11.943         	7.956
MS.137         	11.917         	7.926
MS.138         	11.895         	7.93
MS.139         	11.87          	7.928
MS.140         	11.847         	7.922
MS.141         	11.822         	7.906
MS.142         	11.8           	7.93
MS.143         	11.775         	7.914
MS.144         	11.752         	7.902
MS.145         	11.73          	7.9
MS.146         	11.705         	7.761
MS.147         	11.682         	7.912
MS.148         	11.657         	7.837
MS.149         	11.635         	7.891
MS.150         	11.613         	7.819
MS.151         	11.59          	7.817
MS.152         	11.565         	7.769
MS.153         	11.542         	7.827
MS.154         	11.52          	7.841
MS.155         	11.497         	7.835
MS.156         	11.472         	8.006
MS.157         	11.45          	7.843
MS.158         	11.427         	7.879
MS.159         	11.405         	7.881
MS.160         	11.382         	7.891
MS.161         	11.36          	7.889
MS.162         	11.337         	7.855
MS.163         	11.315         	8.034
MS.164         	11.292         	7.757
MS.165         	11.27          	7.793
MS.166         	11.247         	7.775
MS.167         	11.225         	7.75
MS.168         	11.202         	7.779
MS.169         	11.18          	7.771
MS.170         	11.157         	7.789
MS.171         	11.135         	7.761
MS.172         	11.113         	7.738
MS.173         	11.09          	7.708
MS.174         	11.068         	7.69
MS.175         	11.045         	7.668
MS.176         	11.023         	7.68
MS.177         	11.002         	7.718
MS.178         	10.98          	7.728
MS.179         	10.957         	7.75
MS.180         	10.935         	7.74
MS.181         	10.915         	7.612
MS.182         	10.892         	7.692
MS.183         	10.87          	7.73
MS.184         	10.847         	7.748
MS.185         	10.827         	7.763
MS.186         	10.805         	7.694
MS.187         	10.785         	7.75
MS.188         	10.762         	7.73
MS.189         	10.74          	7.716
MS.190         	10.72          	7.755
MS.191         	10.698         	7.732
MS.192         	10.677         	7.821
MS.193         	10.655         	7.706
MS.194         	10.635         	7.664
MS.195         	10.613         	7.732
MS.196         	10.592         	7.644
MS.197         	10.57          	7.682
MS.198         	10.55          	7.69
MS.199         	10.528         	7.605
MS.200         	10.507         	7.595
MS.201         	10.485         	7.495
MS.202         	10.465         	7.366
MS.203         	10.445         	7.503
MS.204         	10.422         	7.529
MS.205         	10.403         	7.376
MS.206         	10.382         	7.364
MS.207         	10.36          	7.295
MS.208         	10.34          	7.245
MS.209         	10.32          	7.233
MS.210         	10.3           	7.235
MS.211         	10.278         	7.317
MS.212         	10.257         	7.215
MS.213         	10.238         	7.209
MS.214         	10.217         	7.158
MS.215         	10.198         	6.927
MS.216         	10.175         	7.293
MS.217         	10.155         	7.211
MS.218         	10.135         	7.138
MS.219         	10.115         	7.104
MS.220         	10.095         	6.794
MS.221         	10.075         	6.804
MS.222         	10.055         	6.671
MS.223         	10.035         	6.747
MS.224         	10.015         	6.764
MS.225         	9.995          	6.544
MS.226         	9.975          	6.685
MS.227         	9.955          	6.552
MS.228         	9.935          	6.488
MS.229         	9.915          	6.554
MS.230         	9.895          	6.385
MS.231         	9.875          	6.27
MS.232         	9.855          	6.465
MS.233         	9.835          	6.268
MS.234         	9.818          	6.345
MS.235         	9.797          	6.123
MS.236         	9.778          	6.105
MS.237         	9.757          	5.891
MS.238         	9.738          	5.899
MS.239         	9.717          	5.974
MS.240         	9.7            	5.779
MS.241         	9.68           	5.805
MS.242         	9.66           	5.817
MS.243         	9.64           	5.73
MS.244         	9.622          	5.368
MS.245         	9.602          	5.861
MS.246         	9.582          	5.805
MS.247         	9.565          	5.599
MS.248         	9.545          	5.511
MS.249         	9.525          	5.376
MS.250         	9.507          	5.517
MS.251         	9.488          	5.358
MS.252         	9.47           	5.515
MS.253         	9.45           	5.186
MS.254         	9.432          	5.388
MS.255         	9.412          	5.396
MS.256         	9.395          	5.279
MS.257         	9.375          	5.166
MS.258         	9.358          	5.342
MS.259         	9.337          	5.144
MS.260         	9.32           	4.919
MS.261         	9.3            	5.162
MS.262         	9.283          	5.064
MS.263         	9.262          	5.094
MS.264         	9.245          	4.949
MS.265         	9.225          	4.772
MS.266         	9.207          	4.997
MS.267         	9.19           	4.947
MS.268         	9.17           	4.822
MS.269         	9.153          	5.031
MS.270         	9.135          	4.89
MS.271         	9.115          	4.804
MS.272         	9.097          	4.627
MS.273         	9.08           	4.562
MS.274         	9.062          	4.661
MS.275         	9.042          	4.57
MS.276         	9.025          	4.435
MS.277         	9.007          	4.357
MS.278         	8.99           	4.486
MS.279         	8.972          	4.387
MS.280         	8.952          	4.153
MS.281         	8.935          	4.214
MS.282         	8.917          	4.316
MS.283         	8.9            	4.109
MS.284         	8.882          	4.038
MS.285         	8.865          	4.135
MS.286         	8.847          	4.334
MS.287         	8.83           	4.236
MS.288         	8.812          	4.008
MS.289         	8.795          	4.198
MS.290         	8.775          	3.922
MS.291         	8.757          	3.873
MS.292         	8.74           	4.145
MS.293         	8.722          	4.097
MS.294         	8.707          	3.924
MS.295         	8.69           	4.272
MS.296         	8.672          	4.012
MS.297         	8.655          	3.893
MS.298         	8.637          	3.962
MS.299         	8.62           	3.736
MS.300         	8.602          	3.785
MS.301         	8.585          	3.92
MS.302         	8.568          	3.797
MS.303         	8.55           	3.789
MS.304         	8.535          	3.64
MS.305         	8.517          	3.748
MS.306         	8.5            	3.619
MS.307         	8.483          	3.505
MS.308         	8.465          	3.672
MS.309         	8.45           	3.851
MS.310         	8.432          	3.815
MS.311         	8.415          	3.863
MS.312         	8.398          	3.819
MS.313         	8.382          	3.732
MS.314         	8.365          	3.63
MS.315         	8.347          	3.487
MS.316         	8.332          	3.573
MS.317         	8.315          	3.603
MS.318         	8.297          	3.575
MS.319         	8.283          	3.65
MS.320         	8.265          	3.517
MS.321         	8.247          	3.309
MS.322         	8.233          	3.428
MS.323         	8.215          	3.414
MS.324         	8.2            	3.505
MS.325         	8.182          	3.305
MS.326         	8.167          	3.148
MS.327         	8.15           	3.348
MS.328         	8.135          	3.247
MS.329         	8.117          	3.317
MS.330         	8.102          	3.265
MS.331         	8.085          	3.225
MS.332         	8.07           	3.213
MS.333         	8.052          	2.828
MS.334         	8.037          	3.13
MS.335         	8.02           	3.201
MS.336         	8.005          	2.796
MS.337         	7.99           	2.87
MS.338         	7.972          	2.977
MS.339         	7.957          	2.985
MS.340         	7.94           	2.806
MS.341         	7.925          	2.675
MS.342         	7.91           	2.753
MS.343         	7.892          	2.697
MS.344         	7.878          	2.727
MS.345         	7.862          	2.673
MS.346         	7.847          	2.52
MS.347         	7.83           	2.906
MS.348         	7.815          	2.731
MS.349         	7.8            	2.604
MS.350         	7.785          	2.651
MS.351         	7.767          	2.635
MS.352         	7.753          	2.651
MS.353         	7.737          	2.562
MS.354         	7.722          	2.637
MS.355         	7.707          	2.647
MS.356         	7.69           	2.588
MS.357         	7.675          	2.514
MS.358         	7.66           	2.536
MS.359         	7.645          	2.58
MS.360         	7.63           	2.469
MS.361         	7.615          	2.477
MS.362         	7.6            	2.467
MS.363         	7.585          	2.377
MS.364         	7.57           	2.449
MS.365         	7.555          	2.441
MS.366         	7.537          	2.483
MS.367         	7.523          	2.425
MS.368         	7.507          	2.457
MS.369         	7.492          	2.355
MS.370         	7.477          	2.395
MS.371         	7.462          	2.389
MS.372         	7.447          	2.22
MS.373         	7.435          	2.274
MS.374         	7.42           	2.314
MS.375         	7.405          	2.449
MS.376         	7.39           	2.322
MS.377         	7.375          	2.429
MS.378         	7.36           	2.206
MS.379         	7.345          	2.324
MS.380         	7.33           	2.449
MS.381         	7.315          	2.3
MS.382         	7.302          	2.228
MS.383         	7.287          	2.236
MS.384         	7.273          	2.167
MS.385         	7.257          	2.113
MS.386         	7.242          	1.988
MS.387         	7.227          	2.123
MS.388         	7.215          	2.169
MS.389         	7.2            	2.038
MS.390         	7.185          	2.093
MS.391         	7.17           	2.024
MS.392         	7.157          	1.958
MS.393         	7.142          	2.113
MS.394         	7.128          	2.002
MS.395         	7.115          	2.04
MS.396         	7.1            	1.905
MS.397         	7.085          	1.928
MS.398         	7.072          	1.901
MS.399         	7.057          	1.877
MS.400         	7.043          	1.865
MS.401         	7.03           	1.905
MS.402         	7.015          	1.879
MS.403         	7              	1.801
MS.404         	6.987          	1.829
MS.405         	6.972          	1.825
MS.406         	6.96           	1.861
MS.407         	6.945          	1.829
MS.408         	6.932          	1.754
MS.409         	6.918          	1.811
MS.410         	6.902          	1.811
MS.411         	6.89           	1.686
MS.412         	6.875          	1.772
MS.413         	6.862          	1.823
MS.414         	6.847          	1.752
MS.415         	6.835          	1.758
MS.416         	6.822          	1.722
MS.417         	6.807          	1.758
MS.418         	6.795          	1.722
MS.419         	6.78           	1.722
MS.420         	6.767          	1.712
MS.421         	6.753          	1.678
MS.422         	6.74           	1.752
MS.423         	6.727          	1.684
MS.424         	6.712          	1.625
MS.425         	6.7            	1.754
MS.426         	6.685          	1.672
MS.427         	6.672          	1.712
MS.428         	6.66           	1.688
MS.429         	6.645          	1.692
MS.430         	6.632          	1.603
MS.431         	6.62           	1.621
MS.432         	6.608          	1.666
MS.433         	6.592          	1.605
MS.434         	6.58           	1.539
MS.435         	6.567          	1.621
MS.436         	6.555          	1.529
MS.437         	6.54           	1.603
MS.438         	6.527          	1.507
MS.439         	6.515          	1.563
MS.440         	6.503          	1.507
MS.441         	6.487          	1.527
MS.442         	6.475          	1.495
MS.443         	6.462          	1.611
MS.444         	6.45           	1.495
MS.445         	6.438          	1.492
MS.446         	6.425          	1.541
MS.447         	6.41           	1.593
MS.448         	6.398          	1.521
MS.449         	6.385          	1.43
MS.450         	6.372          	1.507
MS.451         	6.36           	1.559
MS.452         	6.347          	1.454
MS.453         	6.335          	1.585
MS.454         	6.322          	1.382
MS.455         	6.31           	1.47
MS.456         	6.297          	1.4
MS.457         	6.285          	1.45
MS.458         	6.273          	1.386
MS.459         	6.26           	1.404
MS.460         	6.247          	1.295
MS.461         	6.235          	1.364
MS.462         	6.222          	1.283
MS.463         	6.21           	1.303
MS.464         	6.197          	1.343
MS.465         	6.185          	1.293
MS.466         	6.172          	1.364
MS.467         	6.16           	1.265
MS.468         	6.148          	1.291
MS.469         	6.135          	1.271
MS.470         	6.122          	1.285
MS.471         	6.11           	1.243
MS.472         	6.097          	1.249
MS.473         	6.088          	1.227
MS.474         	6.075          	1.229
MS.475         	6.062          	1.231
MS.476         	6.05           	1.225
MS.477         	6.037          	1.215
MS.478         	6.025          	1.251
MS.479         	6.012          	1.253
MS.480         	6.003          	1.247
MS.481         	5.99           	1.215
MS.482         	5.977          	1.194
MS.483         	5.965          	1.229
MS.484         	5.955          	1.17
MS.485         	5.942          	1.227
MS.486         	5.93           	1.174
MS.487         	5.918          	1.033
MS.488         	5.907          	1.076
MS.489         	5.895          	0.973
MS.490         	5.882          	1.031
MS.491         	5.87           	1.055
MS.492         	5.86           	1.074
MS.493         	5.847          	0.987
MS.494         	5.835          	0.977
MS.495         	5.825          	0.922
MS.496         	5.812          	0.788
MS.497         	5.8            	0.945
MS.498         	5.79           	0.675
MS.499         	5.777          	0.876
MS.500         	5.767          	0.969
