File:              	C:\Qtrac\Data\Daniel M Sørensen\MScan multicentre study\Data from centres\Roskilde\Folders with NC-examinations\ROS_N8a\TRC00520A.QZD
Name:              	DK.ROS.NC.8.1
Protocol:          	MSCAN-R2
Date:              	20/5/20
Start time:        	11:59:15
Age:               	52
Sex:               	F
Temperature:       	35,4
S/R sites:         	Median Wr-APB
NC/disease:
Operator:          	tr
Comments:
M-SCAN DATA (9.8-1.5m)
Scanpts: 21, 28, 855, 876
Stim. (mA)     	Amp. (mV)
MS.1           	16.5           	11.072
MS.2           	16.5           	11.074
MS.3           	16.5           	11.08
MS.4           	16.5           	11.05
MS.5           	16.5           	11.064
MS.6           	16.5           	11.058
MS.7           	16.5           	11.046
MS.8           	16.5           	11.064
MS.9           	16.5           	11.064
MS.10          	16.5           	11.048
MS.11          	16.5           	11.032
MS.12          	16.5           	10.981
MS.13          	16.5           	11.04
MS.14          	16.5           	11.026
MS.15          	16.5           	11.042
MS.16          	16.5           	11.03
MS.17          	16.5           	11.019
MS.18          	16.5           	11.028
MS.19          	16.5           	11.007
MS.20          	16.5           	11.026
MS.21          	16.5           	11.021
MS.22          	16.5           	11.007
MS.23          	16.5           	11.017
MS.24          	16.435         	11.005
MS.25          	16.4           	11.003
MS.26          	16.368         	11.007
MS.27          	16.335         	11.019
MS.28          	16.302         	11.009
MS.29          	16.27          	11.034
MS.30          	16.237         	11.019
MS.31          	16.205         	11.013
MS.32          	16.172         	10.987
MS.33          	16.14          	10.947
MS.34          	16.108         	10.983
MS.35          	16.077         	11.015
MS.36          	16.045         	10.995
MS.37          	16.012         	10.985
MS.38          	15.98          	10.963
MS.39          	15.947         	11.026
MS.40          	15.917         	10.977
MS.41          	15.885         	10.983
MS.42          	15.852         	10.975
MS.43          	15.822         	10.973
MS.44          	15.79          	10.987
MS.45          	15.757         	10.977
MS.46          	15.727         	10.965
MS.47          	15.695         	10.973
MS.48          	15.665         	10.959
MS.49          	15.632         	10.983
MS.50          	15.602         	11.011
MS.51          	15.57          	10.963
MS.52          	15.54          	10.969
MS.53          	15.507         	10.967
MS.54          	15.477         	10.989
MS.55          	15.445         	10.977
MS.56          	15.415         	10.989
MS.57          	15.385         	10.969
MS.58          	15.352         	10.957
MS.59          	15.322         	10.969
MS.60          	15.292         	10.939
MS.61          	15.262         	10.945
MS.62          	15.233         	10.937
MS.63          	15.2           	10.941
MS.64          	15.17          	10.943
MS.65          	15.14          	10.941
MS.66          	15.11          	10.953
MS.67          	15.08          	10.955
MS.68          	15.05          	10.935
MS.69          	15.02          	10.957
MS.70          	14.99          	10.947
MS.71          	14.96          	10.965
MS.72          	14.93          	10.949
MS.73          	14.9           	10.953
MS.74          	14.87          	10.953
MS.75          	14.84          	10.951
MS.76          	14.81          	10.965
MS.77          	14.78          	10.949
MS.78          	14.752         	10.945
MS.79          	14.722         	10.957
MS.80          	14.693         	10.953
MS.81          	14.662         	10.965
MS.82          	14.635         	10.955
MS.83          	14.605         	10.963
MS.84          	14.575         	10.971
MS.85          	14.547         	10.971
MS.86          	14.517         	10.975
MS.87          	14.487         	10.973
MS.88          	14.46          	10.989
MS.89          	14.43          	10.981
MS.90          	14.403         	10.983
MS.91          	14.372         	10.989
MS.92          	14.345         	10.983
MS.93          	14.315         	10.993
MS.94          	14.287         	10.993
MS.95          	14.257         	11.003
MS.96          	14.23          	11.005
MS.97          	14.202         	10.987
MS.98          	14.172         	10.995
MS.99          	14.145         	10.997
MS.100         	14.117         	11.005
MS.101         	14.087         	10.995
MS.102         	14.06          	10.975
MS.103         	14.032         	10.971
MS.104         	14.005         	10.955
MS.105         	13.975         	10.951
MS.106         	13.947         	10.965
MS.107         	13.92          	10.955
MS.108         	13.892         	10.963
MS.109         	13.865         	10.947
MS.110         	13.837         	10.963
MS.111         	13.81          	10.953
MS.112         	13.782         	10.977
MS.113         	13.755         	10.977
MS.114         	13.727         	10.971
MS.115         	13.7           	10.969
MS.116         	13.672         	10.957
MS.117         	13.645         	10.971
MS.118         	13.617         	10.951
MS.119         	13.59          	10.957
MS.120         	13.562         	10.957
MS.121         	13.535         	10.953
MS.122         	13.51          	10.971
MS.123         	13.483         	10.965
MS.124         	13.455         	10.979
MS.125         	13.427         	10.975
MS.126         	13.403         	10.907
MS.127         	13.375         	10.973
MS.128         	13.347         	10.983
MS.129         	13.32          	10.999
MS.130         	13.295         	10.997
MS.131         	13.267         	11.007
MS.132         	13.242         	10.935
MS.133         	13.215         	10.943
MS.134         	13.188         	10.951
MS.135         	13.162         	11.009
MS.136         	13.135         	11.023
MS.137         	13.11          	10.951
MS.138         	13.082         	10.963
MS.139         	13.057         	10.949
MS.140         	13.032         	11.023
MS.141         	13.005         	10.965
MS.142         	12.98          	10.957
MS.143         	12.952         	11.028
MS.144         	12.927         	10.973
MS.145         	12.903         	10.991
MS.146         	12.875         	10.973
MS.147         	12.85          	10.991
MS.148         	12.825         	10.983
MS.149         	12.8           	10.989
MS.150         	12.773         	11.017
MS.151         	12.747         	10.975
MS.152         	12.722         	10.987
MS.153         	12.697         	10.967
MS.154         	12.672         	10.967
MS.155         	12.645         	10.983
MS.156         	12.62          	10.951
MS.157         	12.595         	10.985
MS.158         	12.57          	10.977
MS.159         	12.545         	10.985
MS.160         	12.52          	10.983
MS.161         	12.495         	10.979
MS.162         	12.47          	10.983
MS.163         	12.445         	10.993
MS.164         	12.42          	10.961
MS.165         	12.395         	10.981
MS.166         	12.37          	10.971
MS.167         	12.347         	10.951
MS.168         	12.322         	10.939
MS.169         	12.297         	10.993
MS.170         	12.273         	10.985
MS.171         	12.247         	11.003
MS.172         	12.222         	10.951
MS.173         	12.2           	10.987
MS.174         	12.175         	10.961
MS.175         	12.15          	10.923
MS.176         	12.125         	10.967
MS.177         	12.102         	10.961
MS.178         	12.077         	10.931
MS.179         	12.052         	10.967
MS.180         	12.03          	10.846
MS.181         	12.005         	10.887
MS.182         	11.983         	10.85
MS.183         	11.957         	10.866
MS.184         	11.932         	10.895
MS.185         	11.91          	10.88
MS.186         	11.885         	10.874
MS.187         	11.863         	10.876
MS.188         	11.837         	10.933
MS.189         	11.815         	10.854
MS.190         	11.79          	10.866
MS.191         	11.767         	10.858
MS.192         	11.745         	10.927
MS.193         	11.72          	10.858
MS.194         	11.697         	10.854
MS.195         	11.675         	10.876
MS.196         	11.65          	10.866
MS.197         	11.627         	10.862
MS.198         	11.605         	10.866
MS.199         	11.58          	10.868
MS.200         	11.557         	10.858
MS.201         	11.535         	10.858
MS.202         	11.512         	10.854
MS.203         	11.488         	10.86
MS.204         	11.465         	10.885
MS.205         	11.443         	10.735
MS.206         	11.42          	10.883
MS.207         	11.398         	10.87
MS.208         	11.375         	10.846
MS.209         	11.352         	10.854
MS.210         	11.33          	10.858
MS.211         	11.307         	10.85
MS.212         	11.282         	10.838
MS.213         	11.26          	10.842
MS.214         	11.238         	10.788
MS.215         	11.215         	10.794
MS.216         	11.195         	10.844
MS.217         	11.172         	10.856
MS.218         	11.15          	10.748
MS.219         	11.127         	10.707
MS.220         	11.105         	10.782
MS.221         	11.082         	10.693
MS.222         	11.06          	10.776
MS.223         	11.037         	10.623
MS.224         	11.015         	10.659
MS.225         	10.995         	10.665
MS.226         	10.972         	10.731
MS.227         	10.95          	10.729
MS.228         	10.927         	10.59
MS.229         	10.907         	10.78
MS.230         	10.885         	10.544
MS.231         	10.863         	10.649
MS.232         	10.84          	10.665
MS.233         	10.82          	10.564
MS.234         	10.797         	10.53
MS.235         	10.778         	10.621
MS.236         	10.755         	10.468
MS.237         	10.733         	10.508
MS.238         	10.712         	10.586
MS.239         	10.69          	10.47
MS.240         	10.67          	10.47
MS.241         	10.648         	10.46
MS.242         	10.627         	10.697
MS.243         	10.605         	10.494
MS.244         	10.585         	10.532
MS.245         	10.562         	10.5
MS.246         	10.542         	10.431
MS.247         	10.52          	10.464
MS.248         	10.5           	10.488
MS.249         	10.48          	10.536
MS.250         	10.457         	10.451
MS.251         	10.438         	10.502
MS.252         	10.415         	10.51
MS.253         	10.395         	10.47
MS.254         	10.375         	10.439
MS.255         	10.355         	10.421
MS.256         	10.332         	10.439
MS.257         	10.312         	10.433
MS.258         	10.292         	10.437
MS.259         	10.273         	10.397
MS.260         	10.25          	10.393
MS.261         	10.23          	10.435
MS.262         	10.21          	10.407
MS.263         	10.19          	10.431
MS.264         	10.17          	10.427
MS.265         	10.15          	10.415
MS.266         	10.127         	10.419
MS.267         	10.108         	10.411
MS.268         	10.087         	10.439
MS.269         	10.068         	10.449
MS.270         	10.047         	10.411
MS.271         	10.028         	10.421
MS.272         	10.007         	10.393
MS.273         	9.988          	10.409
MS.274         	9.967          	10.367
MS.275         	9.948          	10.389
MS.276         	9.927          	10.399
MS.277         	9.907          	10.399
MS.278         	9.887          	10.333
MS.279         	9.867          	10.401
MS.280         	9.85           	10.371
MS.281         	9.83           	10.389
MS.282         	9.81           	10.331
MS.283         	9.79           	10.395
MS.284         	9.77           	10.28
MS.285         	9.75           	10.304
MS.286         	9.733          	10.341
MS.287         	9.712          	10.31
MS.288         	9.693          	10.363
MS.289         	9.672          	10.379
MS.290         	9.655          	10.359
MS.291         	9.635          	10.383
MS.292         	9.615          	10.315
MS.293         	9.595          	10.347
MS.294         	9.577          	10.379
MS.295         	9.557          	10.3
MS.296         	9.537          	10.282
MS.297         	9.52           	10.27
MS.298         	9.5            	10.254
MS.299         	9.483          	10.304
MS.300         	9.462          	10.27
MS.301         	9.445          	10.196
MS.302         	9.425          	10.248
MS.303         	9.405          	10.302
MS.304         	9.387          	10.23
MS.305         	9.367          	10.312
MS.306         	9.35           	10.26
MS.307         	9.33           	10.29
MS.308         	9.312          	10.298
MS.309         	9.295          	10.254
MS.310         	9.275          	10.242
MS.311         	9.257          	10.21
MS.312         	9.238          	10.218
MS.313         	9.22           	10.21
MS.314         	9.202          	10.238
MS.315         	9.182          	10.252
MS.316         	9.165          	10.204
MS.317         	9.148          	10.222
MS.318         	9.127          	10.206
MS.319         	9.11           	10.196
MS.320         	9.092          	10.232
MS.321         	9.073          	10.125
MS.322         	9.055          	10.238
MS.323         	9.037          	10.218
MS.324         	9.02           	10.151
MS.325         	9              	10.204
MS.326         	8.983          	10.182
MS.327         	8.965          	10.172
MS.328         	8.948          	10.206
MS.329         	8.93           	10.113
MS.330         	8.912          	10.18
MS.331         	8.895          	10.176
MS.332         	8.875          	10.174
MS.333         	8.858          	10.109
MS.334         	8.84           	10.155
MS.335         	8.823          	10.18
MS.336         	8.805          	10.163
MS.337         	8.787          	10.133
MS.338         	8.77           	10.176
MS.339         	8.752          	10.103
MS.340         	8.735          	10.109
MS.341         	8.717          	10.107
MS.342         	8.7            	10.113
MS.343         	8.682          	10.105
MS.344         	8.665          	10.163
MS.345         	8.648          	10.095
MS.346         	8.63           	10.133
MS.347         	8.613          	10.089
MS.348         	8.597          	10.103
MS.349         	8.58           	10.113
MS.350         	8.562          	10.085
MS.351         	8.545          	10.157
MS.352         	8.528          	10.095
MS.353         	8.51           	10.093
MS.354         	8.495          	10.097
MS.355         	8.477          	10.087
MS.356         	8.46           	10.095
MS.357         	8.443          	10.067
MS.358         	8.427          	10.105
MS.359         	8.41           	10.083
MS.360         	8.392          	10.095
MS.361         	8.375          	10.067
MS.362         	8.36           	10.085
MS.363         	8.342          	10.065
MS.364         	8.325          	10.087
MS.365         	8.31           	10.089
MS.366         	8.292          	10.077
MS.367         	8.275          	10.075
MS.368         	8.26           	10.069
MS.369         	8.242          	10.073
MS.370         	8.227          	10.059
MS.371         	8.21           	10.071
MS.372         	8.193          	10.059
MS.373         	8.177          	10.073
MS.374         	8.16           	10.069
MS.375         	8.145          	10.077
MS.376         	8.127          	10.063
MS.377         	8.113          	10.071
MS.378         	8.095          	10.069
MS.379         	8.08           	10.069
MS.380         	8.062          	10.065
MS.381         	8.047          	10.051
MS.382         	8.033          	10.077
MS.383         	8.015          	10.061
MS.384         	8              	10.063
MS.385         	7.982          	10.053
MS.386         	7.967          	10.047
MS.387         	7.952          	10.041
MS.388         	7.935          	10.037
MS.389         	7.92           	10.047
MS.390         	7.905          	10.031
MS.391         	7.887          	10.055
MS.392         	7.872          	10.039
MS.393         	7.857          	10.055
MS.394         	7.84           	10.035
MS.395         	7.825          	10.049
MS.396         	7.81           	10.043
MS.397         	7.795          	10.039
MS.398         	7.777          	10.047
MS.399         	7.762          	10.016
MS.400         	7.747          	10.037
MS.401         	7.732          	10.037
MS.402         	7.717          	10.037
MS.403         	7.7            	10.018
MS.404         	7.685          	10.018
MS.405         	7.67           	10.024
MS.406         	7.655          	10.01
MS.407         	7.64           	10.02
MS.408         	7.625          	10.008
MS.409         	7.61           	10.012
MS.410         	7.595          	9.994
MS.411         	7.58           	10.018
MS.412         	7.562          	9.998
MS.413         	7.547          	10.024
MS.414         	7.532          	10.004
MS.415         	7.517          	9.996
MS.416         	7.503          	10.008
MS.417         	7.487          	9.992
MS.418         	7.472          	9.998
MS.419         	7.457          	9.996
MS.420         	7.442          	10.002
MS.421         	7.427          	9.998
MS.422         	7.415          	10.01
MS.423         	7.4            	10.002
MS.424         	7.385          	9.992
MS.425         	7.37           	9.998
MS.426         	7.355          	9.986
MS.427         	7.34           	9.994
MS.428         	7.325          	9.98
MS.429         	7.31           	9.996
MS.430         	7.295          	9.984
MS.431         	7.282          	9.984
MS.432         	7.267          	9.992
MS.433         	7.253          	9.986
MS.434         	7.237          	9.998
MS.435         	7.222          	9.976
MS.436         	7.21           	9.988
MS.437         	7.195          	9.978
MS.438         	7.18           	9.978
MS.439         	7.165          	9.976
MS.440         	7.152          	9.964
MS.441         	7.137          	9.978
MS.442         	7.122          	9.966
MS.443         	7.11           	9.976
MS.444         	7.095          	9.968
MS.445         	7.08           	9.976
MS.446         	7.067          	9.97
MS.447         	7.052          	9.978
MS.448         	7.037          	9.974
MS.449         	7.025          	9.972
MS.450         	7.01           	9.976
MS.451         	6.995          	9.978
MS.452         	6.983          	9.966
MS.453         	6.967          	9.962
MS.454         	6.955          	9.958
MS.455         	6.94           	9.964
MS.456         	6.927          	9.954
MS.457         	6.912          	9.964
MS.458         	6.9            	9.956
MS.459         	6.885          	9.968
MS.460         	6.872          	9.95
MS.461         	6.858          	9.98
MS.462         	6.845          	9.958
MS.463         	6.83           	9.954
MS.464         	6.817          	9.962
MS.465         	6.802          	9.958
MS.466         	6.79           	9.964
MS.467         	6.775          	9.942
MS.468         	6.762          	9.942
MS.469         	6.747          	9.958
MS.470         	6.735          	9.94
MS.471         	6.722          	9.96
MS.472         	6.707          	9.938
MS.473         	6.695          	9.948
MS.474         	6.682          	9.94
MS.475         	6.668          	9.946
MS.476         	6.655          	9.946
MS.477         	6.642          	9.94
MS.478         	6.628          	9.956
MS.479         	6.615          	9.942
MS.480         	6.602          	9.948
MS.481         	6.587          	9.833
MS.482         	6.575          	9.757
MS.483         	6.562          	9.946
MS.484         	6.55           	9.807
MS.485         	6.535          	9.718
MS.486         	6.523          	9.757
MS.487         	6.51           	9.837
MS.488         	6.497          	9.932
MS.489         	6.485          	9.759
MS.490         	6.47           	9.827
