File:              	C:\Qtrac\Data\ME2C30615A.QZD
Name:              	 HA02N
Protocol:          	MSCAN-MV
Date:              	15/6/23
Date of birth:     	2/3/00
Age:               	23
Sex:               	M
Temperature:       	32.0
S/R sites:         	Knee TA-CF
NC/disease:        	NC
Operator:          	BY
Comments:
M-SCAN DATA (Repeat 2/3, 24.4-14.3m)
Scanpts: 2, 36, 693, 712
Stim. (mA)     	Amp. (mV)
MS.1           	15             	5.134
MS.2           	15             	5.134
MS.3           	14.97          	5.131
MS.4           	14.94          	5.122
MS.5           	14.91          	5.11
MS.6           	14.88          	5.089
MS.7           	14.85          	5.112
MS.8           	14.82          	5.102
MS.9           	14.792         	5.103
MS.10          	14.762         	5.114
MS.11          	14.733         	5.106
MS.12          	14.702         	5.101
MS.13          	14.672         	5.096
MS.14          	14.645         	5.101
MS.15          	14.615         	5.109
MS.16          	14.585         	5.105
MS.17          	14.557         	5.109
MS.18          	14.527         	5.17
MS.19          	14.497         	5.092
MS.20          	14.47          	5.158
MS.21          	14.44          	5.063
MS.22          	14.412         	5.095
MS.23          	14.382         	5.156
MS.24          	14.355         	5.085
MS.25          	14.325         	5.152
MS.26          	14.297         	5.147
MS.27          	14.267         	5.069
MS.28          	14.24          	5.146
MS.29          	14.212         	5.165
MS.30          	14.182         	5.143
MS.31          	14.155         	5.14
MS.32          	14.127         	5.136
MS.33          	14.097         	5.121
MS.34          	14.07          	5.123
MS.35          	14.042         	5.181
MS.36          	14.015         	5.106
MS.37          	13.985         	5.129
MS.38          	13.957         	5.132
MS.39          	13.93          	5.101
MS.40          	13.903         	5.117
MS.41          	13.875         	5.112
MS.42          	13.847         	5.118
MS.43          	13.82          	5.09
MS.44          	13.792         	5.117
MS.45          	13.765         	5.104
MS.46          	13.737         	5.085
MS.47          	13.71          	5.056
MS.48          	13.682         	5.095
MS.49          	13.655         	5.075
MS.50          	13.627         	5.107
MS.51          	13.6           	5.103
MS.52          	13.572         	5.069
MS.53          	13.545         	5.084
MS.54          	13.517         	5.08
MS.55          	13.492         	5.028
MS.56          	13.465         	5.075
MS.57          	13.438         	5.071
MS.58          	13.41          	5.091
MS.59          	13.385         	5.072
MS.60          	13.358         	5.059
MS.61          	13.33          	5.063
MS.62          	13.305         	5.069
MS.63          	13.278         	5.068
MS.64          	13.25          	5.043
MS.65          	13.225         	5.069
MS.66          	13.197         	5.042
MS.67          	13.172         	5.011
MS.68          	13.145         	5.054
MS.69          	13.12          	5.052
MS.70          	13.092         	5.033
MS.71          	13.068         	5.027
MS.72          	13.04          	5.058
MS.73          	13.015         	5.022
MS.74          	12.987         	5.035
MS.75          	12.962         	5.04
MS.76          	12.938         	5.01
MS.77          	12.91          	5.027
MS.78          	12.885         	4.989
MS.79          	12.86          	4.987
MS.80          	12.832         	5.015
MS.81          	12.807         	4.98
MS.82          	12.782         	5.027
MS.83          	12.757         	4.98
MS.84          	12.73          	4.995
MS.85          	12.705         	4.979
MS.86          	12.68          	4.977
MS.87          	12.655         	4.979
MS.88          	12.63          	4.979
MS.89          	12.605         	4.987
MS.90          	12.58          	4.968
MS.91          	12.555         	5
MS.92          	12.53          	4.995
MS.93          	12.505         	4.962
MS.94          	12.48          	4.98
MS.95          	12.455         	4.967
MS.96          	12.43          	4.855
MS.97          	12.405         	4.991
MS.98          	12.38          	4.98
MS.99          	12.355         	4.833
MS.100         	12.33          	4.99
MS.101         	12.305         	4.991
MS.102         	12.28          	4.828
MS.103         	12.257         	4.977
MS.104         	12.233         	4.948
MS.105         	12.207         	4.953
MS.106         	12.182         	4.963
MS.107         	12.16          	4.953
MS.108         	12.135         	4.792
MS.109         	12.11          	4.932
MS.110         	12.085         	4.794
MS.111         	12.062         	4.835
MS.112         	12.037         	4.793
MS.113         	12.012         	4.942
MS.114         	11.99          	4.782
MS.115         	11.965         	4.801
MS.116         	11.943         	4.756
MS.117         	11.917         	4.781
MS.118         	11.895         	4.792
MS.119         	11.87          	4.809
MS.120         	11.847         	4.698
MS.121         	11.822         	4.791
MS.122         	11.8           	4.778
MS.123         	11.775         	4.769
MS.124         	11.752         	4.754
MS.125         	11.73          	4.785
MS.126         	11.705         	4.664
MS.127         	11.682         	4.771
MS.128         	11.657         	4.8
MS.129         	11.635         	4.684
MS.130         	11.613         	4.675
MS.131         	11.59          	4.631
MS.132         	11.565         	4.688
MS.133         	11.542         	4.683
MS.134         	11.52          	4.517
MS.135         	11.497         	4.626
MS.136         	11.472         	4.557
MS.137         	11.45          	4.607
MS.138         	11.427         	4.595
MS.139         	11.405         	4.681
MS.140         	11.382         	4.591
MS.141         	11.36          	4.727
MS.142         	11.337         	4.551
MS.143         	11.315         	4.536
MS.144         	11.292         	4.566
MS.145         	11.27          	4.505
MS.146         	11.247         	4.598
MS.147         	11.225         	4.565
MS.148         	11.202         	4.549
MS.149         	11.18          	4.578
MS.150         	11.157         	4.46
MS.151         	11.135         	4.47
MS.152         	11.113         	4.523
MS.153         	11.09          	4.604
MS.154         	11.068         	4.523
MS.155         	11.045         	4.489
MS.156         	11.023         	4.484
MS.157         	11.002         	4.478
MS.158         	10.98          	4.482
MS.159         	10.957         	4.413
MS.160         	10.935         	4.425
MS.161         	10.915         	4.481
MS.162         	10.892         	4.425
MS.163         	10.87          	4.451
MS.164         	10.85          	4.515
MS.165         	10.827         	4.465
MS.166         	10.805         	4.447
MS.167         	10.785         	4.407
MS.168         	10.762         	4.479
MS.169         	10.74          	4.491
MS.170         	10.72          	4.366
MS.171         	10.698         	4.363
MS.172         	10.677         	4.386
MS.173         	10.655         	4.415
MS.174         	10.635         	4.495
MS.175         	10.613         	4.211
MS.176         	10.592         	4.299
MS.177         	10.57          	4.523
MS.178         	10.55          	4.348
MS.179         	10.528         	4.337
MS.180         	10.507         	4.279
MS.181         	10.485         	4.315
MS.182         	10.465         	4.246
MS.183         	10.445         	4.275
MS.184         	10.422         	4.114
MS.185         	10.403         	4.371
MS.186         	10.382         	4.218
MS.187         	10.36          	4.335
MS.188         	10.34          	4.286
MS.189         	10.32          	4.254
MS.190         	10.3           	4.261
MS.191         	10.278         	4.345
MS.192         	10.257         	4.355
MS.193         	10.238         	4.35
MS.194         	10.217         	4.377
MS.195         	10.198         	4.321
MS.196         	10.175         	4.338
MS.197         	10.155         	4.33
MS.198         	10.135         	4.327
MS.199         	10.115         	4.169
MS.200         	10.095         	4.187
MS.201         	10.075         	4.063
MS.202         	10.055         	4.274
MS.203         	10.035         	4.142
MS.204         	10.015         	4.07
MS.205         	9.995          	4.088
MS.206         	9.975          	4.193
MS.207         	9.955          	4.103
MS.208         	9.935          	4.022
MS.209         	9.915          	4.077
MS.210         	9.895          	4.091
MS.211         	9.875          	4.103
MS.212         	9.855          	4.13
MS.213         	9.835          	4.038
MS.214         	9.818          	4.072
MS.215         	9.797          	4.011
MS.216         	9.778          	3.959
MS.217         	9.757          	3.973
MS.218         	9.738          	4.06
MS.219         	9.717          	4.125
MS.220         	9.7            	4.05
MS.221         	9.68           	3.979
MS.222         	9.66           	3.948
MS.223         	9.64           	4.027
MS.224         	9.622          	3.915
MS.225         	9.602          	3.934
MS.226         	9.582          	3.899
MS.227         	9.565          	3.857
MS.228         	9.545          	3.896
MS.229         	9.525          	3.999
MS.230         	9.507          	3.796
MS.231         	9.488          	3.946
MS.232         	9.47           	3.861
MS.233         	9.45           	3.748
MS.234         	9.432          	3.76
MS.235         	9.412          	3.702
MS.236         	9.395          	3.772
MS.237         	9.375          	3.688
MS.238         	9.358          	3.625
MS.239         	9.337          	3.651
MS.240         	9.32           	3.676
MS.241         	9.3            	3.613
MS.242         	9.283          	3.627
MS.243         	9.262          	3.647
MS.244         	9.245          	3.683
MS.245         	9.225          	3.478
MS.246         	9.207          	3.611
MS.247         	9.19           	3.629
MS.248         	9.17           	3.516
MS.249         	9.153          	3.487
MS.250         	9.135          	3.462
MS.251         	9.115          	3.425
MS.252         	9.097          	3.425
MS.253         	9.08           	3.481
MS.254         	9.062          	3.372
MS.255         	9.042          	3.469
MS.256         	9.025          	3.358
MS.257         	9.007          	3.469
MS.258         	8.99           	3.379
MS.259         	8.972          	3.298
MS.260         	8.952          	3.391
MS.261         	8.935          	3.388
MS.262         	8.917          	3.21
MS.263         	8.9            	3.256
MS.264         	8.882          	3.281
MS.265         	8.865          	3.214
MS.266         	8.847          	3.224
MS.267         	8.83           	3.14
MS.268         	8.812          	3.078
MS.269         	8.795          	3.134
MS.270         	8.778          	3.039
MS.271         	8.757          	3.091
MS.272         	8.74           	3.133
MS.273         	8.725          	3.127
MS.274         	8.707          	3.101
MS.275         	8.69           	3.067
MS.276         	8.672          	3.03
MS.277         	8.655          	3.076
MS.278         	8.637          	3.065
MS.279         	8.62           	3.073
MS.280         	8.602          	3.013
MS.281         	8.585          	2.927
MS.282         	8.568          	2.949
MS.283         	8.55           	2.971
MS.284         	8.535          	2.976
MS.285         	8.517          	2.935
MS.286         	8.5            	2.703
MS.287         	8.483          	2.979
MS.288         	8.465          	2.914
MS.289         	8.45           	2.745
MS.290         	8.432          	2.661
MS.291         	8.415          	2.867
MS.292         	8.398          	2.724
MS.293         	8.382          	2.73
MS.294         	8.365          	2.696
MS.295         	8.347          	2.721
MS.296         	8.332          	2.693
MS.297         	8.315          	2.668
MS.298         	8.297          	2.642
MS.299         	8.283          	2.676
MS.300         	8.265          	2.487
MS.301         	8.247          	2.588
MS.302         	8.233          	2.522
MS.303         	8.215          	2.414
MS.304         	8.2            	2.44
MS.305         	8.182          	2.261
MS.306         	8.167          	2.408
MS.307         	8.15           	2.382
MS.308         	8.135          	2.427
MS.309         	8.117          	2.405
MS.310         	8.102          	2.352
MS.311         	8.085          	2.252
MS.312         	8.07           	2.276
MS.313         	8.052          	2.318
MS.314         	8.037          	2.275
MS.315         	8.02           	2.178
MS.316         	8.005          	2.211
MS.317         	7.99           	2.133
MS.318         	7.972          	2.263
MS.319         	7.957          	2.085
MS.320         	7.94           	2.13
MS.321         	7.925          	2.021
MS.322         	7.91           	2.112
MS.323         	7.892          	2.049
MS.324         	7.878          	1.985
MS.325         	7.862          	1.966
MS.326         	7.847          	1.962
MS.327         	7.83           	2.038
MS.328         	7.815          	1.937
MS.329         	7.8            	1.89
MS.330         	7.785          	1.892
MS.331         	7.767          	1.901
MS.332         	7.753          	1.841
MS.333         	7.737          	1.733
MS.334         	7.722          	1.857
MS.335         	7.707          	1.833
MS.336         	7.69           	1.764
MS.337         	7.675          	1.77
MS.338         	7.66           	1.754
MS.339         	7.645          	1.701
MS.340         	7.63           	1.703
MS.341         	7.615          	1.573
MS.342         	7.6            	1.644
MS.343         	7.585          	1.705
MS.344         	7.57           	1.66
MS.345         	7.555          	1.564
MS.346         	7.537          	1.631
MS.347         	7.523          	1.577
MS.348         	7.507          	1.627
MS.349         	7.492          	1.532
MS.350         	7.477          	1.672
MS.351         	7.462          	1.537
MS.352         	7.45           	1.559
MS.353         	7.435          	1.435
MS.354         	7.42           	1.598
MS.355         	7.405          	1.494
MS.356         	7.39           	1.359
MS.357         	7.375          	1.398
MS.358         	7.36           	1.309
MS.359         	7.345          	1.354
MS.360         	7.33           	1.373
MS.361         	7.315          	1.29
MS.362         	7.302          	1.399
MS.363         	7.287          	1.351
MS.364         	7.273          	1.211
MS.365         	7.257          	1.411
MS.366         	7.242          	1.317
MS.367         	7.227          	1.252
MS.368         	7.215          	1.255
MS.369         	7.2            	1.358
MS.370         	7.185          	1.345
MS.371         	7.17           	1.229
MS.372         	7.157          	1.081
MS.373         	7.142          	1.241
MS.374         	7.128          	1.202
MS.375         	7.115          	1.18
MS.376         	7.1            	1.221
MS.377         	7.085          	1.243
MS.378         	7.072          	1.086
MS.379         	7.057          	1.218
MS.380         	7.043          	1.169
MS.381         	7.03           	1.114
MS.382         	7.015          	1.093
MS.383         	7              	0.985
MS.384         	6.987          	1.075
MS.385         	6.972          	0.972
MS.386         	6.96           	1.069
MS.387         	6.945          	1.095
MS.388         	6.932          	0.858
MS.389         	6.918          	1.146
MS.390         	6.902          	0.962
MS.391         	6.89           	0.966
MS.392         	6.875          	1.025
MS.393         	6.862          	0.908
MS.394         	6.847          	0.931
MS.395         	6.835          	0.937
MS.396         	6.822          	0.918
MS.397         	6.807          	0.884
MS.398         	6.795          	0.885
MS.399         	6.78           	0.853
MS.400         	6.767          	0.843
MS.401         	6.753          	0.828
MS.402         	6.74           	0.81
MS.403         	6.727          	0.792
MS.404         	6.712          	0.699
MS.405         	6.7            	0.699
MS.406         	6.685          	0.656
MS.407         	6.672          	0.805
MS.408         	6.66           	0.692
MS.409         	6.645          	0.731
MS.410         	6.632          	0.597
MS.411         	6.62           	0.684
MS.412         	6.608          	0.566
MS.413         	6.592          	0.651
MS.414         	6.58           	0.697
MS.415         	6.567          	0.582
MS.416         	6.555          	0.565
MS.417         	6.54           	0.444
MS.418         	6.527          	0.695
MS.419         	6.515          	0.613
MS.420         	6.503          	0.524
MS.421         	6.487          	0.565
MS.422         	6.475          	0.611
MS.423         	6.462          	0.53
MS.424         	6.45           	0.629
MS.425         	6.438          	0.494
MS.426         	6.425          	0.543
MS.427         	6.41           	0.523
MS.428         	6.398          	0.474
MS.429         	6.385          	0.444
MS.430         	6.372          	0.468
MS.431         	6.36           	0.502
MS.432         	6.347          	0.442
MS.433         	6.335          	0.408
MS.434         	6.322          	0.444
MS.435         	6.31           	0.455
MS.436         	6.297          	0.324
MS.437         	6.285          	0.412
MS.438         	6.273          	0.3
MS.439         	6.26           	0.394
MS.440         	6.247          	0.417
MS.441         	6.235          	0.396
MS.442         	6.222          	0.345
MS.443         	6.21           	0.402
MS.444         	6.197          	0.348
MS.445         	6.185          	0.311
MS.446         	6.172          	0.369
MS.447         	6.16           	0.315
MS.448         	6.148          	0.289
MS.449         	6.135          	0.321
MS.450         	6.122          	0.333
MS.451         	6.11           	0.363
MS.452         	6.097          	0.261
MS.453         	6.088          	0.268
MS.454         	6.075          	0.338
MS.455         	6.062          	0.311
MS.456         	6.05           	0.235
MS.457         	6.037          	0.319
MS.458         	6.025          	0.247
MS.459         	6.015          	0.261
MS.460         	6.003          	0.237
MS.461         	5.99           	0.259
MS.462         	5.977          	0.287
MS.463         	5.965          	0.209
MS.464         	5.955          	0.224
MS.465         	5.942          	0.202
MS.466         	5.93           	0.181
MS.467         	5.918          	0.167
MS.468         	5.907          	0.202
MS.469         	5.895          	0.203
MS.470         	5.882          	0.201
MS.471         	5.87           	0.165
MS.472         	5.86           	0.14
MS.473         	5.847          	0.225
MS.474         	5.835          	0.178
MS.475         	5.825          	0.189
MS.476         	5.812          	0.169
MS.477         	5.8            	0.146
MS.478         	5.79           	0.161
MS.479         	5.777          	0.14
MS.480         	5.767          	0.163
MS.481         	5.755          	0.18
MS.482         	5.742          	0.146
MS.483         	5.733          	0.131
MS.484         	5.72           	0.114
MS.485         	5.71           	0.14
MS.486         	5.697          	0.139
MS.487         	5.685          	0.153
MS.488         	5.675          	0.139
MS.489         	5.662          	0.173
MS.490         	5.652          	0.131
MS.491         	5.64           	0.169
MS.492         	5.63           	0.124
MS.493         	5.617          	0.121
MS.494         	5.608          	0.148
MS.495         	5.595          	0.154
MS.496         	5.585          	0.121
MS.497         	5.572          	0.129
MS.498         	5.562          	0.112
MS.499         	5.552          	0.142
MS.500         	5.54           	0.13
MS.501         	5.53           	0.116
MS.502         	5.517          	0.106
MS.503         	5.507          	0.112
