File:              	C:\Qtrac\Data\ME2C30623A.QZD
Name:              	 ME25D
Protocol:          	MSCAN-MV
Date:              	23/6/23
Date of birth:     	25/8/01
Age:               	21
Sex:               	M
Temperature:       	32.1
S/R sites:         	Knee CF-TA
NC/disease:        	NC
Operator:          	BY
Comments:
M-SCAN DATA (Repeat 2/3, 22.1-15.5m)
Scanpts: 1, 23, 482, 492
Stim. (mA)     	Amp. (mV)
MS.1           	12             	5.759
MS.2           	12             	5.804
MS.3           	12             	5.766
MS.4           	12             	5.79
MS.5           	12             	5.796
MS.6           	12             	5.754
MS.7           	12             	5.797
MS.8           	12             	5.804
MS.9           	12             	5.779
MS.10          	12             	5.798
MS.11          	12             	5.806
MS.12          	12             	5.81
MS.13          	12             	5.793
MS.14          	12             	5.75
MS.15          	12             	5.815
MS.16          	12             	5.823
MS.17          	12             	5.798
MS.18          	12             	5.812
MS.19          	12             	5.764
MS.20          	12             	5.826
MS.21          	12             	5.809
MS.22          	12             	5.798
MS.23          	12             	5.798
MS.24          	11.975         	5.864
MS.25          	11.952         	5.843
MS.26          	11.927         	5.81
MS.27          	11.905         	5.804
MS.28          	11.88          	5.775
MS.29          	11.858         	5.77
MS.30          	11.832         	5.819
MS.31          	11.81          	5.792
MS.32          	11.785         	5.754
MS.33          	11.762         	5.817
MS.34          	11.74          	5.79
MS.35          	11.715         	5.813
MS.36          	11.693         	5.743
MS.37          	11.667         	5.807
MS.38          	11.645         	5.782
MS.39          	11.622         	5.796
MS.40          	11.6           	5.808
MS.41          	11.575         	5.784
MS.42          	11.552         	5.851
MS.43          	11.53          	5.818
MS.44          	11.507         	5.7
MS.45          	11.483         	5.729
MS.46          	11.46          	5.71
MS.47          	11.438         	5.768
MS.48          	11.415         	5.862
MS.49          	11.392         	5.703
MS.50          	11.37          	5.721
MS.51          	11.347         	5.769
MS.52          	11.325         	5.726
MS.53          	11.3           	5.7
MS.54          	11.278         	5.671
MS.55          	11.255         	5.709
MS.56          	11.233         	5.759
MS.57          	11.21          	5.767
MS.58          	11.188         	5.813
MS.59          	11.167         	5.718
MS.60          	11.145         	5.782
MS.61          	11.122         	5.726
MS.62          	11.1           	5.759
MS.63          	11.077         	5.732
MS.64          	11.055         	5.639
MS.65          	11.032         	5.732
MS.66          	11.01          	5.707
MS.67          	10.99          	5.712
MS.68          	10.967         	5.703
MS.69          	10.945         	5.701
MS.70          	10.922         	5.737
MS.71          	10.903         	5.726
MS.72          	10.88          	5.667
MS.73          	10.858         	5.679
MS.74          	10.837         	5.685
MS.75          	10.815         	5.701
MS.76          	10.792         	5.64
MS.77          	10.773         	5.685
MS.78          	10.75          	5.643
MS.79          	10.727         	5.714
MS.80          	10.707         	5.617
MS.81          	10.685         	5.576
MS.82          	10.665         	5.649
MS.83          	10.642         	5.646
MS.84          	10.622         	5.679
MS.85          	10.6           	5.661
MS.86          	10.58          	5.681
MS.87          	10.557         	5.624
MS.88          	10.537         	5.593
MS.89          	10.515         	5.598
MS.90          	10.495         	5.61
MS.91          	10.475         	5.614
MS.92          	10.452         	5.688
MS.93          	10.432         	5.614
MS.94          	10.412         	5.645
MS.95          	10.39          	5.626
MS.96          	10.37          	5.61
MS.97          	10.35          	5.581
MS.98          	10.327         	5.673
MS.99          	10.307         	5.622
MS.100         	10.287         	5.653
MS.101         	10.267         	5.629
MS.102         	10.245         	5.588
MS.103         	10.225         	5.614
MS.104         	10.205         	5.583
MS.105         	10.185         	5.586
MS.106         	10.165         	5.571
MS.107         	10.145         	5.626
MS.108         	10.125         	5.601
MS.109         	10.105         	5.647
MS.110         	10.082         	5.622
MS.111         	10.062         	5.593
MS.112         	10.042         	5.596
MS.113         	10.023         	5.554
MS.114         	10.002         	5.609
MS.115         	9.983          	5.573
MS.116         	9.962          	5.57
MS.117         	9.943          	5.577
MS.118         	9.922          	5.574
MS.119         	9.903          	5.566
MS.120         	9.885          	5.574
MS.121         	9.865          	5.601
MS.122         	9.845          	5.585
MS.123         	9.825          	5.604
MS.124         	9.805          	5.609
MS.125         	9.785          	5.555
MS.126         	9.765          	5.591
MS.127         	9.747          	5.627
MS.128         	9.727          	5.543
MS.129         	9.707          	5.528
MS.130         	9.688          	5.524
MS.131         	9.67           	5.558
MS.132         	9.65           	5.577
MS.133         	9.63           	5.534
MS.134         	9.61           	5.532
MS.135         	9.592          	5.588
MS.136         	9.573          	5.593
MS.137         	9.552          	5.595
MS.138         	9.535          	5.574
MS.139         	9.515          	5.592
MS.140         	9.497          	5.488
MS.141         	9.477          	5.595
MS.142         	9.457          	5.547
MS.143         	9.44           	5.561
MS.144         	9.42           	5.625
MS.145         	9.403          	5.609
MS.146         	9.382          	5.535
MS.147         	9.365          	5.541
MS.148         	9.345          	5.518
MS.149         	9.327          	5.498
MS.150         	9.307          	5.466
MS.151         	9.29           	5.519
MS.152         	9.27           	5.524
MS.153         	9.252          	5.546
MS.154         	9.235          	5.544
MS.155         	9.215          	5.525
MS.156         	9.198          	5.457
MS.157         	9.18           	5.432
MS.158         	9.16           	5.45
MS.159         	9.142          	5.435
MS.160         	9.125          	5.424
MS.161         	9.105          	5.433
MS.162         	9.087          	5.432
MS.163         	9.07           	5.4
MS.164         	9.052          	5.423
MS.165         	9.033          	5.401
MS.166         	9.015          	5.399
MS.167         	8.997          	5.389
MS.168         	8.98           	5.482
MS.169         	8.96           	5.364
MS.170         	8.943          	5.357
MS.171         	8.925          	5.391
MS.172         	8.908          	5.35
MS.173         	8.89           	5.345
MS.174         	8.872          	5.37
MS.175         	8.855          	5.374
MS.176         	8.837          	5.343
MS.177         	8.82           	5.32
MS.178         	8.802          	5.283
MS.179         	8.785          	5.342
MS.180         	8.765          	5.335
MS.181         	8.747          	5.22
MS.182         	8.73           	5.277
MS.183         	8.715          	5.326
MS.184         	8.698          	5.279
MS.185         	8.68           	5.24
MS.186         	8.662          	5.305
MS.187         	8.645          	5.269
MS.188         	8.627          	5.259
MS.189         	8.61           	5.27
MS.190         	8.592          	5.233
MS.191         	8.575          	5.326
MS.192         	8.557          	5.296
MS.193         	8.542          	5.183
MS.194         	8.525          	5.157
MS.195         	8.507          	5.153
MS.196         	8.49           	5.169
MS.197         	8.472          	5.129
MS.198         	8.457          	5.184
MS.199         	8.44           	5.109
MS.200         	8.422          	5.081
MS.201         	8.405          	5.132
MS.202         	8.39           	4.965
MS.203         	8.372          	4.957
MS.204         	8.355          	5.051
MS.205         	8.337          	5.023
MS.206         	8.323          	4.957
MS.207         	8.305          	5.045
MS.208         	8.29           	4.976
MS.209         	8.273          	5.049
MS.210         	8.255          	5.103
MS.211         	8.24           	4.903
MS.212         	8.222          	4.888
MS.213         	8.207          	4.773
MS.214         	8.19           	4.854
MS.215         	8.172          	4.874
MS.216         	8.158          	4.777
MS.217         	8.14           	4.921
MS.218         	8.125          	4.885
MS.219         	8.108          	4.865
MS.220         	8.092          	4.786
MS.221         	8.075          	4.894
MS.222         	8.06           	4.728
MS.223         	8.045          	4.678
MS.224         	8.028          	4.761
MS.225         	8.012          	4.776
MS.226         	7.995          	4.719
MS.227         	7.98           	4.784
MS.228         	7.965          	4.726
MS.229         	7.947          	4.766
MS.230         	7.932          	4.758
MS.231         	7.915          	4.816
MS.232         	7.9            	4.701
MS.233         	7.885          	4.686
MS.234         	7.87           	4.643
MS.235         	7.852          	4.665
MS.236         	7.837          	4.614
MS.237         	7.822          	4.587
MS.238         	7.805          	4.633
MS.239         	7.79           	4.605
MS.240         	7.775          	4.513
MS.241         	7.76           	4.653
MS.242         	7.745          	4.515
MS.243         	7.727          	4.513
MS.244         	7.712          	4.428
MS.245         	7.697          	4.417
MS.246         	7.682          	4.452
MS.247         	7.668          	4.318
MS.248         	7.652          	4.376
MS.249         	7.637          	4.299
MS.250         	7.62           	4.385
MS.251         	7.605          	4.315
MS.252         	7.59           	4.291
MS.253         	7.575          	4.24
MS.254         	7.56           	4.246
MS.255         	7.545          	4.265
MS.256         	7.53           	4.158
MS.257         	7.515          	4.247
MS.258         	7.5            	4.123
MS.259         	7.485          	4.135
MS.260         	7.47           	4.151
MS.261         	7.455          	4.076
MS.262         	7.44           	4.071
MS.263         	7.425          	4.054
MS.264         	7.41           	4.074
MS.265         	7.395          	3.978
MS.266         	7.38           	3.924
MS.267         	7.365          	3.94
MS.268         	7.352          	3.846
MS.269         	7.337          	3.867
MS.270         	7.322          	3.801
MS.271         	7.307          	3.795
MS.272         	7.293          	3.746
MS.273         	7.277          	3.865
MS.274         	7.265          	3.707
MS.275         	7.25           	3.973
MS.276         	7.235          	3.722
MS.277         	7.22           	3.567
MS.278         	7.205          	3.782
MS.279         	7.192          	3.743
MS.280         	7.177          	3.677
MS.281         	7.162          	3.666
MS.282         	7.148          	3.604
MS.283         	7.135          	3.674
MS.284         	7.12           	3.687
MS.285         	7.105          	3.538
MS.286         	7.092          	3.378
MS.287         	7.077          	3.606
MS.288         	7.062          	3.463
MS.289         	7.05           	3.368
MS.290         	7.035          	3.428
MS.291         	7.02           	3.42
MS.292         	7.007          	3.32
MS.293         	6.992          	3.31
MS.294         	6.98           	3.373
MS.295         	6.965          	3.195
MS.296         	6.95           	3.17
MS.297         	6.938          	3.146
MS.298         	6.922          	3.101
MS.299         	6.91           	3.056
MS.300         	6.895          	3.024
MS.301         	6.882          	3.029
MS.302         	6.867          	2.93
MS.303         	6.855          	3.065
MS.304         	6.84           	2.905
MS.305         	6.827          	2.891
MS.306         	6.812          	2.798
MS.307         	6.8            	2.849
MS.308         	6.787          	2.889
MS.309         	6.773          	2.741
MS.310         	6.76           	2.646
MS.311         	6.745          	2.683
MS.312         	6.733          	2.604
MS.313         	6.72           	2.551
MS.314         	6.705          	2.6
MS.315         	6.692          	2.469
MS.316         	6.677          	2.445
MS.317         	6.665          	2.31
MS.318         	6.652          	2.425
MS.319         	6.637          	2.257
MS.320         	6.625          	2.26
MS.321         	6.612          	2.251
MS.322         	6.6            	2.221
MS.323         	6.585          	2.111
MS.324         	6.572          	2.103
MS.325         	6.56           	2.114
MS.326         	6.547          	2.07
MS.327         	6.532          	2.032
MS.328         	6.52           	2.062
MS.329         	6.507          	2.085
MS.330         	6.495          	1.953
MS.331         	6.48           	1.876
MS.332         	6.467          	1.964
MS.333         	6.455          	1.816
MS.334         	6.442          	1.727
MS.335         	6.43           	1.749
MS.336         	6.418          	1.642
MS.337         	6.405          	1.809
MS.338         	6.39           	1.64
MS.339         	6.378          	1.586
MS.340         	6.365          	1.606
MS.341         	6.352          	1.496
MS.342         	6.34           	1.522
MS.343         	6.327          	1.285
MS.344         	6.315          	1.487
MS.345         	6.302          	1.442
MS.346         	6.29           	1.374
MS.347         	6.277          	1.315
MS.348         	6.265          	1.297
MS.349         	6.253          	1.303
MS.350         	6.24           	1.286
MS.351         	6.227          	1.118
MS.352         	6.215          	1.281
MS.353         	6.202          	1.191
MS.354         	6.19           	1.122
MS.355         	6.177          	1.143
MS.356         	6.165          	1.081
MS.357         	6.152          	0.992
MS.358         	6.14           	1.031
MS.359         	6.128          	0.989
MS.360         	6.115          	0.942
MS.361         	6.105          	0.828
MS.362         	6.092          	0.88
MS.363         	6.08           	0.837
MS.364         	6.067          	0.796
MS.365         	6.055          	0.756
MS.366         	6.043          	0.638
MS.367         	6.03           	0.671
MS.368         	6.02           	0.602
MS.369         	6.007          	0.618
MS.370         	5.995          	0.52
MS.371         	5.983          	0.582
MS.372         	5.97           	0.596
MS.373         	5.96           	0.482
MS.374         	5.947          	0.416
MS.375         	5.935          	0.369
MS.376         	5.922          	0.41
MS.377         	5.912          	0.444
MS.378         	5.9            	0.182
MS.379         	5.887          	0.126
MS.380         	5.875          	0.136
MS.381         	5.865          	0.264
MS.382         	5.852          	0.17
MS.383         	5.84           	0.129
MS.384         	5.83           	0.048
MS.385         	5.817          	-0.018
MS.386         	5.805          	0.046
MS.387         	5.795          	-0.052
MS.388         	5.782          	-0.052
MS.389         	5.773          	-0.039
MS.390         	5.76           	0.112
MS.391         	5.747          	-0.146
MS.392         	5.737          	-0.126
MS.393         	5.725          	-0.226
MS.394         	5.715          	-0.161
MS.395         	5.702          	-0.175
MS.396         	5.69           	-0.179
MS.397         	5.68           	-0.17
MS.398         	5.668          	-0.112
MS.399         	5.657          	-0.203
MS.400         	5.645          	-0.225
MS.401         	5.635          	-0.272
MS.402         	5.622          	-0.325
MS.403         	5.612          	-0.219
MS.404         	5.6            	-0.228
MS.405         	5.59           	-0.295
MS.406         	5.577          	-0.325
MS.407         	5.567          	-0.305
MS.408         	5.555          	-0.333
MS.409         	5.545          	-0.416
MS.410         	5.535          	-0.369
MS.411         	5.523          	-0.421
MS.412         	5.512          	-0.409
MS.413         	5.5            	-0.458
MS.414         	5.49           	-0.385
MS.415         	5.48           	-0.378
MS.416         	5.467          	-0.427
MS.417         	5.457          	-0.437
MS.418         	5.445          	-0.428
MS.419         	5.435          	-0.499
MS.420         	5.425          	-0.496
MS.421         	5.412          	-0.537
MS.422         	5.402          	-0.544
MS.423         	5.392          	-0.49
MS.424         	5.38           	-0.504
MS.425         	5.37           	-0.536
MS.426         	5.36           	-0.58
MS.427         	5.35           	-0.565
MS.428         	5.338          	-0.577
MS.429         	5.327          	-0.546
MS.430         	5.318          	-0.615
MS.431         	5.307          	-0.612
MS.432         	5.295          	-0.679
MS.433         	5.285          	-0.648
MS.434         	5.275          	-0.606
MS.435         	5.265          	-0.612
MS.436         	5.253          	-0.599
MS.437         	5.242          	-0.634
MS.438         	5.233          	-0.658
MS.439         	5.222          	-0.67
MS.440         	5.213          	-0.608
MS.441         	5.202          	-0.685
MS.442         	5.19           	-0.699
MS.443         	5.18           	-0.653
MS.444         	5.17           	-0.616
MS.445         	5.16           	-0.671
MS.446         	5.15           	-0.723
MS.447         	5.14           	-0.665
MS.448         	5.13           	-0.706
MS.449         	5.117          	-0.731
MS.450         	5.108          	-0.696
MS.451         	5.097          	-0.69
MS.452         	5.088          	-0.694
MS.453         	5.077          	-0.678
MS.454         	5.068          	-0.732
MS.455         	5.057          	-0.766
MS.456         	5.047          	-0.726
MS.457         	5.037          	-0.79
MS.458         	5.027          	-0.744
MS.459         	5.017          	-0.711
MS.460         	5.007          	-0.783
MS.461         	4.997          	-0.744
MS.462         	4.987          	-0.754
MS.463         	4.977          	-0.729
MS.464         	4.967          	-0.757
MS.465         	4.957          	-0.752
MS.466         	4.947          	-0.72
MS.467         	4.938          	-0.75
MS.468         	4.927          	-0.799
MS.469         	4.918          	-0.814
MS.470         	4.907          	-0.781
MS.471         	4.898          	-0.818
MS.472         	4.887          	-0.779
MS.473         	4.88           	-0.81
MS.474         	4.87           	-0.789
MS.475         	4.86           	-0.787
MS.476         	4.85           	-0.797
MS.477         	4.84           	-0.816
MS.478         	4.83           	-0.815
MS.479         	4.82           	-0.84
MS.480         	4.81           	-0.792
MS.481         	4.802          	-0.834
MS.482         	4.793          	-0.824
MS.483         	4.782          	-0.859
MS.484         	4.773          	-0.828
MS.485         	4.762          	-0.811
MS.486         	4.753          	-0.793
MS.487         	4.745          	-0.845
MS.488         	4.735          	-0.807
MS.489         	4.725          	-0.82
MS.490         	4.715          	-0.828
MS.491         	4.707          	-0.851
MS.492         	4.697          	-0.84
MS.493         	4.688          	-0.773
MS.494         	4.677          	-0.832
MS.495         	4.67           	-0.81
MS.496         	4.66           	-0.823
MS.497         	4.65           	-0.803
MS.498         	4.64           	-0.805
MS.499         	4.632          	-0.826
MS.500         	4.622          	-0.85
