File:              	C:\Qtrac\Data\ME2C30627B.QZD
Name:              	 CD18O
Protocol:          	MSCAN-MV
Date:              	27/6/23
Date of birth:     	18/5/84
Age:               	39
Sex:               	M
Temperature:       	34.2
S/R sites:         	Knee CF-TA
NC/disease:        	NC
Operator:          	BY
Comments:
M-SCAN DATA (Repeat 3/3, 40.6-29.8m)
Scanpts: 173, 194, 754, 771
Stim. (mA)     	Amp. (mV)
MS.1           	8              	6.52
MS.2           	8              	6.6
MS.3           	7.985          	6.523
MS.4           	7.967          	6.533
MS.5           	7.952          	6.534
MS.6           	7.938          	6.5
MS.7           	7.92           	6.516
MS.8           	7.905          	6.545
MS.9           	7.89           	6.469
MS.10          	7.872          	6.47
MS.11          	7.857          	6.537
MS.12          	7.842          	6.503
MS.13          	7.825          	6.523
MS.14          	7.81           	6.484
MS.15          	7.795          	6.516
MS.16          	7.78           	6.483
MS.17          	7.762          	6.544
MS.18          	7.747          	6.512
MS.19          	7.732          	6.555
MS.20          	7.717          	6.564
MS.21          	7.702          	6.503
MS.22          	7.688          	6.5
MS.23          	7.67           	6.501
MS.24          	7.655          	6.508
MS.25          	7.64           	6.547
MS.26          	7.625          	6.507
MS.27          	7.61           	6.463
MS.28          	7.595          	6.497
MS.29          	7.58           	6.478
MS.30          	7.565          	6.49
MS.31          	7.55           	6.498
MS.32          	7.535          	6.543
MS.33          	7.52           	6.478
MS.34          	7.505          	6.52
MS.35          	7.49           	6.544
MS.36          	7.475          	6.498
MS.37          	7.46           	6.495
MS.38          	7.445          	6.497
MS.39          	7.43           	6.509
MS.40          	7.415          	6.502
MS.41          	7.4            	6.522
MS.42          	7.385          	6.505
MS.43          	7.37           	6.48
MS.44          	7.355          	6.488
MS.45          	7.34           	6.479
MS.46          	7.325          	6.516
MS.47          	7.312          	6.512
MS.48          	7.297          	6.49
MS.49          	7.282          	6.53
MS.50          	7.267          	6.495
MS.51          	7.253          	6.516
MS.52          	7.237          	6.51
MS.53          	7.225          	6.48
MS.54          	7.21           	6.479
MS.55          	7.195          	6.457
MS.56          	7.18           	6.455
MS.57          	7.168          	6.526
MS.58          	7.152          	6.473
MS.59          	7.137          	6.497
MS.60          	7.125          	6.5
MS.61          	7.11           	6.506
MS.62          	7.095          	6.493
MS.63          	7.08           	6.477
MS.64          	7.067          	6.459
MS.65          	7.052          	6.508
MS.66          	7.04           	6.488
MS.67          	7.025          	6.491
MS.68          	7.01           	6.517
MS.69          	6.997          	6.517
MS.70          	6.983          	6.495
MS.71          	6.97           	6.468
MS.72          	6.955          	6.517
MS.73          	6.94           	6.456
MS.74          	6.927          	6.52
MS.75          	6.912          	6.505
MS.76          	6.9            	6.481
MS.77          	6.885          	6.522
MS.78          	6.872          	6.462
MS.79          	6.858          	6.471
MS.80          	6.845          	6.545
MS.81          	6.83           	6.482
MS.82          	6.817          	6.514
MS.83          	6.802          	6.461
MS.84          	6.79           	6.473
MS.85          	6.777          	6.473
MS.86          	6.762          	6.501
MS.87          	6.75           	6.495
MS.88          	6.735          	6.49
MS.89          	6.722          	6.474
MS.90          	6.71           	6.47
MS.91          	6.695          	6.481
MS.92          	6.682          	6.475
MS.93          	6.67           	6.468
MS.94          	6.655          	6.505
MS.95          	6.642          	6.483
MS.96          	6.63           	6.473
MS.97          	6.615          	6.522
MS.98          	6.602          	6.487
MS.99          	6.59           	6.462
MS.100         	6.575          	6.472
MS.101         	6.562          	6.492
MS.102         	6.55           	6.482
MS.103         	6.537          	6.539
MS.104         	6.523          	6.437
MS.105         	6.51           	6.478
MS.106         	6.497          	6.415
MS.107         	6.485          	6.506
MS.108         	6.472          	6.448
MS.109         	6.46           	6.484
MS.110         	6.445          	6.455
MS.111         	6.432          	6.463
MS.112         	6.42           	6.428
MS.113         	6.407          	6.425
MS.114         	6.395          	6.438
MS.115         	6.382          	6.428
MS.116         	6.37           	6.425
MS.117         	6.358          	6.418
MS.118         	6.342          	6.381
MS.119         	6.33           	6.414
MS.120         	6.317          	6.39
MS.121         	6.305          	6.489
MS.122         	6.293          	6.439
MS.123         	6.28           	6.416
MS.124         	6.267          	6.418
MS.125         	6.255          	6.405
MS.126         	6.242          	6.428
MS.127         	6.23           	6.426
MS.128         	6.217          	6.446
MS.129         	6.205          	6.464
MS.130         	6.192          	6.405
MS.131         	6.18           	6.434
MS.132         	6.168          	6.439
MS.133         	6.155          	6.422
MS.134         	6.145          	6.457
MS.135         	6.132          	6.426
MS.136         	6.12           	6.442
MS.137         	6.108          	6.393
MS.138         	6.095          	6.406
MS.139         	6.082          	6.442
MS.140         	6.07           	6.428
MS.141         	6.057          	6.409
MS.142         	6.047          	6.413
MS.143         	6.035          	6.45
MS.144         	6.023          	6.461
MS.145         	6.01           	6.435
MS.146         	5.997          	6.451
MS.147         	5.985          	6.418
MS.148         	5.975          	6.393
MS.149         	5.963          	6.459
MS.150         	5.95           	6.484
MS.151         	5.938          	6.424
MS.152         	5.927          	6.547
MS.153         	5.915          	6.412
MS.154         	5.902          	6.541
MS.155         	5.89           	6.531
MS.156         	5.88           	6.406
MS.157         	5.867          	6.505
MS.158         	5.855          	6.409
MS.159         	5.845          	6.563
MS.160         	5.832          	6.473
MS.161         	5.82           	6.413
MS.162         	5.81           	6.472
MS.163         	5.797          	6.476
MS.164         	5.785          	6.497
MS.165         	5.775          	6.529
MS.166         	5.762          	6.481
MS.167         	5.753          	6.449
MS.168         	5.74           	6.481
MS.169         	5.727          	6.523
MS.170         	5.717          	6.603
MS.171         	5.705          	6.412
MS.172         	5.695          	6.475
MS.173         	5.682          	6.461
MS.174         	5.672          	6.499
MS.175         	5.66           	6.501
MS.176         	5.65           	6.486
MS.177         	5.637          	6.44
MS.178         	5.625          	6.396
MS.179         	5.615          	6.517
MS.180         	5.605          	6.443
MS.181         	5.592          	6.486
MS.182         	5.582          	6.435
MS.183         	5.57           	6.511
MS.184         	5.56           	6.525
MS.185         	5.547          	6.421
MS.186         	5.537          	6.439
MS.187         	5.525          	6.434
MS.188         	5.515          	6.418
MS.189         	5.505          	6.467
MS.190         	5.492          	6.465
MS.191         	5.483          	6.4
MS.192         	5.47           	6.423
MS.193         	5.46           	6.435
MS.194         	5.45           	6.409
MS.195         	5.438          	6.469
MS.196         	5.427          	6.502
MS.197         	5.418          	6.357
MS.198         	5.405          	6.448
MS.199         	5.395          	6.36
MS.200         	5.385          	6.386
MS.201         	5.372          	6.45
MS.202         	5.362          	6.506
MS.203         	5.352          	6.467
MS.204         	5.34           	6.469
MS.205         	5.33           	6.494
MS.206         	5.32           	6.431
MS.207         	5.31           	6.487
MS.208         	5.297          	6.391
MS.209         	5.287          	6.431
MS.210         	5.277          	6.392
MS.211         	5.267          	6.427
MS.212         	5.257          	6.462
MS.213         	5.245          	6.364
MS.214         	5.235          	6.392
MS.215         	5.225          	6.323
MS.216         	5.215          	6.342
MS.217         	5.205          	6.366
MS.218         	5.193          	6.358
MS.219         	5.182          	6.375
MS.220         	5.172          	6.364
MS.221         	5.162          	6.34
MS.222         	5.152          	6.21
MS.223         	5.142          	6.279
MS.224         	5.132          	6.301
MS.225         	5.122          	6.235
MS.226         	5.11           	6.316
MS.227         	5.1            	6.314
MS.228         	5.09           	6.054
MS.229         	5.08           	6.412
MS.230         	5.07           	6.208
MS.231         	5.06           	6.278
MS.232         	5.05           	6.204
MS.233         	5.04           	6.306
MS.234         	5.03           	6.255
MS.235         	5.02           	6.039
MS.236         	5.01           	5.996
MS.237         	5              	6.293
MS.238         	4.99           	6.455
MS.239         	4.98           	6.071
MS.240         	4.97           	6.252
MS.241         	4.96           	6.105
MS.242         	4.95           	6.086
MS.243         	4.94           	6.136
MS.244         	4.93           	6.291
MS.245         	4.92           	6.217
MS.246         	4.91           	6.143
MS.247         	4.9            	6.224
MS.248         	4.89           	6.207
MS.249         	4.882          	6.259
MS.250         	4.872          	6.216
MS.251         	4.862          	6.154
MS.252         	4.852          	6.177
MS.253         	4.842          	6.161
MS.254         	4.832          	6.061
MS.255         	4.822          	6.078
MS.256         	4.812          	6.034
MS.257         	4.805          	5.97
MS.258         	4.795          	6.109
MS.259         	4.785          	5.919
MS.260         	4.775          	6.126
MS.261         	4.765          	6.105
MS.262         	4.755          	6.085
MS.263         	4.747          	6.005
MS.264         	4.737          	5.938
MS.265         	4.727          	6.017
MS.266         	4.717          	5.976
MS.267         	4.71           	5.959
MS.268         	4.7            	5.985
MS.269         	4.69           	6.049
MS.270         	4.68           	5.85
MS.271         	4.673          	5.909
MS.272         	4.662          	5.786
MS.273         	4.652          	5.916
MS.274         	4.642          	5.883
MS.275         	4.635          	5.921
MS.276         	4.625          	5.867
MS.277         	4.615          	5.679
MS.278         	4.608          	5.663
MS.279         	4.597          	5.793
MS.280         	4.588          	5.692
MS.281         	4.58           	5.582
MS.282         	4.57           	5.605
MS.283         	4.56           	5.453
MS.284         	4.552          	5.53
MS.285         	4.543          	5.442
MS.286         	4.532          	5.584
MS.287         	4.525          	5.457
MS.288         	4.515          	5.448
MS.289         	4.505          	5.419
MS.290         	4.497          	5.339
MS.291         	4.487          	5.421
MS.292         	4.48           	5.337
MS.293         	4.47           	5.342
MS.294         	4.463          	5.295
MS.295         	4.452          	5.203
MS.296         	4.443          	5.276
MS.297         	4.435          	5.217
MS.298         	4.425          	5.28
MS.299         	4.418          	5.202
MS.300         	4.407          	5.182
MS.301         	4.4            	5.219
MS.302         	4.39           	5.206
MS.303         	4.382          	5.199
MS.304         	4.372          	5.11
MS.305         	4.365          	5.102
MS.306         	4.355          	5.18
MS.307         	4.347          	5.089
MS.308         	4.338          	5.019
MS.309         	4.33           	5.135
MS.310         	4.32           	5.057
MS.311         	4.312          	5.063
MS.312         	4.302          	5.057
MS.313         	4.295          	5.204
MS.314         	4.287          	5.077
MS.315         	4.277          	4.952
MS.316         	4.27           	5.004
MS.317         	4.26           	5.086
MS.318         	4.253          	4.952
MS.319         	4.242          	5.041
MS.320         	4.235          	4.995
MS.321         	4.227          	5.118
MS.322         	4.217          	4.909
MS.323         	4.21           	4.883
MS.324         	4.202          	4.93
MS.325         	4.193          	5.006
MS.326         	4.185          	4.801
MS.327         	4.177          	4.816
MS.328         	4.168          	4.871
MS.329         	4.16           	4.806
MS.330         	4.152          	4.856
MS.331         	4.142          	4.913
MS.332         	4.135          	4.897
MS.333         	4.128          	4.809
MS.334         	4.117          	4.817
MS.335         	4.11           	4.863
MS.336         	4.102          	4.824
MS.337         	4.092          	4.794
MS.338         	4.085          	4.734
MS.339         	4.077          	4.821
MS.340         	4.07           	4.789
MS.341         	4.06           	4.783
MS.342         	4.052          	4.723
MS.343         	4.045          	4.805
MS.344         	4.037          	4.768
MS.345         	4.027          	4.669
MS.346         	4.02           	4.688
MS.347         	4.012          	4.684
MS.348         	4.005          	4.603
MS.349         	3.997          	4.706
MS.350         	3.987          	4.655
MS.351         	3.98           	4.67
MS.352         	3.972          	4.57
MS.353         	3.965          	4.597
MS.354         	3.957          	4.636
MS.355         	3.95           	4.596
MS.356         	3.94           	4.573
MS.357         	3.932          	4.531
MS.358         	3.925          	4.562
MS.359         	3.918          	4.47
MS.360         	3.91           	4.568
MS.361         	3.902          	4.543
MS.362         	3.895          	4.579
MS.363         	3.885          	4.484
MS.364         	3.877          	4.505
MS.365         	3.87           	4.453
MS.366         	3.862          	4.369
MS.367         	3.855          	4.349
MS.368         	3.847          	4.509
MS.369         	3.84           	4.393
MS.370         	3.832          	4.358
MS.371         	3.825          	4.387
MS.372         	3.817          	4.343
MS.373         	3.81           	4.34
MS.374         	3.803          	4.297
MS.375         	3.795          	4.349
MS.376         	3.787          	4.317
MS.377         	3.78           	4.268
MS.378         	3.772          	4.261
MS.379         	3.765          	4.236
MS.380         	3.757          	4.194
MS.381         	3.75           	4.234
MS.382         	3.742          	4.258
MS.383         	3.735          	4.153
MS.384         	3.727          	4.132
MS.385         	3.72           	4.174
MS.386         	3.712          	4.161
MS.387         	3.705          	4.12
MS.388         	3.697          	4.12
MS.389         	3.69           	4.094
MS.390         	3.682          	4.033
MS.391         	3.675          	3.988
MS.392         	3.668          	4.109
MS.393         	3.66           	4.027
MS.394         	3.652          	3.995
MS.395         	3.645          	3.864
MS.396         	3.637          	4.005
MS.397         	3.63           	3.953
MS.398         	3.622          	4.062
MS.399         	3.617          	3.931
MS.400         	3.61           	4.099
MS.401         	3.602          	4.012
MS.402         	3.595          	3.911
MS.403         	3.587          	3.842
MS.404         	3.58           	3.844
MS.405         	3.572          	3.826
MS.406         	3.565          	3.833
MS.407         	3.56           	3.865
MS.408         	3.553          	3.874
MS.409         	3.545          	3.793
MS.410         	3.537          	3.771
MS.411         	3.53           	3.741
MS.412         	3.523          	3.755
MS.413         	3.517          	3.652
MS.414         	3.51           	3.709
MS.415         	3.502          	3.749
MS.416         	3.495          	3.732
MS.417         	3.487          	3.562
MS.418         	3.482          	3.647
MS.419         	3.475          	3.621
MS.420         	3.467          	3.624
MS.421         	3.46           	3.541
MS.422         	3.452          	3.523
MS.423         	3.447          	3.548
MS.424         	3.44           	3.612
MS.425         	3.432          	3.494
MS.426         	3.425          	3.516
MS.427         	3.42           	3.444
MS.428         	3.412          	3.491
MS.429         	3.405          	3.417
MS.430         	3.4            	3.389
MS.431         	3.392          	3.408
MS.432         	3.385          	3.359
MS.433         	3.377          	3.366
MS.434         	3.372          	3.299
MS.435         	3.365          	3.336
MS.436         	3.357          	3.313
MS.437         	3.352          	3.348
MS.438         	3.345          	3.291
MS.439         	3.337          	3.326
MS.440         	3.332          	3.234
MS.441         	3.325          	3.221
MS.442         	3.317          	3.167
MS.443         	3.312          	3.214
MS.444         	3.305          	3.135
MS.445         	3.297          	3.156
MS.446         	3.293          	3.122
MS.447         	3.285          	3.127
MS.448         	3.277          	3.077
MS.449         	3.273          	3.118
MS.450         	3.265          	3.057
MS.451         	3.26           	3.026
MS.452         	3.252          	3.007
MS.453         	3.245          	3.073
MS.454         	3.24           	2.967
MS.455         	3.232          	2.969
MS.456         	3.227          	2.902
MS.457         	3.22           	2.863
MS.458         	3.215          	2.826
MS.459         	3.207          	2.91
MS.460         	3.2            	2.961
MS.461         	3.195          	2.846
MS.462         	3.188          	2.756
MS.463         	3.182          	2.691
MS.464         	3.175          	2.786
MS.465         	3.17           	2.732
MS.466         	3.162          	2.709
MS.467         	3.158          	2.734
MS.468         	3.15           	2.59
MS.469         	3.145          	2.61
MS.470         	3.138          	2.626
MS.471         	3.132          	2.574
MS.472         	3.125          	2.562
MS.473         	3.12           	2.651
MS.474         	3.112          	2.654
MS.475         	3.107          	2.654
MS.476         	3.1            	2.415
MS.477         	3.095          	2.573
MS.478         	3.087          	2.44
MS.479         	3.082          	2.406
MS.480         	3.075          	2.273
MS.481         	3.07           	2.404
MS.482         	3.062          	2.291
MS.483         	3.057          	2.415
MS.484         	3.05           	2.278
MS.485         	3.045          	2.258
MS.486         	3.037          	2.2
MS.487         	3.033          	2.303
MS.488         	3.027          	2.194
MS.489         	3.02           	2.111
MS.490         	3.015          	2.213
MS.491         	3.007          	2.179
MS.492         	3.002          	2.059
MS.493         	2.997          	1.987
MS.494         	2.99           	1.965
MS.495         	2.985          	1.898
MS.496         	2.977          	2.042
MS.497         	2.972          	1.979
MS.498         	2.967          	1.926
MS.499         	2.96           	1.927
MS.500         	2.955          	1.922
MS.501         	2.95           	1.783
MS.502         	2.942          	1.752
MS.503         	2.938          	1.976
