File:              	C:\Qtrac\Data\ME2C30620A.QZD
Name:              	 ME22I
Protocol:          	MSCAN-MV
Date:              	20/6/23
Date of birth:     	22/2/02
Age:               	21
Sex:               	M
Temperature:       	31.8
S/R sites:         	Knee CF-TA
NC/disease:        	NC
Operator:          	BY
Comments:
M-SCAN DATA (Repeat 4/4, 38-26.9m)
Scanpts: 174, 198, 846, 873
Stim. (mA)     	Amp. (mV)
MS.1           	15             	9.196
MS.2           	15             	9.254
MS.3           	15             	9.229
MS.4           	15             	9.237
MS.5           	15             	9.252
MS.6           	15             	9.255
MS.7           	15             	9.281
MS.8           	15             	9.261
MS.9           	15             	9.306
MS.10          	15             	9.275
MS.11          	15             	9.303
MS.12          	15             	9.284
MS.13          	15             	9.288
MS.14          	15             	9.334
MS.15          	15             	9.34
MS.16          	15             	9.313
MS.17          	15             	9.282
MS.18          	15             	9.35
MS.19          	15             	9.34
MS.20          	15             	9.37
MS.21          	15             	9.339
MS.22          	15             	9.363
MS.23          	15             	9.379
MS.24          	14.97          	9.352
MS.25          	14.94          	9.352
MS.26          	14.91          	9.341
MS.27          	14.88          	9.374
MS.28          	14.85          	9.368
MS.29          	14.82          	9.346
MS.30          	14.792         	9.354
MS.31          	14.762         	9.366
MS.32          	14.733         	9.352
MS.33          	14.702         	9.386
MS.34          	14.672         	9.362
MS.35          	14.645         	9.385
MS.36          	14.615         	9.37
MS.37          	14.585         	9.369
MS.38          	14.557         	9.383
MS.39          	14.527         	9.363
MS.40          	14.497         	9.377
MS.41          	14.47          	9.388
MS.42          	14.44          	9.379
MS.43          	14.412         	9.368
MS.44          	14.382         	9.388
MS.45          	14.355         	9.396
MS.46          	14.325         	9.377
MS.47          	14.297         	9.393
MS.48          	14.267         	9.434
MS.49          	14.24          	9.453
MS.50          	14.212         	9.363
MS.51          	14.182         	9.42
MS.52          	14.155         	9.395
MS.53          	14.127         	9.455
MS.54          	14.097         	9.432
MS.55          	14.07          	9.365
MS.56          	14.042         	9.471
MS.57          	14.015         	9.424
MS.58          	13.985         	9.42
MS.59          	13.957         	9.429
MS.60          	13.93          	9.42
MS.61          	13.903         	9.422
MS.62          	13.875         	9.457
MS.63          	13.847         	9.444
MS.64          	13.82          	9.456
MS.65          	13.792         	9.441
MS.66          	13.765         	9.465
MS.67          	13.737         	9.501
MS.68          	13.71          	9.474
MS.69          	13.682         	9.47
MS.70          	13.655         	9.475
MS.71          	13.627         	9.472
MS.72          	13.6           	9.458
MS.73          	13.572         	9.455
MS.74          	13.545         	9.449
MS.75          	13.517         	9.492
MS.76          	13.492         	9.473
MS.77          	13.465         	9.466
MS.78          	13.438         	9.496
MS.79          	13.41          	9.517
MS.80          	13.385         	9.509
MS.81          	13.358         	9.494
MS.82          	13.33          	9.517
MS.83          	13.305         	9.501
MS.84          	13.278         	9.481
MS.85          	13.25          	9.543
MS.86          	13.225         	9.487
MS.87          	13.197         	9.509
MS.88          	13.172         	9.518
MS.89          	13.145         	9.512
MS.90          	13.12          	9.518
MS.91          	13.092         	9.506
MS.92          	13.068         	9.561
MS.93          	13.04          	9.521
MS.94          	13.015         	9.51
MS.95          	12.987         	9.493
MS.96          	12.962         	9.498
MS.97          	12.938         	9.464
MS.98          	12.91          	9.532
MS.99          	12.885         	9.471
MS.100         	12.86          	9.477
MS.101         	12.832         	9.498
MS.102         	12.807         	9.51
MS.103         	12.782         	9.512
MS.104         	12.757         	9.5
MS.105         	12.73          	9.466
MS.106         	12.705         	9.498
MS.107         	12.68          	9.525
MS.108         	12.655         	9.485
MS.109         	12.63          	9.513
MS.110         	12.605         	9.471
MS.111         	12.58          	9.52
MS.112         	12.555         	9.511
MS.113         	12.53          	9.546
MS.114         	12.505         	9.46
MS.115         	12.48          	9.464
MS.116         	12.455         	9.456
MS.117         	12.43          	9.5
MS.118         	12.405         	9.515
MS.119         	12.38          	9.48
MS.120         	12.355         	9.456
MS.121         	12.33          	9.457
MS.122         	12.305         	9.508
MS.123         	12.28          	9.532
MS.124         	12.257         	9.484
MS.125         	12.233         	9.502
MS.126         	12.207         	9.51
MS.127         	12.182         	9.503
MS.128         	12.16          	9.47
MS.129         	12.135         	9.506
MS.130         	12.11          	9.471
MS.131         	12.085         	9.508
MS.132         	12.062         	9.526
MS.133         	12.037         	9.542
MS.134         	12.012         	9.525
MS.135         	11.99          	9.531
MS.136         	11.965         	9.531
MS.137         	11.943         	9.501
MS.138         	11.917         	9.517
MS.139         	11.895         	9.526
MS.140         	11.87          	9.566
MS.141         	11.847         	9.568
MS.142         	11.822         	9.557
MS.143         	11.8           	9.589
MS.144         	11.775         	9.551
MS.145         	11.752         	9.634
MS.146         	11.73          	9.558
MS.147         	11.705         	9.608
MS.148         	11.682         	9.568
MS.149         	11.657         	9.596
MS.150         	11.635         	9.557
MS.151         	11.613         	9.597
MS.152         	11.59          	9.526
MS.153         	11.565         	9.539
MS.154         	11.542         	9.568
MS.155         	11.52          	9.559
MS.156         	11.497         	9.578
MS.157         	11.472         	9.584
MS.158         	11.45          	9.575
MS.159         	11.427         	9.56
MS.160         	11.405         	9.614
MS.161         	11.382         	9.617
MS.162         	11.36          	9.656
MS.163         	11.337         	9.579
MS.164         	11.315         	9.595
MS.165         	11.292         	9.566
MS.166         	11.27          	9.63
MS.167         	11.247         	9.524
MS.168         	11.225         	9.562
MS.169         	11.202         	9.545
MS.170         	11.18          	9.532
MS.171         	11.157         	9.537
MS.172         	11.135         	9.453
MS.173         	11.113         	9.477
MS.174         	11.09          	9.624
MS.175         	11.068         	9.702
MS.176         	11.045         	9.681
MS.177         	11.023         	9.604
MS.178         	11.002         	9.67
MS.179         	10.98          	9.628
MS.180         	10.957         	9.658
MS.181         	10.935         	9.554
MS.182         	10.915         	9.508
MS.183         	10.892         	9.566
MS.184         	10.87          	9.579
MS.185         	10.85          	9.557
MS.186         	10.827         	9.593
MS.187         	10.805         	9.59
MS.188         	10.785         	9.576
MS.189         	10.762         	9.575
MS.190         	10.74          	9.568
MS.191         	10.72          	9.586
MS.192         	10.698         	9.612
MS.193         	10.677         	9.669
MS.194         	10.655         	9.547
MS.195         	10.635         	9.582
MS.196         	10.613         	9.638
MS.197         	10.592         	9.517
MS.198         	10.57          	9.48
MS.199         	10.55          	9.525
MS.200         	10.528         	9.538
MS.201         	10.507         	9.616
MS.202         	10.485         	9.623
MS.203         	10.465         	9.542
MS.204         	10.445         	9.36
MS.205         	10.422         	9.588
MS.206         	10.403         	9.518
MS.207         	10.382         	9.409
MS.208         	10.36          	9.42
MS.209         	10.34          	9.306
MS.210         	10.32          	9.461
MS.211         	10.3           	9.432
MS.212         	10.278         	9.426
MS.213         	10.257         	9.437
MS.214         	10.238         	9.269
MS.215         	10.217         	9.467
MS.216         	10.198         	9.45
MS.217         	10.175         	9.34
MS.218         	10.155         	9.418
MS.219         	10.135         	9.304
MS.220         	10.115         	9.266
MS.221         	10.095         	9.424
MS.222         	10.075         	9.359
MS.223         	10.055         	9.326
MS.224         	10.035         	9.17
MS.225         	10.015         	9.326
MS.226         	9.995          	9.315
MS.227         	9.975          	9.313
MS.228         	9.955          	9.153
MS.229         	9.935          	9.271
MS.230         	9.915          	9.261
MS.231         	9.895          	9.16
MS.232         	9.875          	9.195
MS.233         	9.855          	9.116
MS.234         	9.835          	9.116
MS.235         	9.818          	9
MS.236         	9.797          	9.161
MS.237         	9.778          	9.136
MS.238         	9.757          	9.078
MS.239         	9.738          	9.044
MS.240         	9.717          	9.022
MS.241         	9.7            	8.955
MS.242         	9.68           	8.787
MS.243         	9.66           	9.056
MS.244         	9.64           	8.934
MS.245         	9.622          	8.843
MS.246         	9.602          	8.769
MS.247         	9.582          	8.901
MS.248         	9.565          	8.66
MS.249         	9.545          	8.793
MS.250         	9.525          	8.99
MS.251         	9.507          	8.813
MS.252         	9.488          	8.515
MS.253         	9.47           	8.949
MS.254         	9.45           	8.914
MS.255         	9.432          	8.93
MS.256         	9.412          	8.806
MS.257         	9.395          	8.691
MS.258         	9.375          	8.668
MS.259         	9.358          	8.7
MS.260         	9.337          	8.707
MS.261         	9.32           	8.633
MS.262         	9.3            	8.541
MS.263         	9.283          	8.544
MS.264         	9.262          	8.644
MS.265         	9.245          	8.709
MS.266         	9.225          	8.607
MS.267         	9.207          	8.767
MS.268         	9.19           	8.82
MS.269         	9.17           	8.556
MS.270         	9.153          	8.593
MS.271         	9.135          	8.477
MS.272         	9.115          	8.455
MS.273         	9.097          	8.403
MS.274         	9.08           	8.28
MS.275         	9.062          	8.35
MS.276         	9.042          	8.463
MS.277         	9.025          	8.367
MS.278         	9.007          	8.584
MS.279         	8.99           	8.433
MS.280         	8.972          	8.148
MS.281         	8.952          	8.474
MS.282         	8.935          	8.358
MS.283         	8.917          	8.52
MS.284         	8.9            	8.306
MS.285         	8.882          	8.393
MS.286         	8.865          	8.375
MS.287         	8.847          	8.264
MS.288         	8.83           	8.183
MS.289         	8.812          	8.262
MS.290         	8.795          	8.238
MS.291         	8.778          	8.16
MS.292         	8.757          	8.276
MS.293         	8.74           	8.173
MS.294         	8.725          	8.215
MS.295         	8.707          	8.116
MS.296         	8.69           	8.096
MS.297         	8.672          	8.25
MS.298         	8.655          	8.034
MS.299         	8.637          	7.895
MS.300         	8.62           	8.012
MS.301         	8.602          	8.006
MS.302         	8.585          	8.024
MS.303         	8.568          	8.165
MS.304         	8.55           	8.101
MS.305         	8.535          	8.018
MS.306         	8.517          	8.015
MS.307         	8.5            	7.8
MS.308         	8.483          	7.896
MS.309         	8.465          	7.841
MS.310         	8.45           	8.068
MS.311         	8.432          	8.007
MS.312         	8.415          	8.137
MS.313         	8.398          	8.026
MS.314         	8.382          	7.909
MS.315         	8.365          	7.539
MS.316         	8.347          	7.902
MS.317         	8.332          	8.126
MS.318         	8.315          	7.699
MS.319         	8.297          	7.795
MS.320         	8.283          	7.617
MS.321         	8.265          	8.059
MS.322         	8.247          	7.789
MS.323         	8.233          	7.73
MS.324         	8.215          	7.792
MS.325         	8.2            	7.356
MS.326         	8.182          	7.704
MS.327         	8.167          	7.729
MS.328         	8.15           	7.64
MS.329         	8.135          	7.76
MS.330         	8.117          	7.842
MS.331         	8.102          	7.46
MS.332         	8.085          	7.739
MS.333         	8.07           	7.559
MS.334         	8.052          	7.637
MS.335         	8.037          	7.658
MS.336         	8.02           	7.375
MS.337         	8.005          	7.676
MS.338         	7.99           	7.766
MS.339         	7.972          	7.357
MS.340         	7.957          	7.581
MS.341         	7.94           	7.752
MS.342         	7.925          	7.949
MS.343         	7.91           	7.715
MS.344         	7.892          	7.638
MS.345         	7.878          	7.686
MS.346         	7.862          	7.615
MS.347         	7.847          	7.438
MS.348         	7.83           	7.325
MS.349         	7.815          	7.536
MS.350         	7.8            	7.235
MS.351         	7.785          	7.147
MS.352         	7.767          	7.312
MS.353         	7.753          	7.018
MS.354         	7.737          	7.278
MS.355         	7.722          	7.112
MS.356         	7.707          	7.255
MS.357         	7.69           	7.228
MS.358         	7.675          	6.994
MS.359         	7.66           	7.105
MS.360         	7.645          	6.866
MS.361         	7.63           	6.75
MS.362         	7.615          	6.651
MS.363         	7.6            	6.998
MS.364         	7.585          	6.661
MS.365         	7.57           	6.624
MS.366         	7.555          	6.582
MS.367         	7.537          	6.573
MS.368         	7.523          	6.919
MS.369         	7.507          	6.852
MS.370         	7.492          	6.345
MS.371         	7.477          	6.58
MS.372         	7.462          	6.222
MS.373         	7.45           	6.384
MS.374         	7.435          	6.439
MS.375         	7.42           	6.396
MS.376         	7.405          	6.34
MS.377         	7.39           	6.419
MS.378         	7.375          	6.179
MS.379         	7.36           	6.204
MS.380         	7.345          	6.407
MS.381         	7.33           	5.984
MS.382         	7.315          	5.862
MS.383         	7.302          	6.144
MS.384         	7.287          	6.243
MS.385         	7.273          	6.097
MS.386         	7.257          	5.881
MS.387         	7.242          	6.052
MS.388         	7.227          	6.225
MS.389         	7.215          	6.371
MS.390         	7.2            	6.079
MS.391         	7.185          	6.034
MS.392         	7.17           	5.857
MS.393         	7.157          	5.659
MS.394         	7.142          	5.751
MS.395         	7.128          	5.743
MS.396         	7.115          	5.522
MS.397         	7.1            	5.635
MS.398         	7.085          	5.598
MS.399         	7.072          	5.518
MS.400         	7.057          	5.211
MS.401         	7.043          	5.554
MS.402         	7.03           	5.531
MS.403         	7.015          	5.276
MS.404         	7              	5.389
MS.405         	6.987          	5.284
MS.406         	6.972          	5.117
MS.407         	6.96           	4.999
MS.408         	6.945          	5.238
MS.409         	6.932          	5.304
MS.410         	6.918          	5.24
MS.411         	6.902          	4.924
MS.412         	6.89           	5.122
MS.413         	6.875          	5.025
MS.414         	6.862          	4.744
MS.415         	6.847          	4.662
MS.416         	6.835          	4.803
MS.417         	6.822          	4.891
MS.418         	6.807          	4.695
MS.419         	6.795          	4.818
MS.420         	6.78           	4.794
MS.421         	6.767          	4.407
MS.422         	6.753          	4.846
MS.423         	6.74           	4.756
MS.424         	6.727          	4.622
MS.425         	6.712          	4.712
MS.426         	6.7            	4.522
MS.427         	6.685          	4.607
MS.428         	6.672          	4.496
MS.429         	6.66           	4.501
MS.430         	6.645          	4.437
MS.431         	6.632          	4.61
MS.432         	6.62           	4.377
MS.433         	6.608          	4.249
MS.434         	6.592          	4.226
MS.435         	6.58           	4.235
MS.436         	6.567          	4.175
MS.437         	6.555          	4.142
MS.438         	6.54           	4.257
MS.439         	6.527          	4.143
MS.440         	6.515          	4.189
MS.441         	6.503          	4.074
MS.442         	6.487          	4.131
MS.443         	6.475          	3.965
MS.444         	6.462          	3.937
MS.445         	6.45           	4.012
MS.446         	6.438          	3.715
MS.447         	6.425          	3.763
MS.448         	6.41           	3.859
MS.449         	6.398          	3.857
MS.450         	6.385          	3.863
MS.451         	6.372          	3.958
MS.452         	6.36           	3.625
MS.453         	6.347          	3.308
MS.454         	6.335          	3.737
MS.455         	6.322          	3.51
MS.456         	6.31           	3.755
MS.457         	6.297          	3.738
MS.458         	6.285          	3.292
MS.459         	6.273          	3.437
MS.460         	6.26           	3.323
MS.461         	6.247          	3.46
MS.462         	6.235          	3.292
MS.463         	6.222          	3.189
MS.464         	6.21           	3.179
MS.465         	6.197          	3.184
MS.466         	6.185          	3.112
MS.467         	6.172          	3.16
MS.468         	6.16           	3.16
MS.469         	6.148          	2.905
MS.470         	6.135          	2.805
MS.471         	6.122          	2.949
MS.472         	6.11           	2.988
MS.473         	6.097          	2.953
MS.474         	6.088          	2.631
MS.475         	6.075          	2.703
MS.476         	6.062          	2.803
MS.477         	6.05           	2.767
MS.478         	6.037          	2.697
MS.479         	6.025          	2.521
MS.480         	6.015          	2.52
MS.481         	6.003          	2.704
MS.482         	5.99           	2.537
MS.483         	5.977          	2.564
MS.484         	5.965          	2.31
MS.485         	5.955          	2.456
MS.486         	5.942          	2.314
MS.487         	5.93           	2.202
MS.488         	5.918          	2.197
MS.489         	5.907          	2.288
MS.490         	5.895          	2.437
MS.491         	5.882          	2.329
MS.492         	5.87           	2.405
MS.493         	5.86           	2.151
MS.494         	5.847          	2.128
MS.495         	5.835          	1.927
MS.496         	5.825          	2.236
MS.497         	5.812          	1.9
MS.498         	5.8            	2.023
MS.499         	5.79           	2.14
MS.500         	5.777          	1.985
MS.501         	5.767          	2.145
MS.502         	5.755          	1.939
MS.503         	5.742          	2.034
