File:              	C:\Qtrac\Data\ME2C30705B.QZD
Name:              	 MI19Y
Protocol:          	MSCAN-MV
Date:              	5/7/23
Date of birth:     	19/10/99
Age:               	23
Sex:               	F
Temperature:       	30.2
S/R sites:         	Knee CF-TA
NC/disease:        	NC
Operator:          	BY
Comments:
M-SCAN DATA (Repeat 1/3, 13.3-3.8m)
Scanpts: 35, 48, 659, 756
Stim. (mA)     	Amp. (mV)
MS.1           	9.5            	4.686
MS.2           	9.5            	4.698
MS.3           	9.5            	4.732
MS.4           	9.5            	4.718
MS.5           	9.5            	4.692
MS.6           	9.5            	4.693
MS.7           	9.5            	4.753
MS.8           	9.5            	4.694
MS.9           	9.5            	4.726
MS.10          	9.5            	4.723
MS.11          	9.5            	4.698
MS.12          	9.5            	4.709
MS.13          	9.5            	4.677
MS.14          	9.5            	4.683
MS.15          	9.5            	4.69
MS.16          	9.5            	4.705
MS.17          	9.5            	4.747
MS.18          	9.5            	4.701
MS.19          	9.5            	4.662
MS.20          	9.5            	4.722
MS.21          	9.5            	4.681
MS.22          	9.5            	4.711
MS.23          	9.5            	4.756
MS.24          	9.462          	4.685
MS.25          	9.443          	4.7
MS.26          	9.425          	4.691
MS.27          	9.405          	4.706
MS.28          	9.387          	4.804
MS.29          	9.367          	4.739
MS.30          	9.35           	4.788
MS.31          	9.33           	4.741
MS.32          	9.312          	4.753
MS.33          	9.292          	4.766
MS.34          	9.275          	4.733
MS.35          	9.255          	4.7
MS.36          	9.238          	4.739
MS.37          	9.22           	4.727
MS.38          	9.2            	4.72
MS.39          	9.182          	4.755
MS.40          	9.165          	4.717
MS.41          	9.145          	4.739
MS.42          	9.127          	4.738
MS.43          	9.11           	4.764
MS.44          	9.09           	4.771
MS.45          	9.073          	4.735
MS.46          	9.055          	4.745
MS.47          	9.037          	4.726
MS.48          	9.017          	4.733
MS.49          	9              	4.734
MS.50          	8.983          	4.716
MS.51          	8.965          	4.704
MS.52          	8.948          	4.726
MS.53          	8.93           	4.706
MS.54          	8.91           	4.702
MS.55          	8.892          	4.688
MS.56          	8.875          	4.748
MS.57          	8.858          	4.73
MS.58          	8.84           	4.673
MS.59          	8.823          	4.653
MS.60          	8.805          	4.68
MS.61          	8.787          	4.687
MS.62          	8.77           	4.688
MS.63          	8.752          	4.678
MS.64          	8.735          	4.708
MS.65          	8.717          	4.667
MS.66          	8.7            	4.675
MS.67          	8.682          	4.63
MS.68          	8.665          	4.629
MS.69          	8.648          	4.761
MS.70          	8.63           	4.656
MS.71          	8.613          	4.614
MS.72          	8.595          	4.679
MS.73          	8.577          	4.658
MS.74          	8.562          	4.608
MS.75          	8.545          	4.715
MS.76          	8.528          	4.634
MS.77          	8.51           	4.614
MS.78          	8.492          	4.659
MS.79          	8.477          	4.691
MS.80          	8.46           	4.646
MS.81          	8.443          	4.688
MS.82          	8.425          	4.761
MS.83          	8.41           	4.756
MS.84          	8.392          	4.755
MS.85          	8.375          	4.623
MS.86          	8.358          	4.563
MS.87          	8.342          	4.641
MS.88          	8.325          	4.644
MS.89          	8.307          	4.585
MS.90          	8.292          	4.63
MS.91          	8.275          	4.648
MS.92          	8.26           	4.637
MS.93          	8.242          	4.618
MS.94          	8.225          	4.703
MS.95          	8.21           	4.573
MS.96          	8.193          	4.617
MS.97          	8.177          	4.634
MS.98          	8.16           	4.566
MS.99          	8.145          	4.586
MS.100         	8.127          	4.619
MS.101         	8.113          	4.6
MS.102         	8.095          	4.631
MS.103         	8.08           	4.608
MS.104         	8.062          	4.567
MS.105         	8.047          	4.586
MS.106         	8.03           	4.601
MS.107         	8.015          	4.56
MS.108         	8              	4.562
MS.109         	7.982          	4.553
MS.110         	7.967          	4.49
MS.111         	7.95           	4.476
MS.112         	7.935          	4.532
MS.113         	7.92           	4.5
MS.114         	7.902          	4.423
MS.115         	7.887          	4.393
MS.116         	7.872          	4.396
MS.117         	7.855          	4.395
MS.118         	7.84           	4.427
MS.119         	7.825          	4.355
MS.120         	7.81           	4.343
MS.121         	7.793          	4.24
MS.122         	7.777          	4.266
MS.123         	7.762          	4.29
MS.124         	7.747          	4.276
MS.125         	7.732          	4.299
MS.126         	7.715          	4.419
MS.127         	7.7            	4.407
MS.128         	7.685          	4.407
MS.129         	7.67           	4.368
MS.130         	7.655          	4.291
MS.131         	7.64           	4.376
MS.132         	7.625          	4.314
MS.133         	7.607          	4.25
MS.134         	7.592          	4.312
MS.135         	7.577          	4.301
MS.136         	7.562          	4.276
MS.137         	7.547          	4.273
MS.138         	7.532          	4.177
MS.139         	7.517          	4.19
MS.140         	7.503          	4.15
MS.141         	7.487          	4.225
MS.142         	7.472          	4.235
MS.143         	7.457          	4.183
MS.144         	7.442          	4.056
MS.145         	7.427          	4.163
MS.146         	7.412          	4.137
MS.147         	7.398          	4.215
MS.148         	7.385          	4.14
MS.149         	7.37           	4.115
MS.150         	7.355          	4.125
MS.151         	7.34           	4.138
MS.152         	7.325          	4.1
MS.153         	7.31           	4.172
MS.154         	7.295          	4.113
MS.155         	7.28           	4.12
MS.156         	7.267          	4.045
MS.157         	7.253          	4.072
MS.158         	7.237          	4.052
MS.159         	7.222          	4.138
MS.160         	7.207          	4.094
MS.161         	7.195          	4.077
MS.162         	7.18           	4.109
MS.163         	7.165          	4.056
MS.164         	7.152          	4.078
MS.165         	7.137          	4.077
MS.166         	7.122          	4.072
MS.167         	7.108          	3.991
MS.168         	7.095          	4.114
MS.169         	7.08           	4.025
MS.170         	7.065          	4.048
MS.171         	7.052          	4.089
MS.172         	7.037          	4.103
MS.173         	7.023          	4.115
MS.174         	7.01           	4.067
MS.175         	6.995          	4.072
MS.176         	6.983          	3.978
MS.177         	6.967          	4.041
MS.178         	6.955          	3.995
MS.179         	6.94           	4.032
MS.180         	6.925          	3.985
MS.181         	6.912          	3.967
MS.182         	6.898          	3.948
MS.183         	6.885          	3.912
MS.184         	6.87           	4.075
MS.185         	6.858          	3.981
MS.186         	6.842          	3.934
MS.187         	6.83           	3.972
MS.188         	6.815          	3.871
MS.189         	6.802          	3.865
MS.190         	6.79           	3.94
MS.191         	6.775          	3.749
MS.192         	6.762          	3.934
MS.193         	6.747          	3.884
MS.194         	6.735          	3.814
MS.195         	6.722          	3.834
MS.196         	6.707          	3.804
MS.197         	6.695          	3.811
MS.198         	6.68           	3.749
MS.199         	6.668          	3.773
MS.200         	6.655          	3.826
MS.201         	6.64           	3.799
MS.202         	6.628          	3.856
MS.203         	6.615          	3.738
MS.204         	6.602          	3.758
MS.205         	6.587          	3.815
MS.206         	6.575          	3.656
MS.207         	6.562          	3.654
MS.208         	6.55           	3.694
MS.209         	6.535          	3.795
MS.210         	6.523          	3.8
MS.211         	6.51           	3.714
MS.212         	6.497          	3.661
MS.213         	6.483          	3.672
MS.214         	6.47           	3.731
MS.215         	6.457          	3.589
MS.216         	6.445          	3.638
MS.217         	6.432          	3.649
MS.218         	6.42           	3.625
MS.219         	6.407          	3.489
MS.220         	6.392          	3.658
MS.221         	6.38           	3.558
MS.222         	6.367          	3.56
MS.223         	6.355          	3.648
MS.224         	6.342          	3.492
MS.225         	6.33           	3.502
MS.226         	6.317          	3.56
MS.227         	6.305          	3.412
MS.228         	6.293          	3.255
MS.229         	6.28           	3.464
MS.230         	6.267          	3.38
MS.231         	6.255          	3.348
MS.232         	6.242          	3.255
MS.233         	6.23           	3.342
MS.234         	6.217          	3.337
MS.235         	6.205          	3.344
MS.236         	6.192          	3.294
MS.237         	6.18           	3.321
MS.238         	6.168          	3.238
MS.239         	6.155          	3.317
MS.240         	6.142          	3.273
MS.241         	6.13           	3.293
MS.242         	6.117          	3.21
MS.243         	6.105          	3.134
MS.244         	6.095          	3.169
MS.245         	6.082          	3.19
MS.246         	6.07           	3.149
MS.247         	6.057          	3.186
MS.248         	6.045          	3.186
MS.249         	6.032          	3.087
MS.250         	6.02           	3.08
MS.251         	6.01           	3.109
MS.252         	5.997          	3.082
MS.253         	5.985          	3.188
MS.254         	5.972          	3.005
MS.255         	5.963          	2.992
MS.256         	5.95           	2.803
MS.257         	5.938          	2.999
MS.258         	5.925          	3.011
MS.259         	5.915          	2.937
MS.260         	5.902          	2.999
MS.261         	5.89           	2.893
MS.262         	5.878          	2.968
MS.263         	5.867          	2.916
MS.264         	5.855          	2.855
MS.265         	5.842          	2.85
MS.266         	5.832          	2.869
MS.267         	5.82           	2.922
MS.268         	5.807          	2.742
MS.269         	5.797          	2.84
MS.270         	5.785          	2.771
MS.271         	5.773          	2.775
MS.272         	5.762          	2.713
MS.273         	5.75           	2.74
MS.274         	5.74           	2.769
MS.275         	5.727          	2.72
MS.276         	5.715          	2.673
MS.277         	5.705          	2.656
MS.278         	5.692          	2.685
MS.279         	5.682          	2.632
MS.280         	5.67           	2.599
MS.281         	5.66           	2.635
MS.282         	5.648          	2.688
MS.283         	5.637          	2.684
MS.284         	5.625          	2.626
MS.285         	5.615          	2.777
MS.286         	5.602          	2.755
MS.287         	5.592          	2.822
MS.288         	5.58           	2.807
MS.289         	5.57           	2.717
MS.290         	5.557          	2.657
MS.291         	5.547          	2.72
MS.292         	5.535          	2.654
MS.293         	5.525          	2.665
MS.294         	5.515          	2.66
MS.295         	5.503          	2.581
MS.296         	5.492          	2.56
MS.297         	5.48           	2.551
MS.298         	5.47           	2.638
MS.299         	5.46           	2.644
MS.300         	5.447          	2.581
MS.301         	5.438          	2.546
MS.302         	5.427          	2.469
MS.303         	5.415          	2.468
MS.304         	5.405          	2.578
MS.305         	5.395          	2.523
MS.306         	5.382          	2.41
MS.307         	5.372          	2.435
MS.308         	5.362          	2.454
MS.309         	5.35           	2.344
MS.310         	5.34           	2.511
MS.311         	5.33           	2.317
MS.312         	5.32           	2.297
MS.313         	5.307          	2.227
MS.314         	5.297          	2.31
MS.315         	5.287          	2.224
MS.316         	5.277          	2.335
MS.317         	5.265          	2.299
MS.318         	5.255          	2.323
MS.319         	5.245          	2.214
MS.320         	5.235          	2.132
MS.321         	5.225          	2.286
MS.322         	5.213          	2.201
MS.323         	5.202          	2.207
MS.324         	5.193          	2.213
MS.325         	5.182          	2.145
MS.326         	5.172          	2.166
MS.327         	5.162          	2.114
MS.328         	5.152          	2.074
MS.329         	5.14           	2.107
MS.330         	5.13           	2.081
MS.331         	5.12           	2.152
MS.332         	5.11           	2.151
MS.333         	5.1            	2.014
MS.334         	5.09           	2.079
MS.335         	5.08           	2.065
MS.336         	5.07           	2.089
MS.337         	5.06           	2.073
MS.338         	5.05           	2.007
MS.339         	5.04           	2.093
MS.340         	5.03           	2.035
MS.341         	5.02           	1.999
MS.342         	5.01           	1.965
MS.343         	5              	2.002
MS.344         	4.99           	1.96
MS.345         	4.98           	1.927
MS.346         	4.97           	1.83
MS.347         	4.96           	1.858
MS.348         	4.95           	1.959
MS.349         	4.94           	1.956
MS.350         	4.93           	1.904
MS.351         	4.92           	1.795
MS.352         	4.91           	1.869
MS.353         	4.9            	1.805
MS.354         	4.89           	1.855
MS.355         	4.88           	1.75
MS.356         	4.87           	1.755
MS.357         	4.86           	1.714
MS.358         	4.852          	1.807
MS.359         	4.842          	1.712
MS.360         	4.832          	1.775
MS.361         	4.822          	1.64
MS.362         	4.812          	1.665
MS.363         	4.802          	1.695
MS.364         	4.793          	1.597
MS.365         	4.785          	1.629
MS.366         	4.775          	1.633
MS.367         	4.765          	1.581
MS.368         	4.755          	1.597
MS.369         	4.745          	1.597
MS.370         	4.737          	1.58
MS.371         	4.727          	1.596
MS.372         	4.717          	1.503
MS.373         	4.707          	1.532
MS.374         	4.697          	1.55
MS.375         	4.69           	1.553
MS.376         	4.68           	1.503
MS.377         	4.67           	1.47
MS.378         	4.662          	1.506
MS.379         	4.652          	1.482
MS.380         	4.642          	1.404
MS.381         	4.632          	1.431
MS.382         	4.625          	1.469
MS.383         	4.615          	1.345
MS.384         	4.605          	1.382
MS.385         	4.597          	1.314
MS.386         	4.588          	1.332
MS.387         	4.577          	1.361
MS.388         	4.57           	1.299
MS.389         	4.56           	1.297
MS.390         	4.55           	1.303
MS.391         	4.543          	1.209
MS.392         	4.532          	1.346
MS.393         	4.523          	1.234
MS.394         	4.515          	1.257
MS.395         	4.505          	1.219
MS.396         	4.497          	1.187
MS.397         	4.487          	1.215
MS.398         	4.477          	1.207
MS.399         	4.47           	1.064
MS.400         	4.46           	1.138
MS.401         	4.452          	1.159
MS.402         	4.443          	1.119
MS.403         	4.435          	1.147
MS.404         	4.425          	1.104
MS.405         	4.415          	1.052
MS.406         	4.407          	1.026
MS.407         	4.398          	1.065
MS.408         	4.39           	0.98
MS.409         	4.38           	1.001
MS.410         	4.372          	1.019
MS.411         	4.362          	1.01
MS.412         	4.355          	0.952
MS.413         	4.345          	0.968
MS.414         	4.338          	0.966
MS.415         	4.33           	0.97
MS.416         	4.32           	0.944
MS.417         	4.312          	0.946
MS.418         	4.302          	0.938
MS.419         	4.295          	0.876
MS.420         	4.285          	0.867
MS.421         	4.277          	0.909
MS.422         	4.267          	0.871
MS.423         	4.26           	0.834
MS.424         	4.253          	0.861
MS.425         	4.242          	0.787
MS.426         	4.235          	0.745
MS.427         	4.225          	0.792
MS.428         	4.217          	0.725
MS.429         	4.21           	0.789
MS.430         	4.2            	0.795
MS.431         	4.193          	0.736
MS.432         	4.185          	0.712
MS.433         	4.175          	0.726
MS.434         	4.168          	0.728
MS.435         	4.16           	0.709
MS.436         	4.15           	0.715
MS.437         	4.142          	0.737
MS.438         	4.135          	0.72
MS.439         	4.125          	0.655
MS.440         	4.117          	0.624
MS.441         	4.11           	0.609
MS.442         	4.1            	0.677
MS.443         	4.092          	0.64
MS.444         	4.085          	0.553
MS.445         	4.077          	0.66
MS.446         	4.068          	0.619
MS.447         	4.06           	0.646
MS.448         	4.052          	0.559
MS.449         	4.045          	0.6
MS.450         	4.035          	0.567
MS.451         	4.027          	0.543
MS.452         	4.02           	0.713
MS.453         	4.012          	0.563
MS.454         	4.005          	0.505
MS.455         	3.995          	0.577
MS.456         	3.987          	0.599
MS.457         	3.98           	0.497
MS.458         	3.972          	0.555
MS.459         	3.965          	0.5
MS.460         	3.955          	0.534
MS.461         	3.947          	0.415
MS.462         	3.94           	0.488
MS.463         	3.932          	0.449
MS.464         	3.925          	0.478
MS.465         	3.918          	0.468
MS.466         	3.91           	0.436
MS.467         	3.9            	0.482
MS.468         	3.892          	0.43
MS.469         	3.885          	0.378
MS.470         	3.877          	0.424
MS.471         	3.87           	0.355
MS.472         	3.862          	0.395
MS.473         	3.855          	0.331
MS.474         	3.847          	0.395
MS.475         	3.84           	0.341
MS.476         	3.832          	0.293
MS.477         	3.825          	0.319
MS.478         	3.817          	0.351
MS.479         	3.807          	0.312
MS.480         	3.8            	0.252
MS.481         	3.793          	0.28
MS.482         	3.785          	0.212
MS.483         	3.777          	0.258
MS.484         	3.77           	0.329
MS.485         	3.762          	0.24
MS.486         	3.755          	0.192
MS.487         	3.747          	0.231
MS.488         	3.74           	0.201
MS.489         	3.732          	0.225
MS.490         	3.725          	0.214
MS.491         	3.717          	0.189
MS.492         	3.71           	0.215
MS.493         	3.702          	0.22
MS.494         	3.695          	0.209
MS.495         	3.688          	0.208
MS.496         	3.682          	0.184
MS.497         	3.675          	0.176
MS.498         	3.668          	0.167
MS.499         	3.66           	0.16
MS.500         	3.652          	0.205
MS.501         	3.645          	0.172
MS.502         	3.637          	0.165
MS.503         	3.63           	0.172
