File:              	C:\Qtrac\Data\ME2C30717A.QZD
Name:              	 ST14N
Protocol:          	MSCAN-MV
Date:              	17/7/23
Date of birth:     	14/4/00
Age:               	23
Sex:               	M
Temperature:       	33.5
S/R sites:         	Knee CF-TA
NC/disease:        	NC
Operator:          	BY
Comments:
M-SCAN DATA (Repeat 2/3, 17.2-10.7m)
Scanpts: 14, 31, 502, 532
Stim. (mA)     	Amp. (mV)
MS.1           	16             	3.483
MS.2           	16             	3.48
MS.3           	16             	3.495
MS.4           	16             	3.472
MS.5           	16             	3.486
MS.6           	16             	3.47
MS.7           	16             	3.484
MS.8           	16             	3.474
MS.9           	16             	3.458
MS.10          	16             	3.492
MS.11          	16             	3.459
MS.12          	16             	3.454
MS.13          	16             	3.469
MS.14          	16             	3.461
MS.15          	16             	3.471
MS.16          	16             	3.45
MS.17          	16             	3.454
MS.18          	16             	3.464
MS.19          	16             	3.456
MS.20          	16             	3.454
MS.21          	16             	3.453
MS.22          	16             	3.447
MS.23          	16             	3.438
MS.24          	15.967         	3.474
MS.25          	15.935         	3.448
MS.26          	15.905         	3.434
MS.27          	15.872         	3.453
MS.28          	15.84          	3.465
MS.29          	15.81          	3.446
MS.30          	15.777         	3.462
MS.31          	15.745         	3.443
MS.32          	15.715         	3.445
MS.33          	15.682         	3.45
MS.34          	15.652         	3.453
MS.35          	15.62          	3.45
MS.36          	15.59          	3.447
MS.37          	15.557         	3.454
MS.38          	15.527         	3.407
MS.39          	15.495         	3.429
MS.40          	15.465         	3.404
MS.41          	15.435         	3.409
MS.42          	15.402         	3.433
MS.43          	15.372         	3.43
MS.44          	15.342         	3.431
MS.45          	15.312         	3.412
MS.46          	15.28          	3.387
MS.47          	15.25          	3.412
MS.48          	15.22          	3.419
MS.49          	15.19          	3.415
MS.50          	15.16          	3.393
MS.51          	15.127         	3.376
MS.52          	15.097         	3.373
MS.53          	15.068         	3.389
MS.54          	15.037         	3.387
MS.55          	15.007         	3.387
MS.56          	14.977         	3.399
MS.57          	14.947         	3.357
MS.58          	14.917         	3.38
MS.59          	14.887         	3.371
MS.60          	14.858         	3.355
MS.61          	14.83          	3.38
MS.62          	14.8           	3.378
MS.63          	14.77          	3.391
MS.64          	14.74          	3.354
MS.65          	14.71          	3.369
MS.66          	14.682         	3.384
MS.67          	14.652         	3.371
MS.68          	14.622         	3.367
MS.69          	14.592         	3.354
MS.70          	14.565         	3.374
MS.71          	14.535         	3.359
MS.72          	14.507         	3.352
MS.73          	14.477         	3.342
MS.74          	14.447         	3.331
MS.75          	14.42          	3.327
MS.76          	14.39          	3.334
MS.77          	14.362         	3.315
MS.78          	14.332         	3.339
MS.79          	14.305         	3.336
MS.80          	14.275         	3.312
MS.81          	14.247         	3.318
MS.82          	14.22          	3.314
MS.83          	14.19          	3.306
MS.84          	14.162         	3.29
MS.85          	14.135         	3.298
MS.86          	14.105         	3.304
MS.87          	14.077         	3.283
MS.88          	14.05          	3.318
MS.89          	14.023         	3.279
MS.90          	13.992         	3.273
MS.91          	13.965         	3.262
MS.92          	13.938         	3.246
MS.93          	13.91          	3.244
MS.94          	13.882         	3.251
MS.95          	13.855         	3.264
MS.96          	13.827         	3.271
MS.97          	13.8           	3.214
MS.98          	13.773         	3.254
MS.99          	13.745         	3.265
MS.100         	13.717         	3.245
MS.101         	13.69          	3.26
MS.102         	13.662         	3.234
MS.103         	13.635         	3.24
MS.104         	13.608         	3.199
MS.105         	13.58          	3.228
MS.106         	13.552         	3.239
MS.107         	13.525         	3.253
MS.108         	13.497         	3.231
MS.109         	13.472         	3.254
MS.110         	13.445         	3.219
MS.111         	13.417         	3.209
MS.112         	13.39          	3.243
MS.113         	13.365         	3.181
MS.114         	13.337         	3.253
MS.115         	13.31          	3.21
MS.116         	13.285         	3.237
MS.117         	13.257         	3.262
MS.118         	13.233         	3.171
MS.119         	13.205         	3.209
MS.120         	13.177         	3.218
MS.121         	13.153         	3.231
MS.122         	13.125         	3.18
MS.123         	13.1           	3.221
MS.124         	13.072         	3.145
MS.125         	13.047         	3.131
MS.126         	13.023         	3.171
MS.127         	12.995         	3.149
MS.128         	12.97          	3.165
MS.129         	12.943         	3.133
MS.130         	12.917         	3.098
MS.131         	12.892         	3.122
MS.132         	12.865         	3.152
MS.133         	12.84          	3.137
MS.134         	12.815         	3.085
MS.135         	12.79          	3.167
MS.136         	12.762         	3.153
MS.137         	12.738         	3.135
MS.138         	12.712         	3.098
MS.139         	12.688         	3.073
MS.140         	12.662         	3.159
MS.141         	12.637         	3.106
MS.142         	12.61          	3.062
MS.143         	12.585         	3.071
MS.144         	12.56          	3.088
MS.145         	12.535         	3.09
MS.146         	12.51          	3.074
MS.147         	12.485         	3.031
MS.148         	12.46          	3.004
MS.149         	12.435         	3.035
MS.150         	12.41          	3.01
MS.151         	12.387         	2.974
MS.152         	12.363         	3.021
MS.153         	12.337         	3.024
MS.154         	12.312         	2.996
MS.155         	12.287         	3.037
MS.156         	12.262         	3.038
MS.157         	12.238         	2.99
MS.158         	12.215         	2.937
MS.159         	12.19          	2.961
MS.160         	12.165         	2.947
MS.161         	12.14          	2.932
MS.162         	12.117         	2.941
MS.163         	12.092         	2.91
MS.164         	12.068         	2.884
MS.165         	12.045         	2.841
MS.166         	12.02          	2.875
MS.167         	11.995         	2.808
MS.168         	11.972         	2.888
MS.169         	11.947         	2.825
MS.170         	11.925         	2.9
MS.171         	11.9           	2.861
MS.172         	11.877         	2.814
MS.173         	11.852         	2.852
MS.174         	11.83          	2.807
MS.175         	11.805         	2.843
MS.176         	11.782         	2.789
MS.177         	11.757         	2.846
MS.178         	11.735         	2.792
MS.179         	11.712         	2.759
MS.180         	11.688         	2.797
MS.181         	11.665         	2.795
MS.182         	11.642         	2.65
MS.183         	11.617         	2.735
MS.184         	11.595         	2.758
MS.185         	11.572         	2.707
MS.186         	11.55          	2.689
MS.187         	11.525         	2.68
MS.188         	11.502         	2.706
MS.189         	11.48          	2.619
MS.190         	11.457         	2.692
MS.191         	11.435         	2.655
MS.192         	11.41          	2.58
MS.193         	11.387         	2.585
MS.194         	11.365         	2.562
MS.195         	11.342         	2.592
MS.196         	11.32          	2.562
MS.197         	11.297         	2.577
MS.198         	11.275         	2.572
MS.199         	11.252         	2.606
MS.200         	11.23          	2.502
MS.201         	11.207         	2.529
MS.202         	11.185         	2.484
MS.203         	11.162         	2.452
MS.204         	11.14          	2.465
MS.205         	11.117         	2.505
MS.206         	11.095         	2.464
MS.207         	11.075         	2.466
MS.208         	11.052         	2.522
MS.209         	11.03          	2.411
MS.210         	11.007         	2.451
MS.211         	10.985         	2.421
MS.212         	10.962         	2.358
MS.213         	10.943         	2.418
MS.214         	10.92          	2.426
MS.215         	10.898         	2.383
MS.216         	10.877         	2.407
MS.217         	10.855         	2.33
MS.218         	10.832         	2.366
MS.219         	10.812         	2.357
MS.220         	10.79          	2.321
MS.221         	10.767         	2.322
MS.222         	10.747         	2.283
MS.223         	10.725         	2.172
MS.224         	10.702         	2.235
MS.225         	10.682         	2.161
MS.226         	10.66          	2.211
MS.227         	10.64          	2.214
MS.228         	10.617         	2.119
MS.229         	10.597         	2.145
MS.230         	10.575         	2.098
MS.231         	10.555         	2.13
MS.232         	10.535         	2.122
MS.233         	10.512         	2.036
MS.234         	10.492         	2.036
MS.235         	10.47          	2.034
MS.236         	10.45          	2.031
MS.237         	10.43          	1.905
MS.238         	10.407         	2.017
MS.239         	10.387         	1.924
MS.240         	10.367         	1.923
MS.241         	10.345         	1.971
MS.242         	10.325         	1.896
MS.243         	10.305         	1.876
MS.244         	10.285         	1.86
MS.245         	10.262         	1.908
MS.246         	10.242         	1.862
MS.247         	10.222         	1.764
MS.248         	10.202         	1.833
MS.249         	10.182         	1.721
MS.250         	10.162         	1.752
MS.251         	10.14          	1.687
MS.252         	10.12          	1.662
MS.253         	10.1           	1.615
MS.254         	10.08          	1.603
MS.255         	10.06          	1.622
MS.256         	10.04          	1.621
MS.257         	10.02          	1.703
MS.258         	10             	1.62
MS.259         	9.98           	1.613
MS.260         	9.96           	1.608
MS.261         	9.94           	1.528
MS.262         	9.92           	1.473
MS.263         	9.9            	1.58
MS.264         	9.88           	1.46
MS.265         	9.86           	1.479
MS.266         	9.842          	1.494
MS.267         	9.823          	1.453
MS.268         	9.802          	1.458
MS.269         	9.782          	1.452
MS.270         	9.762          	1.423
MS.271         	9.742          	1.477
MS.272         	9.725          	1.406
MS.273         	9.705          	1.404
MS.274         	9.685          	1.361
MS.275         	9.665          	1.344
MS.276         	9.648          	1.329
MS.277         	9.627          	1.269
MS.278         	9.608          	1.353
MS.279         	9.587          	1.323
MS.280         	9.57           	1.296
MS.281         	9.55           	1.308
MS.282         	9.532          	1.266
MS.283         	9.512          	1.274
MS.284         	9.492          	1.29
MS.285         	9.475          	1.287
MS.286         	9.455          	1.276
MS.287         	9.438          	1.193
MS.288         	9.417          	1.22
MS.289         	9.4            	1.179
MS.290         	9.38           	1.135
MS.291         	9.363          	1.121
MS.292         	9.342          	1.118
MS.293         	9.325          	1.129
MS.294         	9.305          	1.048
MS.295         	9.287          	1.057
MS.296         	9.267          	1.031
MS.297         	9.25           	1.022
MS.298         	9.23           	1.002
MS.299         	9.212          	0.842
MS.300         	9.195          	0.964
MS.301         	9.175          	0.944
MS.302         	9.158          	0.898
MS.303         	9.14           	0.905
MS.304         	9.12           	0.945
MS.305         	9.102          	0.866
MS.306         	9.085          	0.845
MS.307         	9.068          	0.848
MS.308         	9.047          	0.813
MS.309         	9.03           	0.858
MS.310         	9.012          	0.758
MS.311         	8.995          	0.855
MS.312         	8.977          	0.833
MS.313         	8.957          	0.784
MS.314         	8.94           	0.779
MS.315         	8.922          	0.77
MS.316         	8.905          	0.698
MS.317         	8.887          	0.663
MS.318         	8.87           	0.648
MS.319         	8.852          	0.68
MS.320         	8.835          	0.703
MS.321         	8.815          	0.673
MS.322         	8.797          	0.664
MS.323         	8.78           	0.666
MS.324         	8.762          	0.664
MS.325         	8.745          	0.61
MS.326         	8.727          	0.555
MS.327         	8.71           	0.598
MS.328         	8.693          	0.619
MS.329         	8.675          	0.615
MS.330         	8.66           	0.5
MS.331         	8.642          	0.583
MS.332         	8.625          	0.608
MS.333         	8.608          	0.588
MS.334         	8.59           	0.596
MS.335         	8.573          	0.501
MS.336         	8.555          	0.567
MS.337         	8.537          	0.518
MS.338         	8.523          	0.478
MS.339         	8.505          	0.499
MS.340         	8.488          	0.443
MS.341         	8.47           	0.447
MS.342         	8.452          	0.447
MS.343         	8.438          	0.461
MS.344         	8.42           	0.475
MS.345         	8.403          	0.424
MS.346         	8.385          	0.352
MS.347         	8.37           	0.353
MS.348         	8.352          	0.328
MS.349         	8.335          	0.306
MS.350         	8.32           	0.36
MS.351         	8.302          	0.276
MS.352         	8.285          	0.35
MS.353         	8.27           	0.331
MS.354         	8.252          	0.289
MS.355         	8.238          	0.322
MS.356         	8.22           	0.278
MS.357         	8.202          	0.295
MS.358         	8.188          	0.274
MS.359         	8.17           	0.292
MS.360         	8.155          	0.28
MS.361         	8.137          	0.274
MS.362         	8.122          	0.278
MS.363         	8.105          	0.27
MS.364         	8.09           	0.323
MS.365         	8.073          	0.234
MS.366         	8.057          	0.212
MS.367         	8.042          	0.225
MS.368         	8.025          	0.234
MS.369         	8.01           	0.25
MS.370         	7.992          	0.235
MS.371         	7.977          	0.239
MS.372         	7.962          	0.248
MS.373         	7.945          	0.214
MS.374         	7.93           	0.215
MS.375         	7.912          	0.211
MS.376         	7.898          	0.179
MS.377         	7.882          	0.144
MS.378         	7.867          	0.206
MS.379         	7.85           	0.181
MS.380         	7.835          	0.175
MS.381         	7.82           	0.147
MS.382         	7.802          	0.169
MS.383         	7.787          	0.167
MS.384         	7.773          	0.123
MS.385         	7.757          	0.148
MS.386         	7.742          	0.184
MS.387         	7.725          	0.122
MS.388         	7.71           	0.133
MS.389         	7.695          	0.12
MS.390         	7.68           	0.142
MS.391         	7.665          	0.145
MS.392         	7.65           	0.102
MS.393         	7.635          	0.132
MS.394         	7.617          	0.101
MS.395         	7.602          	0.092
MS.396         	7.587          	0.11
MS.397         	7.572          	0.094
MS.398         	7.557          	0.089
MS.399         	7.543          	0.069
MS.400         	7.527          	0.053
MS.401         	7.512          	0.131
MS.402         	7.497          	0.063
MS.403         	7.482          	0.09
MS.404         	7.467          	0.045
MS.405         	7.452          	0.052
MS.406         	7.438          	0.067
MS.407         	7.422          	0.054
MS.408         	7.407          	0.05
MS.409         	7.392          	0.037
MS.410         	7.378          	0.043
MS.411         	7.365          	0.04
MS.412         	7.35           	0.035
MS.413         	7.335          	0.039
MS.414         	7.32           	0.046
MS.415         	7.305          	0.027
MS.416         	7.29           	0.037
MS.417         	7.275          	0.039
MS.418         	7.262          	0.047
MS.419         	7.247          	0.041
MS.420         	7.233          	0.027
MS.421         	7.217          	0.024
MS.422         	7.202          	0.04
MS.423         	7.19           	0.032
MS.424         	7.175          	0.034
MS.425         	7.16           	0.031
MS.426         	7.148          	0.014
MS.427         	7.132          	0.029
MS.428         	7.117          	0.027
MS.429         	7.102          	0.023
MS.430         	7.09           	0.027
MS.431         	7.075          	0.02
MS.432         	7.06           	0.015
MS.433         	7.047          	0.023
MS.434         	7.032          	0.007
MS.435         	7.02           	0.022
MS.436         	7.005          	0.011
MS.437         	6.99           	0.026
MS.438         	6.977          	0.031
MS.439         	6.962          	0.018
MS.440         	6.95           	0.001
MS.441         	6.935          	0.015
MS.442         	6.92           	0.001
MS.443         	6.907          	0.018
MS.444         	6.892          	0.012
MS.445         	6.88           	0.002
MS.446         	6.865          	0.009
MS.447         	6.852          	0.015
MS.448         	6.837          	0.022
MS.449         	6.825          	0.016
MS.450         	6.812          	0.014
MS.451         	6.797          	0.02
MS.452         	6.785          	0.02
MS.453         	6.77           	-0.006
MS.454         	6.757          	-0.004
MS.455         	6.742          	0.012
MS.456         	6.73           	0.013
MS.457         	6.717          	-0.005
MS.458         	6.702          	-0.007
MS.459         	6.69           	0.004
MS.460         	6.677          	0.02
MS.461         	6.662          	-0.009
MS.462         	6.65           	-0.002
MS.463         	6.637          	0.001
MS.464         	6.622          	-0.004
MS.465         	6.61           	-0.005
MS.466         	6.597          	0.000
MS.467         	6.582          	0.011
MS.468         	6.57           	-0.016
MS.469         	6.557          	-0.021
MS.470         	6.545          	-0.008
MS.471         	6.53           	-0.005
MS.472         	6.517          	-0.02
MS.473         	6.505          	-0.007
MS.474         	6.492          	-0.002
MS.475         	6.48           	-0.005
MS.476         	6.465          	-0.005
MS.477         	6.452          	-0.022
MS.478         	6.44           	-0.02
MS.479         	6.427          	-0.004
MS.480         	6.415          	-0.023
MS.481         	6.402          	-0.005
MS.482         	6.39           	-0.016
MS.483         	6.378          	-0.005
MS.484         	6.362          	-0.018
MS.485         	6.35           	-0.018
MS.486         	6.338          	-0.021
MS.487         	6.325          	-0.018
MS.488         	6.312          	-0.016
MS.489         	6.3            	-0.005
MS.490         	6.287          	-0.015
MS.491         	6.275          	-0.02
MS.492         	6.262          	-0.018
MS.493         	6.25           	-0.02
MS.494         	6.237          	-0.004
MS.495         	6.225          	-0.02
MS.496         	6.213          	-0.021
MS.497         	6.2            	-0.021
MS.498         	6.188          	-0.016
MS.499         	6.175          	-0.024
MS.500         	6.162          	-0.021
MS.501         	6.15           	-0.021
MS.502         	6.137          	-0.02
