File:              	C:\Qtrac\Data\ME2C30630D.QZD
Name:              	 ME25D
Protocol:          	MSCAN-MV
Date:              	30/6/23
Date of birth:     	25/8/01
Age:               	21
Sex:               	M
Temperature:       	33.1
S/R sites:         	Knee CF-TA
NC/disease:        	NC
Operator:          	BY
Comments:
M-SCAN DATA (Repeat 1/3, 12.4-4m)
Scanpts: 1, 10, 600, 615
Stim. (mA)     	Amp. (mV)
MS.1           	13.5           	1.95
MS.2           	13.5           	1.984
MS.3           	13.5           	1.951
MS.4           	13.5           	1.963
MS.5           	13.5           	2.004
MS.6           	13.5           	1.973
MS.7           	13.5           	1.987
MS.8           	13.5           	1.962
MS.9           	13.5           	1.986
MS.10          	13.5           	1.99
MS.11          	13.5           	1.976
MS.12          	13.5           	1.955
MS.13          	13.5           	2.007
MS.14          	13.5           	1.923
MS.15          	13.5           	2.004
MS.16          	13.5           	1.969
MS.17          	13.5           	2.004
MS.18          	13.5           	1.997
MS.19          	13.5           	1.984
MS.20          	13.5           	1.971
MS.21          	13.5           	1.963
MS.22          	13.5           	1.956
MS.23          	13.5           	1.962
MS.24          	13.445         	1.923
MS.25          	13.42          	1.935
MS.26          	13.392         	1.977
MS.27          	13.365         	1.911
MS.28          	13.34          	1.9
MS.29          	13.312         	1.946
MS.30          	13.285         	1.926
MS.31          	13.26          	1.917
MS.32          	13.233         	1.96
MS.33          	13.205         	1.93
MS.34          	13.18          	1.922
MS.35          	13.153         	1.946
MS.36          	13.127         	1.921
MS.37          	13.1           	1.918
MS.38          	13.075         	1.892
MS.39          	13.047         	1.902
MS.40          	13.023         	1.918
MS.41          	12.997         	1.935
MS.42          	12.97          	1.883
MS.43          	12.945         	1.876
MS.44          	12.92          	1.888
MS.45          	12.892         	1.926
MS.46          	12.867         	1.888
MS.47          	12.842         	1.918
MS.48          	12.815         	1.897
MS.49          	12.79          	1.897
MS.50          	12.765         	1.899
MS.51          	12.74          	1.899
MS.52          	12.715         	1.893
MS.53          	12.688         	1.887
MS.54          	12.662         	1.878
MS.55          	12.637         	1.901
MS.56          	12.613         	1.91
MS.57          	12.587         	1.888
MS.58          	12.562         	1.902
MS.59          	12.537         	1.885
MS.60          	12.512         	1.895
MS.61          	12.488         	1.918
MS.62          	12.462         	1.895
MS.63          	12.438         	1.907
MS.64          	12.412         	1.879
MS.65          	12.387         	1.886
MS.66          	12.363         	1.887
MS.67          	12.337         	1.891
MS.68          	12.312         	1.884
MS.69          	12.29          	1.887
MS.70          	12.265         	1.87
MS.71          	12.24          	1.858
MS.72          	12.215         	1.89
MS.73          	12.19          	1.888
MS.74          	12.167         	1.873
MS.75          	12.142         	1.877
MS.76          	12.117         	1.882
MS.77          	12.092         	1.877
MS.78          	12.07          	1.91
MS.79          	12.045         	1.866
MS.80          	12.023         	1.831
MS.81          	11.997         	1.85
MS.82          	11.972         	1.898
MS.83          	11.95          	1.846
MS.84          	11.925         	1.857
MS.85          	11.903         	1.843
MS.86          	11.877         	1.878
MS.87          	11.855         	1.879
MS.88          	11.83          	1.851
MS.89          	11.807         	1.834
MS.90          	11.782         	1.836
MS.91          	11.76          	1.837
MS.92          	11.738         	1.835
MS.93          	11.712         	1.83
MS.94          	11.69          	1.828
MS.95          	11.665         	1.867
MS.96          	11.642         	1.855
MS.97          	11.62          	1.807
MS.98          	11.597         	1.841
MS.99          	11.572         	1.831
MS.100         	11.55          	1.802
MS.101         	11.528         	1.819
MS.102         	11.505         	1.816
MS.103         	11.48          	1.832
MS.104         	11.457         	1.788
MS.105         	11.435         	1.805
MS.106         	11.412         	1.809
MS.107         	11.39          	1.816
MS.108         	11.367         	1.829
MS.109         	11.345         	1.796
MS.110         	11.322         	1.793
MS.111         	11.297         	1.807
MS.112         	11.275         	1.792
MS.113         	11.252         	1.801
MS.114         	11.23          	1.784
MS.115         	11.207         	1.783
MS.116         	11.188         	1.801
MS.117         	11.165         	1.816
MS.118         	11.142         	1.796
MS.119         	11.12          	1.795
MS.120         	11.097         	1.787
MS.121         	11.075         	1.779
MS.122         	11.052         	1.788
MS.123         	11.03          	1.788
MS.124         	11.007         	1.799
MS.125         	10.988         	1.797
MS.126         	10.965         	1.799
MS.127         	10.943         	1.774
MS.128         	10.92          	1.763
MS.129         	10.9           	1.765
MS.130         	10.877         	1.78
MS.131         	10.855         	1.759
MS.132         	10.835         	1.786
MS.133         	10.812         	1.776
MS.134         	10.79          	1.774
MS.135         	10.77          	1.783
MS.136         	10.747         	1.783
MS.137         	10.725         	1.779
MS.138         	10.705         	1.76
MS.139         	10.682         	1.791
MS.140         	10.662         	1.791
MS.141         	10.64          	1.769
MS.142         	10.62          	1.747
MS.143         	10.597         	1.758
MS.144         	10.577         	1.768
MS.145         	10.555         	1.763
MS.146         	10.535         	1.771
MS.147         	10.515         	1.783
MS.148         	10.492         	1.771
MS.149         	10.472         	1.741
MS.150         	10.45          	1.787
MS.151         	10.43          	1.759
MS.152         	10.41          	1.759
MS.153         	10.387         	1.763
MS.154         	10.367         	1.739
MS.155         	10.347         	1.754
MS.156         	10.325         	1.756
MS.157         	10.305         	1.769
MS.158         	10.285         	1.77
MS.159         	10.265         	1.746
MS.160         	10.245         	1.766
MS.161         	10.222         	1.76
MS.162         	10.202         	1.801
MS.163         	10.182         	1.755
MS.164         	10.162         	1.763
MS.165         	10.142         	1.763
MS.166         	10.122         	1.759
MS.167         	10.102         	1.746
MS.168         	10.082         	1.76
MS.169         	10.06          	1.748
MS.170         	10.04          	1.735
MS.171         	10.02          	1.775
MS.172         	10             	1.762
MS.173         	9.98           	1.743
MS.174         	9.96           	1.766
MS.175         	9.94           	1.76
MS.176         	9.922          	1.811
MS.177         	9.903          	1.772
MS.178         	9.882          	1.793
MS.179         	9.863          	1.735
MS.180         	9.842          	1.763
MS.181         	9.823          	1.743
MS.182         	9.802          	1.761
MS.183         	9.782          	1.783
MS.184         	9.765          	1.795
MS.185         	9.745          	1.75
MS.186         	9.725          	1.741
MS.187         	9.705          	1.751
MS.188         	9.685          	1.79
MS.189         	9.667          	1.74
MS.190         	9.648          	1.731
MS.191         	9.627          	1.811
MS.192         	9.61           	1.736
MS.193         	9.59           	1.801
MS.194         	9.57           	1.724
MS.195         	9.552          	1.721
MS.196         	9.532          	1.725
MS.197         	9.512          	1.756
MS.198         	9.495          	1.756
MS.199         	9.475          	1.699
MS.200         	9.457          	1.716
MS.201         	9.438          	1.711
MS.202         	9.417          	1.75
MS.203         	9.4            	1.68
MS.204         	9.38           	1.752
MS.205         	9.363          	1.743
MS.206         	9.342          	1.799
MS.207         	9.325          	1.74
MS.208         	9.305          	1.717
MS.209         	9.287          	1.697
MS.210         	9.27           	1.693
MS.211         	9.25           	1.661
MS.212         	9.233          	1.744
MS.213         	9.212          	1.615
MS.214         	9.195          	1.686
MS.215         	9.177          	1.641
MS.216         	9.158          	1.61
MS.217         	9.14           	1.646
MS.218         	9.122          	1.63
MS.219         	9.102          	1.73
MS.220         	9.085          	1.65
MS.221         	9.068          	1.636
MS.222         	9.05           	1.638
MS.223         	9.03           	1.657
MS.224         	9.012          	1.683
MS.225         	8.995          	1.68
MS.226         	8.977          	1.68
MS.227         	8.96           	1.648
MS.228         	8.943          	1.638
MS.229         	8.922          	1.642
MS.230         	8.905          	1.663
MS.231         	8.887          	1.674
MS.232         	8.87           	1.646
MS.233         	8.852          	1.739
MS.234         	8.835          	1.697
MS.235         	8.818          	1.633
MS.236         	8.8            	1.721
MS.237         	8.783          	1.686
MS.238         	8.765          	1.7
MS.239         	8.747          	1.703
MS.240         	8.73           	1.602
MS.241         	8.712          	1.652
MS.242         	8.695          	1.651
MS.243         	8.677          	1.662
MS.244         	8.66           	1.654
MS.245         	8.642          	1.744
MS.246         	8.625          	1.691
MS.247         	8.608          	1.599
MS.248         	8.59           	1.634
MS.249         	8.573          	1.589
MS.250         	8.557          	1.591
MS.251         	8.54           	1.697
MS.252         	8.523          	1.635
MS.253         	8.505          	1.671
MS.254         	8.488          	1.68
MS.255         	8.472          	1.626
MS.256         	8.455          	1.627
MS.257         	8.438          	1.622
MS.258         	8.42           	1.66
MS.259         	8.405          	1.614
MS.260         	8.387          	1.617
MS.261         	8.37           	1.613
MS.262         	8.352          	1.684
MS.263         	8.337          	1.647
MS.264         	8.32           	1.625
MS.265         	8.302          	1.637
MS.266         	8.287          	1.614
MS.267         	8.27           	1.649
MS.268         	8.255          	1.643
MS.269         	8.238          	1.638
MS.270         	8.22           	1.613
MS.271         	8.205          	1.646
MS.272         	8.188          	1.636
MS.273         	8.172          	1.64
MS.274         	8.155          	1.605
MS.275         	8.14           	1.591
MS.276         	8.122          	1.626
MS.277         	8.108          	1.636
MS.278         	8.09           	1.633
MS.279         	8.075          	1.604
MS.280         	8.057          	1.617
MS.281         	8.042          	1.555
MS.282         	8.025          	1.604
MS.283         	8.01           	1.637
MS.284         	7.995          	1.631
MS.285         	7.977          	1.564
MS.286         	7.962          	1.587
MS.287         	7.945          	1.59
MS.288         	7.93           	1.638
MS.289         	7.915          	1.595
MS.290         	7.898          	1.597
MS.291         	7.882          	1.606
MS.292         	7.867          	1.644
MS.293         	7.852          	1.562
MS.294         	7.835          	1.661
MS.295         	7.82           	1.615
MS.296         	7.805          	1.688
MS.297         	7.79           	1.681
MS.298         	7.773          	1.617
MS.299         	7.757          	1.602
MS.300         	7.742          	1.68
MS.301         	7.727          	1.641
MS.302         	7.712          	1.639
MS.303         	7.695          	1.622
MS.304         	7.68           	1.622
MS.305         	7.665          	1.596
MS.306         	7.65           	1.682
MS.307         	7.635          	1.628
MS.308         	7.62           	1.613
MS.309         	7.605          	1.595
MS.310         	7.59           	1.618
MS.311         	7.572          	1.591
MS.312         	7.557          	1.641
MS.313         	7.543          	1.682
MS.314         	7.527          	1.57
MS.315         	7.512          	1.653
MS.316         	7.497          	1.586
MS.317         	7.482          	1.62
MS.318         	7.467          	1.553
MS.319         	7.452          	1.52
MS.320         	7.438          	1.587
MS.321         	7.425          	1.606
MS.322         	7.41           	1.558
MS.323         	7.395          	1.573
MS.324         	7.38           	1.575
MS.325         	7.365          	1.514
MS.326         	7.35           	1.537
MS.327         	7.335          	1.558
MS.328         	7.32           	1.622
MS.329         	7.305          	1.534
MS.330         	7.293          	1.564
MS.331         	7.277          	1.515
MS.332         	7.262          	1.515
MS.333         	7.247          	1.549
MS.334         	7.233          	1.551
MS.335         	7.22           	1.528
MS.336         	7.205          	1.533
MS.337         	7.19           	1.479
MS.338         	7.175          	1.562
MS.339         	7.162          	1.482
MS.340         	7.148          	1.482
MS.341         	7.132          	1.479
MS.342         	7.117          	1.484
MS.343         	7.105          	1.488
MS.344         	7.09           	1.473
MS.345         	7.075          	1.472
MS.346         	7.062          	1.508
MS.347         	7.047          	1.483
MS.348         	7.032          	1.459
MS.349         	7.02           	1.51
MS.350         	7.005          	1.489
MS.351         	6.992          	1.554
MS.352         	6.977          	1.452
MS.353         	6.962          	1.462
MS.354         	6.95           	1.462
MS.355         	6.935          	1.486
MS.356         	6.922          	1.447
MS.357         	6.907          	1.475
MS.358         	6.895          	1.469
MS.359         	6.88           	1.465
MS.360         	6.867          	1.455
MS.361         	6.852          	1.42
MS.362         	6.84           	1.473
MS.363         	6.825          	1.44
MS.364         	6.812          	1.435
MS.365         	6.797          	1.467
MS.366         	6.785          	1.489
MS.367         	6.773          	1.437
MS.368         	6.757          	1.434
MS.369         	6.745          	1.43
MS.370         	6.73           	1.44
MS.371         	6.717          	1.478
MS.372         	6.705          	1.413
MS.373         	6.69           	1.392
MS.374         	6.677          	1.432
MS.375         	6.665          	1.395
MS.376         	6.65           	1.36
MS.377         	6.637          	1.374
MS.378         	6.625          	1.334
MS.379         	6.61           	1.398
MS.380         	6.597          	1.351
MS.381         	6.585          	1.367
MS.382         	6.57           	1.345
MS.383         	6.557          	1.368
MS.384         	6.545          	1.373
MS.385         	6.532          	1.335
MS.386         	6.52           	1.37
MS.387         	6.505          	1.304
MS.388         	6.492          	1.329
MS.389         	6.48           	1.356
MS.390         	6.467          	1.296
MS.391         	6.455          	1.277
MS.392         	6.44           	1.231
MS.393         	6.427          	1.315
MS.394         	6.415          	1.285
MS.395         	6.402          	1.302
MS.396         	6.39           	1.243
MS.397         	6.378          	1.232
MS.398         	6.365          	1.259
MS.399         	6.352          	1.202
MS.400         	6.34           	1.216
MS.401         	6.325          	1.239
MS.402         	6.312          	1.172
MS.403         	6.3            	1.126
MS.404         	6.287          	1.244
MS.405         	6.275          	1.14
MS.406         	6.262          	1.085
MS.407         	6.25           	1.19
MS.408         	6.237          	1.152
MS.409         	6.225          	1.148
MS.410         	6.213          	1.097
MS.411         	6.2            	1.113
MS.412         	6.188          	1.057
MS.413         	6.175          	1.096
MS.414         	6.165          	1.069
MS.415         	6.152          	1.055
MS.416         	6.14           	1.044
MS.417         	6.128          	1.085
MS.418         	6.115          	1.024
MS.419         	6.102          	1.047
MS.420         	6.09           	1.05
MS.421         	6.077          	1.042
MS.422         	6.065          	0.994
MS.423         	6.055          	0.991
MS.424         	6.043          	1.003
MS.425         	6.03           	1.001
MS.426         	6.017          	0.994
MS.427         	6.005          	0.964
MS.428         	5.992          	0.995
MS.429         	5.983          	0.999
MS.430         	5.97           	0.98
MS.431         	5.957          	0.933
MS.432         	5.945          	0.955
MS.433         	5.935          	0.943
MS.434         	5.922          	0.991
MS.435         	5.91           	0.895
MS.436         	5.898          	0.897
MS.437         	5.887          	0.935
MS.438         	5.875          	0.924
MS.439         	5.862          	0.912
MS.440         	5.852          	0.902
MS.441         	5.84           	0.846
MS.442         	5.827          	0.869
MS.443         	5.817          	0.87
MS.444         	5.805          	0.836
MS.445         	5.793          	0.825
MS.446         	5.782          	0.813
MS.447         	5.77           	0.837
MS.448         	5.757          	0.786
MS.449         	5.747          	0.793
MS.450         	5.735          	0.745
MS.451         	5.725          	0.809
MS.452         	5.713          	0.76
MS.453         	5.702          	0.763
MS.454         	5.69           	0.707
MS.455         	5.677          	0.702
MS.456         	5.668          	0.701
MS.457         	5.655          	0.772
MS.458         	5.645          	0.703
MS.459         	5.632          	0.672
MS.460         	5.622          	0.668
MS.461         	5.61           	0.711
MS.462         	5.6            	0.701
MS.463         	5.588          	0.604
MS.464         	5.577          	0.651
MS.465         	5.565          	0.654
MS.466         	5.555          	0.69
MS.467         	5.545          	0.721
MS.468         	5.532          	0.667
MS.469         	5.523          	0.63
MS.470         	5.51           	0.661
MS.471         	5.5            	0.602
MS.472         	5.487          	0.673
MS.473         	5.477          	0.599
MS.474         	5.467          	0.632
MS.475         	5.455          	0.56
MS.476         	5.445          	0.672
MS.477         	5.435          	0.558
MS.478         	5.422          	0.593
MS.479         	5.412          	0.504
MS.480         	5.402          	0.621
MS.481         	5.39           	0.65
MS.482         	5.38           	0.599
MS.483         	5.37           	0.54
MS.484         	5.358          	0.488
MS.485         	5.347          	0.523
MS.486         	5.338          	0.508
MS.487         	5.327          	0.602
MS.488         	5.315          	0.551
MS.489         	5.305          	0.536
MS.490         	5.295          	0.524
MS.491         	5.285          	0.522
MS.492         	5.273          	0.534
MS.493         	5.262          	0.411
MS.494         	5.253          	0.471
MS.495         	5.242          	0.426
MS.496         	5.233          	0.436
MS.497         	5.22           	0.352
MS.498         	5.21           	0.428
MS.499         	5.2            	0.399
MS.500         	5.19           	0.351
MS.501         	5.18           	0.315
MS.502         	5.17           	0.322
MS.503         	5.157          	0.324
