File:              	C:\Qtrac\Data\ME2C30627B.QZD
Name:              	 CD18O
Protocol:          	MSCAN-MV
Date:              	27/6/23
Date of birth:     	18/5/84
Age:               	39
Sex:               	M
Temperature:       	34.2
S/R sites:         	Knee CF-TA
NC/disease:        	NC
Operator:          	BY
Comments:
M-SCAN DATA (Repeat 2/3, 27.7-16.9m)
Scanpts: 67, 86, 782, 812
Stim. (mA)     	Amp. (mV)
MS.1           	8              	5.037
MS.2           	8              	5.039
MS.3           	7.985          	5.04
MS.4           	7.967          	5.027
MS.5           	7.952          	5.03
MS.6           	7.938          	5.036
MS.7           	7.92           	5.027
MS.8           	7.905          	5.027
MS.9           	7.89           	5.023
MS.10          	7.872          	5.013
MS.11          	7.857          	5.04
MS.12          	7.842          	5.029
MS.13          	7.825          	5.039
MS.14          	7.81           	5.027
MS.15          	7.795          	5.016
MS.16          	7.78           	5.03
MS.17          	7.762          	5.013
MS.18          	7.747          	5.03
MS.19          	7.732          	5.024
MS.20          	7.717          	5.02
MS.21          	7.702          	5.02
MS.22          	7.688          	5.021
MS.23          	7.67           	5.022
MS.24          	7.655          	5.021
MS.25          	7.64           	5.027
MS.26          	7.625          	5.021
MS.27          	7.61           	5.022
MS.28          	7.595          	5.021
MS.29          	7.58           	5.017
MS.30          	7.565          	5.018
MS.31          	7.55           	5.019
MS.32          	7.535          	5.031
MS.33          	7.52           	5.02
MS.34          	7.505          	5.015
MS.35          	7.49           	5.024
MS.36          	7.475          	5.022
MS.37          	7.46           	5.026
MS.38          	7.445          	5.023
MS.39          	7.43           	5.022
MS.40          	7.415          	5.027
MS.41          	7.4            	5.015
MS.42          	7.385          	5.018
MS.43          	7.37           	5.012
MS.44          	7.355          	5.015
MS.45          	7.34           	5.01
MS.46          	7.325          	5.015
MS.47          	7.312          	5.024
MS.48          	7.297          	5.009
MS.49          	7.282          	5.005
MS.50          	7.267          	5.007
MS.51          	7.253          	5.005
MS.52          	7.237          	5.02
MS.53          	7.225          	5.012
MS.54          	7.21           	5.027
MS.55          	7.195          	5.023
MS.56          	7.18           	5.017
MS.57          	7.168          	5.054
MS.58          	7.152          	5.049
MS.59          	7.137          	5.059
MS.60          	7.125          	5.058
MS.61          	7.11           	5.063
MS.62          	7.095          	5.068
MS.63          	7.08           	5.065
MS.64          	7.067          	5.057
MS.65          	7.052          	5.052
MS.66          	7.04           	5.059
MS.67          	7.025          	5.052
MS.68          	7.01           	5.056
MS.69          	6.997          	5.058
MS.70          	6.983          	5.048
MS.71          	6.97           	5.065
MS.72          	6.955          	5.059
MS.73          	6.94           	5.062
MS.74          	6.927          	5.056
MS.75          	6.912          	5.052
MS.76          	6.9            	5.057
MS.77          	6.885          	5.041
MS.78          	6.872          	5.045
MS.79          	6.858          	5.068
MS.80          	6.845          	5.033
MS.81          	6.83           	5.06
MS.82          	6.817          	5.056
MS.83          	6.802          	5.051
MS.84          	6.79           	5.053
MS.85          	6.777          	5.051
MS.86          	6.762          	5.039
MS.87          	6.75           	5.045
MS.88          	6.735          	5.06
MS.89          	6.722          	5.037
MS.90          	6.71           	5.045
MS.91          	6.695          	5.024
MS.92          	6.682          	5.048
MS.93          	6.67           	5.051
MS.94          	6.655          	5.016
MS.95          	6.642          	5.029
MS.96          	6.63           	5.034
MS.97          	6.615          	5.027
MS.98          	6.602          	5.028
MS.99          	6.59           	5.021
MS.100         	6.575          	5.018
MS.101         	6.562          	5.027
MS.102         	6.55           	5.02
MS.103         	6.537          	5.031
MS.104         	6.523          	5.032
MS.105         	6.51           	5.022
MS.106         	6.497          	5.018
MS.107         	6.485          	5.024
MS.108         	6.472          	5.02
MS.109         	6.46           	5.051
MS.110         	6.445          	5.027
MS.111         	6.432          	5.036
MS.112         	6.42           	5.023
MS.113         	6.407          	5.024
MS.114         	6.395          	5.001
MS.115         	6.382          	5.044
MS.116         	6.37           	5.045
MS.117         	6.358          	5.02
MS.118         	6.342          	4.997
MS.119         	6.33           	5.018
MS.120         	6.317          	5.021
MS.121         	6.305          	4.984
MS.122         	6.293          	4.999
MS.123         	6.28           	4.998
MS.124         	6.267          	4.962
MS.125         	6.255          	4.993
MS.126         	6.242          	5.013
MS.127         	6.23           	5.012
MS.128         	6.217          	4.955
MS.129         	6.205          	4.974
MS.130         	6.192          	4.967
MS.131         	6.18           	4.973
MS.132         	6.168          	4.99
MS.133         	6.155          	4.935
MS.134         	6.145          	4.929
MS.135         	6.132          	4.963
MS.136         	6.12           	4.961
MS.137         	6.108          	4.888
MS.138         	6.095          	4.926
MS.139         	6.082          	4.897
MS.140         	6.07           	4.962
MS.141         	6.057          	4.935
MS.142         	6.047          	4.908
MS.143         	6.035          	4.951
MS.144         	6.023          	4.939
MS.145         	6.01           	4.926
MS.146         	5.997          	4.927
MS.147         	5.985          	4.946
MS.148         	5.975          	4.907
MS.149         	5.963          	4.855
MS.150         	5.95           	4.873
MS.151         	5.938          	4.907
MS.152         	5.927          	4.915
MS.153         	5.915          	4.87
MS.154         	5.902          	4.902
MS.155         	5.89           	4.86
MS.156         	5.88           	4.865
MS.157         	5.867          	4.872
MS.158         	5.855          	4.861
MS.159         	5.845          	4.833
MS.160         	5.832          	4.882
MS.161         	5.82           	4.89
MS.162         	5.81           	4.969
MS.163         	5.797          	4.973
MS.164         	5.785          	4.834
MS.165         	5.775          	4.833
MS.166         	5.762          	4.833
MS.167         	5.753          	4.827
MS.168         	5.74           	4.839
MS.169         	5.727          	4.798
MS.170         	5.717          	4.942
MS.171         	5.705          	4.941
MS.172         	5.695          	4.817
MS.173         	5.682          	4.815
MS.174         	5.672          	4.923
MS.175         	5.66           	4.778
MS.176         	5.65           	4.933
MS.177         	5.637          	4.825
MS.178         	5.625          	4.86
MS.179         	5.615          	4.756
MS.180         	5.605          	4.86
MS.181         	5.592          	4.783
MS.182         	5.582          	4.891
MS.183         	5.57           	4.835
MS.184         	5.56           	4.879
MS.185         	5.547          	4.813
MS.186         	5.537          	4.875
MS.187         	5.525          	4.935
MS.188         	5.515          	4.918
MS.189         	5.505          	4.917
MS.190         	5.492          	4.811
MS.191         	5.483          	4.819
MS.192         	5.47           	4.91
MS.193         	5.46           	4.904
MS.194         	5.45           	4.855
MS.195         	5.438          	4.898
MS.196         	5.427          	4.814
MS.197         	5.418          	4.922
MS.198         	5.405          	4.894
MS.199         	5.395          	4.868
MS.200         	5.385          	4.875
MS.201         	5.372          	4.804
MS.202         	5.362          	4.875
MS.203         	5.352          	4.849
MS.204         	5.34           	4.838
MS.205         	5.33           	4.831
MS.206         	5.32           	4.899
MS.207         	5.31           	4.888
MS.208         	5.297          	4.899
MS.209         	5.287          	4.789
MS.210         	5.277          	4.896
MS.211         	5.267          	4.863
MS.212         	5.257          	4.799
MS.213         	5.245          	4.808
MS.214         	5.235          	4.847
MS.215         	5.225          	4.85
MS.216         	5.215          	4.802
MS.217         	5.205          	4.804
MS.218         	5.193          	4.752
MS.219         	5.182          	4.874
MS.220         	5.172          	4.855
MS.221         	5.162          	4.728
MS.222         	5.152          	4.846
MS.223         	5.142          	4.81
MS.224         	5.132          	4.749
MS.225         	5.122          	4.728
MS.226         	5.11           	4.826
MS.227         	5.1            	4.8
MS.228         	5.09           	4.83
MS.229         	5.08           	4.828
MS.230         	5.07           	4.803
MS.231         	5.06           	4.845
MS.232         	5.05           	4.817
MS.233         	5.04           	4.788
MS.234         	5.03           	4.8
MS.235         	5.02           	4.785
MS.236         	5.01           	4.742
MS.237         	5              	4.781
MS.238         	4.99           	4.794
MS.239         	4.98           	4.692
MS.240         	4.97           	4.729
MS.241         	4.96           	4.8
MS.242         	4.95           	4.587
MS.243         	4.94           	4.796
MS.244         	4.93           	4.429
MS.245         	4.92           	4.631
MS.246         	4.91           	4.59
MS.247         	4.9            	4.562
MS.248         	4.89           	4.741
MS.249         	4.882          	4.655
MS.250         	4.872          	4.481
MS.251         	4.862          	4.604
MS.252         	4.852          	4.549
MS.253         	4.842          	4.703
MS.254         	4.832          	4.689
MS.255         	4.822          	4.431
MS.256         	4.812          	4.603
MS.257         	4.805          	4.769
MS.258         	4.795          	4.423
MS.259         	4.785          	4.466
MS.260         	4.775          	4.469
MS.261         	4.765          	4.547
MS.262         	4.755          	4.52
MS.263         	4.747          	4.676
MS.264         	4.737          	4.551
MS.265         	4.727          	4.484
MS.266         	4.717          	4.399
MS.267         	4.71           	4.579
MS.268         	4.7            	4.429
MS.269         	4.69           	4.426
MS.270         	4.68           	4.496
MS.271         	4.673          	4.449
MS.272         	4.662          	4.516
MS.273         	4.652          	4.461
MS.274         	4.642          	4.484
MS.275         	4.635          	4.506
MS.276         	4.625          	4.356
MS.277         	4.615          	4.459
MS.278         	4.608          	4.357
MS.279         	4.597          	4.454
MS.280         	4.588          	4.413
MS.281         	4.58           	4.393
MS.282         	4.57           	4.241
MS.283         	4.56           	4.406
MS.284         	4.552          	4.344
MS.285         	4.543          	4.269
MS.286         	4.532          	4.364
MS.287         	4.525          	4.261
MS.288         	4.515          	4.33
MS.289         	4.505          	4.334
MS.290         	4.497          	4.348
MS.291         	4.487          	4.297
MS.292         	4.48           	4.282
MS.293         	4.47           	4.189
MS.294         	4.463          	4.138
MS.295         	4.452          	4.25
MS.296         	4.443          	4.185
MS.297         	4.435          	4.271
MS.298         	4.425          	4.156
MS.299         	4.418          	4.194
MS.300         	4.407          	4.136
MS.301         	4.4            	4.178
MS.302         	4.39           	4.213
MS.303         	4.382          	4.066
MS.304         	4.372          	4.077
MS.305         	4.365          	4.102
MS.306         	4.355          	4.109
MS.307         	4.347          	3.957
MS.308         	4.338          	4.11
MS.309         	4.33           	3.957
MS.310         	4.32           	4.019
MS.311         	4.312          	3.971
MS.312         	4.302          	3.954
MS.313         	4.295          	3.966
MS.314         	4.287          	3.931
MS.315         	4.277          	3.845
MS.316         	4.27           	3.929
MS.317         	4.26           	3.776
MS.318         	4.253          	3.842
MS.319         	4.242          	3.856
MS.320         	4.235          	3.838
MS.321         	4.227          	3.742
MS.322         	4.217          	3.722
MS.323         	4.21           	3.698
MS.324         	4.202          	3.792
MS.325         	4.193          	3.823
MS.326         	4.185          	3.679
MS.327         	4.177          	3.602
MS.328         	4.168          	3.64
MS.329         	4.16           	3.684
MS.330         	4.152          	3.706
MS.331         	4.142          	3.622
MS.332         	4.135          	3.573
MS.333         	4.128          	3.519
MS.334         	4.117          	3.602
MS.335         	4.11           	3.539
MS.336         	4.102          	3.489
MS.337         	4.092          	3.475
MS.338         	4.085          	3.45
MS.339         	4.077          	3.502
MS.340         	4.07           	3.5
MS.341         	4.06           	3.492
MS.342         	4.052          	3.482
MS.343         	4.045          	3.427
MS.344         	4.037          	3.433
MS.345         	4.027          	3.384
MS.346         	4.02           	3.419
MS.347         	4.012          	3.452
MS.348         	4.005          	3.257
MS.349         	3.997          	3.395
MS.350         	3.987          	3.375
MS.351         	3.98           	3.22
MS.352         	3.972          	3.358
MS.353         	3.965          	3.4
MS.354         	3.957          	3.298
MS.355         	3.95           	3.223
MS.356         	3.94           	3.311
MS.357         	3.932          	3.186
MS.358         	3.925          	3.342
MS.359         	3.918          	3.226
MS.360         	3.91           	3.141
MS.361         	3.902          	3.18
MS.362         	3.895          	3.227
MS.363         	3.885          	3.126
MS.364         	3.877          	3.123
MS.365         	3.87           	3.164
MS.366         	3.862          	3.115
MS.367         	3.855          	3.09
MS.368         	3.847          	3.092
MS.369         	3.84           	3.146
MS.370         	3.832          	3.11
MS.371         	3.825          	3.093
MS.372         	3.817          	3.038
MS.373         	3.81           	3.088
MS.374         	3.803          	3.039
MS.375         	3.795          	3.028
MS.376         	3.787          	3.09
MS.377         	3.78           	3.047
MS.378         	3.772          	3.036
MS.379         	3.765          	2.996
MS.380         	3.757          	3.044
MS.381         	3.75           	2.983
MS.382         	3.742          	2.963
MS.383         	3.735          	2.995
MS.384         	3.727          	2.905
MS.385         	3.72           	2.904
MS.386         	3.712          	2.933
MS.387         	3.705          	2.936
MS.388         	3.697          	2.922
MS.389         	3.69           	2.941
MS.390         	3.682          	2.836
MS.391         	3.675          	2.838
MS.392         	3.668          	2.8
MS.393         	3.66           	2.912
MS.394         	3.652          	2.862
MS.395         	3.645          	2.797
MS.396         	3.637          	2.781
MS.397         	3.63           	2.791
MS.398         	3.622          	2.711
MS.399         	3.617          	2.723
MS.400         	3.61           	2.738
MS.401         	3.602          	2.726
MS.402         	3.595          	2.727
MS.403         	3.587          	2.649
MS.404         	3.58           	2.694
MS.405         	3.572          	2.595
MS.406         	3.565          	2.629
MS.407         	3.56           	2.711
MS.408         	3.553          	2.592
MS.409         	3.545          	2.646
MS.410         	3.537          	2.457
MS.411         	3.53           	2.549
MS.412         	3.523          	2.575
MS.413         	3.517          	2.467
MS.414         	3.51           	2.565
MS.415         	3.502          	2.407
MS.416         	3.495          	2.485
MS.417         	3.487          	2.466
MS.418         	3.482          	2.551
MS.419         	3.475          	2.463
MS.420         	3.467          	2.516
MS.421         	3.46           	2.446
MS.422         	3.452          	2.357
MS.423         	3.447          	2.411
MS.424         	3.44           	2.362
MS.425         	3.432          	2.421
MS.426         	3.425          	2.393
MS.427         	3.42           	2.401
MS.428         	3.412          	2.358
MS.429         	3.405          	2.376
MS.430         	3.4            	2.297
MS.431         	3.392          	2.316
MS.432         	3.385          	2.228
MS.433         	3.377          	2.233
MS.434         	3.372          	2.281
MS.435         	3.365          	2.194
MS.436         	3.357          	2.237
MS.437         	3.352          	2.209
MS.438         	3.345          	2.195
MS.439         	3.337          	2.195
MS.440         	3.332          	2.158
MS.441         	3.325          	2.153
MS.442         	3.317          	2.148
MS.443         	3.312          	2.134
MS.444         	3.305          	2.094
MS.445         	3.297          	2.066
MS.446         	3.293          	1.967
MS.447         	3.285          	2.057
MS.448         	3.277          	2.025
MS.449         	3.273          	2.032
MS.450         	3.265          	1.978
MS.451         	3.26           	2.001
MS.452         	3.252          	2.026
MS.453         	3.245          	1.97
MS.454         	3.24           	1.971
MS.455         	3.232          	1.917
MS.456         	3.227          	1.915
MS.457         	3.22           	1.817
MS.458         	3.215          	1.78
MS.459         	3.207          	1.831
MS.460         	3.2            	1.832
MS.461         	3.195          	1.887
MS.462         	3.188          	1.805
MS.463         	3.182          	1.843
MS.464         	3.175          	1.759
MS.465         	3.17           	1.719
MS.466         	3.162          	1.7
MS.467         	3.158          	1.649
MS.468         	3.15           	1.646
MS.469         	3.145          	1.654
MS.470         	3.138          	1.661
MS.471         	3.132          	1.613
MS.472         	3.125          	1.703
MS.473         	3.12           	1.518
MS.474         	3.112          	1.541
MS.475         	3.107          	1.567
MS.476         	3.1            	1.578
MS.477         	3.095          	1.476
MS.478         	3.087          	1.482
MS.479         	3.082          	1.492
MS.480         	3.075          	1.431
MS.481         	3.07           	1.444
MS.482         	3.062          	1.421
MS.483         	3.057          	1.396
MS.484         	3.05           	1.386
MS.485         	3.045          	1.382
MS.486         	3.037          	1.375
MS.487         	3.033          	1.385
MS.488         	3.027          	1.388
MS.489         	3.02           	1.353
MS.490         	3.015          	1.386
MS.491         	3.007          	1.268
MS.492         	3.002          	1.343
MS.493         	2.997          	1.258
MS.494         	2.99           	1.23
MS.495         	2.985          	1.277
MS.496         	2.977          	1.26
MS.497         	2.972          	1.232
MS.498         	2.967          	1.143
MS.499         	2.96           	1.179
MS.500         	2.955          	1.196
MS.501         	2.95           	1.171
MS.502         	2.942          	1.182
MS.503         	2.938          	1.126
