File:              	C:\Qtrac\Data\ME2C30614A.QZD
Name:              	 AR18E
Protocol:          	MSCAN-MV
Date:              	14/6/23
Date of birth:     	18/10/02
Age:               	20
Sex:               	M
Temperature:       	33.4
S/R sites:         	Knee CF-TA
NC/disease:        	NC
Operator:          	KJ
Comments:
M-SCAN DATA (Repeat 1/3, 9.9-2.8m)
Scanpts: 1, 19, 485, 527
Stim. (mA)     	Amp. (mV)
MS.1           	29             	2.821
MS.2           	29.5           	2.822
MS.3           	29.5           	2.814
MS.4           	29.5           	2.816
MS.5           	29.5           	2.827
MS.6           	29.5           	2.811
MS.7           	29.5           	2.822
MS.8           	29.5           	2.809
MS.9           	29.5           	2.819
MS.10          	29.5           	2.812
MS.11          	29.5           	2.816
MS.12          	29.5           	2.822
MS.13          	29.5           	2.819
MS.14          	29.5           	2.812
MS.15          	29.5           	2.806
MS.16          	29.5           	2.821
MS.17          	29.5           	2.823
MS.18          	29.5           	2.817
MS.19          	29.5           	2.814
MS.20          	29.5           	2.806
MS.21          	29.5           	2.816
MS.22          	29.5           	2.814
MS.23          	29.5           	2.818
MS.24          	29.382         	2.808
MS.25          	29.323         	2.806
MS.26          	29.265         	2.803
MS.27          	29.207         	2.804
MS.28          	29.147         	2.806
MS.29          	29.09          	2.799
MS.30          	29.032         	2.8
MS.31          	28.972         	2.806
MS.32          	28.915         	2.806
MS.33          	28.858         	2.8
MS.34          	28.8           	2.806
MS.35          	28.743         	2.806
MS.36          	28.685         	2.806
MS.37          	28.627         	2.808
MS.38          	28.57          	2.791
MS.39          	28.512         	2.771
MS.40          	28.457         	2.793
MS.41          	28.4           	2.799
MS.42          	28.342         	2.789
MS.43          	28.287         	2.767
MS.44          	28.23          	2.792
MS.45          	28.172         	2.767
MS.46          	28.118         	2.756
MS.47          	28.06          	2.76
MS.48          	28.005         	2.756
MS.49          	27.95          	2.791
MS.50          	27.892         	2.74
MS.51          	27.837         	2.761
MS.52          	27.782         	2.775
MS.53          	27.727         	2.753
MS.54          	27.67          	2.769
MS.55          	27.615         	2.726
MS.56          	27.56          	2.75
MS.57          	27.505         	2.732
MS.58          	27.45          	2.755
MS.59          	27.395         	2.726
MS.60          	27.34          	2.724
MS.61          	27.287         	2.712
MS.62          	27.233         	2.741
MS.63          	27.177         	2.73
MS.64          	27.122         	2.747
MS.65          	27.07          	2.744
MS.66          	27.015         	2.737
MS.67          	26.96          	2.709
MS.68          	26.907         	2.709
MS.69          	26.852         	2.722
MS.70          	26.8           	2.723
MS.71          	26.745         	2.7
MS.72          	26.692         	2.727
MS.73          	26.64          	2.698
MS.74          	26.585         	2.698
MS.75          	26.532         	2.705
MS.76          	26.48          	2.708
MS.77          	26.427         	2.693
MS.78          	26.375         	2.695
MS.79          	26.323         	2.711
MS.80          	26.27          	2.701
MS.81          	26.217         	2.703
MS.82          	26.165         	2.67
MS.83          	26.112         	2.711
MS.84          	26.06          	2.687
MS.85          	26.007         	2.66
MS.86          	25.955         	2.686
MS.87          	25.903         	2.684
MS.88          	25.852         	2.667
MS.89          	25.8           	2.673
MS.90          	25.75          	2.695
MS.91          	25.698         	2.679
MS.92          	25.645         	2.662
MS.93          	25.595         	2.649
MS.94          	25.542         	2.667
MS.95          	25.493         	2.659
MS.96          	25.442         	2.664
MS.97          	25.39          	2.665
MS.98          	25.34          	2.649
MS.99          	25.29          	2.669
MS.100         	25.24          	2.66
MS.101         	25.188         	2.668
MS.102         	25.137         	2.68
MS.103         	25.087         	2.656
MS.104         	25.038         	2.672
MS.105         	24.987         	2.654
MS.106         	24.938         	2.648
MS.107         	24.887         	2.659
MS.108         	24.837         	2.655
MS.109         	24.788         	2.638
MS.110         	24.74          	2.585
MS.111         	24.69          	2.615
MS.112         	24.64          	2.605
MS.113         	24.59          	2.589
MS.114         	24.542         	2.648
MS.115         	24.493         	2.631
MS.116         	24.445         	2.57
MS.117         	24.395         	2.565
MS.118         	24.347         	2.548
MS.119         	24.297         	2.634
MS.120         	24.25          	2.604
MS.121         	24.2           	2.548
MS.122         	24.153         	2.612
MS.123         	24.105         	2.563
MS.124         	24.055         	2.546
MS.125         	24.007         	2.524
MS.126         	23.96          	2.548
MS.127         	23.913         	2.521
MS.128         	23.865         	2.519
MS.129         	23.817         	2.526
MS.130         	23.77          	2.504
MS.131         	23.722         	2.519
MS.132         	23.675         	2.488
MS.133         	23.627         	2.516
MS.134         	23.58          	2.505
MS.135         	23.532         	2.521
MS.136         	23.485         	2.501
MS.137         	23.438         	2.503
MS.138         	23.392         	2.51
MS.139         	23.345         	2.502
MS.140         	23.297         	2.458
MS.141         	23.252         	2.479
MS.142         	23.205         	2.454
MS.143         	23.16          	2.496
MS.144         	23.112         	2.491
MS.145         	23.067         	2.488
MS.146         	23.02          	2.461
MS.147         	22.975         	2.469
MS.148         	22.927         	2.48
MS.149         	22.882         	2.476
MS.150         	22.837         	2.484
MS.151         	22.792         	2.427
MS.152         	22.745         	2.388
MS.153         	22.7           	2.408
MS.154         	22.655         	2.418
MS.155         	22.61          	2.388
MS.156         	22.565         	2.394
MS.157         	22.52          	2.386
MS.158         	22.475         	2.36
MS.159         	22.43          	2.324
MS.160         	22.385         	2.371
MS.161         	22.34          	2.348
MS.162         	22.295         	2.326
MS.163         	22.25          	2.307
MS.164         	22.207         	2.333
MS.165         	22.163         	2.302
MS.166         	22.118         	2.344
MS.167         	22.073         	2.3
MS.168         	22.03          	2.307
MS.169         	21.985         	2.272
MS.170         	21.942         	2.268
MS.171         	21.897         	2.237
MS.172         	21.855         	2.226
MS.173         	21.81          	2.16
MS.174         	21.767         	2.23
MS.175         	21.722         	2.231
MS.176         	21.68          	2.221
MS.177         	21.637         	2.12
MS.178         	21.592         	2.183
MS.179         	21.55          	2.219
MS.180         	21.507         	2.22
MS.181         	21.465         	2.119
MS.182         	21.422         	2.217
MS.183         	21.377         	2.088
MS.184         	21.335         	2.161
MS.185         	21.292         	2.178
MS.186         	21.25          	2.097
MS.187         	21.208         	2.103
MS.188         	21.165         	2.146
MS.189         	21.122         	2.025
MS.190         	21.083         	2.04
MS.191         	21.04          	2.007
MS.192         	20.997         	1.91
MS.193         	20.955         	2.061
MS.194         	20.913         	1.935
MS.195         	20.872         	1.989
MS.196         	20.83          	1.91
MS.197         	20.788         	1.845
MS.198         	20.747         	1.843
MS.199         	20.705         	1.854
MS.200         	20.665         	1.821
MS.201         	20.622         	1.89
MS.202         	20.583         	1.774
MS.203         	20.54          	1.822
MS.204         	20.5           	1.722
MS.205         	20.458         	1.771
MS.206         	20.417         	1.766
MS.207         	20.377         	1.752
MS.208         	20.335         	1.741
MS.209         	20.295         	1.695
MS.210         	20.255         	1.733
MS.211         	20.215         	1.661
MS.212         	20.175         	1.681
MS.213         	20.132         	1.693
MS.214         	20.092         	1.618
MS.215         	20.052         	1.74
MS.216         	20.012         	1.684
MS.217         	19.972         	1.744
MS.218         	19.932         	1.623
MS.219         	19.892         	1.652
MS.220         	19.852         	1.605
MS.221         	19.815         	1.665
MS.222         	19.775         	1.592
MS.223         	19.735         	1.612
MS.224         	19.695         	1.616
MS.225         	19.655         	1.6
MS.226         	19.618         	1.559
MS.227         	19.577         	1.57
MS.228         	19.538         	1.589
MS.229         	19.5           	1.592
MS.230         	19.46          	1.484
MS.231         	19.422         	1.538
MS.232         	19.382         	1.56
MS.233         	19.345         	1.566
MS.234         	19.305         	1.541
MS.235         	19.267         	1.529
MS.236         	19.227         	1.523
MS.237         	19.19          	1.476
MS.238         	19.153         	1.501
MS.239         	19.112         	1.488
MS.240         	19.075         	1.4
MS.241         	19.038         	1.422
MS.242         	19             	1.44
MS.243         	18.96          	1.384
MS.244         	18.922         	1.411
MS.245         	18.885         	1.358
MS.246         	18.847         	1.411
MS.247         	18.81          	1.331
MS.248         	18.772         	1.409
MS.249         	18.735         	1.317
MS.250         	18.698         	1.275
MS.251         	18.66          	1.268
MS.252         	18.622         	1.301
MS.253         	18.585         	1.26
MS.254         	18.547         	1.265
MS.255         	18.512         	1.163
MS.256         	18.475         	1.268
MS.257         	18.438         	1.186
MS.258         	18.4           	1.224
MS.259         	18.365         	1.251
MS.260         	18.327         	1.079
MS.261         	18.29          	1.107
MS.262         	18.255         	1.141
MS.263         	18.217         	1.185
MS.264         	18.18          	1.202
MS.265         	18.145         	1.134
MS.266         	18.108         	1.135
MS.267         	18.073         	1.077
MS.268         	18.038         	1.118
MS.269         	18             	1.031
MS.270         	17.965         	0.933
MS.271         	17.927         	1.031
MS.272         	17.892         	0.98
MS.273         	17.858         	0.959
MS.274         	17.82          	0.936
MS.275         	17.785         	0.987
MS.276         	17.75          	0.951
MS.277         	17.715         	0.886
MS.278         	17.68          	0.858
MS.279         	17.645         	0.961
MS.280         	17.608         	0.858
MS.281         	17.573         	0.884
MS.282         	17.538         	0.797
MS.283         	17.503         	0.79
MS.284         	17.467         	0.807
MS.285         	17.432         	0.729
MS.286         	17.397         	0.8
MS.287         	17.365         	0.77
MS.288         	17.33          	0.761
MS.289         	17.295         	0.689
MS.290         	17.26          	0.698
MS.291         	17.225         	0.679
MS.292         	17.19          	0.684
MS.293         	17.157         	0.696
MS.294         	17.122         	0.657
MS.295         	17.087         	0.661
MS.296         	17.055         	0.619
MS.297         	17.02          	0.645
MS.298         	16.985         	0.655
MS.299         	16.952         	0.615
MS.300         	16.917         	0.616
MS.301         	16.885         	0.613
MS.302         	16.85          	0.585
MS.303         	16.817         	0.571
MS.304         	16.782         	0.535
MS.305         	16.75          	0.546
MS.306         	16.717         	0.522
MS.307         	16.682         	0.587
MS.308         	16.65          	0.583
MS.309         	16.618         	0.512
MS.310         	16.583         	0.538
MS.311         	16.55          	0.507
MS.312         	16.517         	0.538
MS.313         	16.485         	0.493
MS.314         	16.45          	0.47
MS.315         	16.417         	0.452
MS.316         	16.385         	0.45
MS.317         	16.352         	0.443
MS.318         	16.32          	0.476
MS.319         	16.288         	0.471
MS.320         	16.255         	0.437
MS.321         	16.222         	0.374
MS.322         	16.19          	0.38
MS.323         	16.157         	0.38
MS.324         	16.125         	0.387
MS.325         	16.092         	0.394
MS.326         	16.06          	0.38
MS.327         	16.03          	0.364
MS.328         	15.997         	0.342
MS.329         	15.965         	0.363
MS.330         	15.932         	0.37
MS.331         	15.9           	0.338
MS.332         	15.87          	0.347
MS.333         	15.837         	0.268
MS.334         	15.805         	0.33
MS.335         	15.775         	0.35
MS.336         	15.742         	0.291
MS.337         	15.712         	0.351
MS.338         	15.68          	0.286
MS.339         	15.648         	0.32
MS.340         	15.617         	0.271
MS.341         	15.585         	0.32
MS.342         	15.555         	0.269
MS.343         	15.525         	0.327
MS.344         	15.492         	0.234
MS.345         	15.462         	0.251
MS.346         	15.43          	0.281
MS.347         	15.4           	0.273
MS.348         	15.37          	0.256
MS.349         	15.34          	0.289
MS.350         	15.307         	0.223
MS.351         	15.277         	0.306
MS.352         	15.247         	0.227
MS.353         	15.217         	0.223
MS.354         	15.185         	0.254
MS.355         	15.155         	0.234
MS.356         	15.125         	0.213
MS.357         	15.095         	0.195
MS.358         	15.065         	0.208
MS.359         	15.035         	0.201
MS.360         	15.005         	0.214
MS.361         	14.975         	0.214
MS.362         	14.945         	0.212
MS.363         	14.915         	0.201
MS.364         	14.885         	0.186
MS.365         	14.855         	0.212
MS.366         	14.825         	0.194
MS.367         	14.797         	0.185
MS.368         	14.767         	0.186
MS.369         	14.737         	0.199
MS.370         	14.707         	0.167
MS.371         	14.677         	0.17
MS.372         	14.65          	0.179
MS.373         	14.62          	0.176
MS.374         	14.59          	0.161
MS.375         	14.562         	0.192
MS.376         	14.532         	0.164
MS.377         	14.502         	0.17
MS.378         	14.475         	0.167
MS.379         	14.445         	0.168
MS.380         	14.417         	0.164
MS.381         	14.387         	0.153
MS.382         	14.36          	0.16
MS.383         	14.33          	0.153
MS.384         	14.302         	0.153
MS.385         	14.273         	0.165
MS.386         	14.245         	0.14
MS.387         	14.217         	0.153
MS.388         	14.188         	0.148
MS.389         	14.16          	0.139
MS.390         	14.13          	0.15
MS.391         	14.102         	0.141
MS.392         	14.075         	0.139
MS.393         	14.047         	0.141
MS.394         	14.017         	0.145
MS.395         	13.99          	0.146
MS.396         	13.962         	0.125
MS.397         	13.935         	0.136
MS.398         	13.907         	0.144
MS.399         	13.88          	0.125
MS.400         	13.852         	0.127
MS.401         	13.822         	0.138
MS.402         	13.795         	0.13
MS.403         	13.767         	0.125
MS.404         	13.74          	0.117
MS.405         	13.712         	0.111
MS.406         	13.685         	0.119
MS.407         	13.66          	0.106
MS.408         	13.632         	0.108
MS.409         	13.605         	0.112
MS.410         	13.577         	0.106
MS.411         	13.55          	0.112
MS.412         	13.523         	0.104
MS.413         	13.495         	0.107
MS.414         	13.47          	0.106
MS.415         	13.443         	0.099
MS.416         	13.415         	0.098
MS.417         	13.387         	0.093
MS.418         	13.362         	0.092
MS.419         	13.335         	0.096
MS.420         	13.307         	0.099
MS.421         	13.282         	0.092
MS.422         	13.255         	0.092
MS.423         	13.227         	0.098
MS.424         	13.202         	0.089
MS.425         	13.175         	0.092
MS.426         	13.15          	0.093
MS.427         	13.122         	0.085
MS.428         	13.097         	0.086
MS.429         	13.07          	0.094
MS.430         	13.045         	0.079
MS.431         	13.017         	0.083
MS.432         	12.992         	0.075
MS.433         	12.967         	0.096
MS.434         	12.94          	0.073
MS.435         	12.915         	0.085
MS.436         	12.89          	0.078
MS.437         	12.862         	0.085
MS.438         	12.837         	0.081
MS.439         	12.812         	0.079
MS.440         	12.787         	0.081
MS.441         	12.76          	0.078
MS.442         	12.735         	0.08
MS.443         	12.71          	0.073
MS.444         	12.685         	0.08
MS.445         	12.66          	0.079
MS.446         	12.635         	0.069
MS.447         	12.608         	0.075
MS.448         	12.582         	0.066
MS.449         	12.557         	0.074
MS.450         	12.532         	0.073
MS.451         	12.507         	0.077
MS.452         	12.483         	0.069
MS.453         	12.457         	0.076
MS.454         	12.432         	0.071
MS.455         	12.407         	0.071
MS.456         	12.385         	0.071
MS.457         	12.36          	0.069
MS.458         	12.335         	0.066
MS.459         	12.31          	0.069
MS.460         	12.285         	0.069
MS.461         	12.26          	0.068
MS.462         	12.235         	0.068
MS.463         	12.212         	0.063
MS.464         	12.188         	0.071
MS.465         	12.162         	0.065
MS.466         	12.137         	0.067
MS.467         	12.115         	0.07
MS.468         	12.09          	0.067
MS.469         	12.065         	0.072
MS.470         	12.042         	0.07
MS.471         	12.017         	0.068
MS.472         	11.995         	0.067
MS.473         	11.97          	0.068
MS.474         	11.945         	0.068
MS.475         	11.922         	0.07
MS.476         	11.898         	0.07
MS.477         	11.875         	0.067
MS.478         	11.85          	0.07
MS.479         	11.827         	0.063
MS.480         	11.802         	0.073
MS.481         	11.78          	0.064
MS.482         	11.757         	0.069
MS.483         	11.733         	0.062
MS.484         	11.71          	0.061
MS.485         	11.685         	0.063
MS.486         	11.662         	0.063
MS.487         	11.64          	0.065
MS.488         	11.615         	0.059
MS.489         	11.592         	0.062
MS.490         	11.57          	0.068
MS.491         	11.547         	0.064
MS.492         	11.523         	0.06
MS.493         	11.5           	0.062
MS.494         	11.477         	0.061
MS.495         	11.455         	0.065
MS.496         	11.432         	0.059
MS.497         	11.41          	0.067
MS.498         	11.385         	0.061
MS.499         	11.363         	0.063
MS.500         	11.34          	0.065
MS.501         	11.318         	0.062
MS.502         	11.295         	0.063
MS.503         	11.273         	0.064
