File:              	C:\Qtrac\Data\ME2C30719A.QZD
Name:              	 ST14R
Protocol:          	MSCAN-MV
Date:              	19/7/23
Date of birth:     	14/4/00
Age:               	23
Sex:               	M
Temperature:       	31.4
S/R sites:         	Knee CF-TA
NC/disease:        	NC
Operator:          	BY
Comments:
M-SCAN DATA (Repeat 1/3, 12.4-5m)
Scanpts: 16, 29, 525, 536
Stim. (mA)     	Amp. (mV)
MS.1           	15             	5.516
MS.2           	15             	5.538
MS.3           	15             	5.533
MS.4           	15             	5.497
MS.5           	15             	5.471
MS.6           	15             	5.493
MS.7           	15             	5.47
MS.8           	15             	5.455
MS.9           	15             	5.535
MS.10          	15             	5.483
MS.11          	15             	5.51
MS.12          	15             	5.455
MS.13          	15             	5.45
MS.14          	15             	5.464
MS.15          	15             	5.482
MS.16          	15             	5.476
MS.17          	15             	5.448
MS.18          	15             	5.449
MS.19          	15             	5.499
MS.20          	15             	5.457
MS.21          	15             	5.473
MS.22          	15             	5.444
MS.23          	15             	5.51
MS.24          	14.94          	5.5
MS.25          	14.91          	5.438
MS.26          	14.88          	5.462
MS.27          	14.85          	5.456
MS.28          	14.82          	5.446
MS.29          	14.792         	5.483
MS.30          	14.762         	5.466
MS.31          	14.733         	5.446
MS.32          	14.702         	5.452
MS.33          	14.672         	5.445
MS.34          	14.645         	5.455
MS.35          	14.615         	5.458
MS.36          	14.585         	5.447
MS.37          	14.557         	5.468
MS.38          	14.527         	5.481
MS.39          	14.497         	5.461
MS.40          	14.47          	5.466
MS.41          	14.44          	5.48
MS.42          	14.412         	5.463
MS.43          	14.382         	5.462
MS.44          	14.355         	5.471
MS.45          	14.325         	5.529
MS.46          	14.297         	5.478
MS.47          	14.267         	5.497
MS.48          	14.24          	5.503
MS.49          	14.212         	5.449
MS.50          	14.182         	5.436
MS.51          	14.155         	5.48
MS.52          	14.127         	5.563
MS.53          	14.097         	5.45
MS.54          	14.07          	5.479
MS.55          	14.042         	5.46
MS.56          	14.015         	5.568
MS.57          	13.985         	5.468
MS.58          	13.957         	5.437
MS.59          	13.93          	5.523
MS.60          	13.903         	5.412
MS.61          	13.875         	5.456
MS.62          	13.847         	5.419
MS.63          	13.82          	5.432
MS.64          	13.792         	5.446
MS.65          	13.765         	5.502
MS.66          	13.737         	5.49
MS.67          	13.71          	5.446
MS.68          	13.682         	5.492
MS.69          	13.655         	5.483
MS.70          	13.627         	5.471
MS.71          	13.6           	5.481
MS.72          	13.572         	5.497
MS.73          	13.545         	5.443
MS.74          	13.517         	5.436
MS.75          	13.492         	5.453
MS.76          	13.465         	5.479
MS.77          	13.438         	5.441
MS.78          	13.41          	5.467
MS.79          	13.385         	5.466
MS.80          	13.358         	5.375
MS.81          	13.33          	5.449
MS.82          	13.305         	5.433
MS.83          	13.278         	5.464
MS.84          	13.25          	5.418
MS.85          	13.225         	5.446
MS.86          	13.197         	5.398
MS.87          	13.172         	5.472
MS.88          	13.145         	5.472
MS.89          	13.12          	5.47
MS.90          	13.092         	5.46
MS.91          	13.068         	5.438
MS.92          	13.04          	5.39
MS.93          	13.015         	5.394
MS.94          	12.987         	5.412
MS.95          	12.962         	5.413
MS.96          	12.938         	5.393
MS.97          	12.91          	5.455
MS.98          	12.885         	5.455
MS.99          	12.86          	5.427
MS.100         	12.832         	5.398
MS.101         	12.807         	5.32
MS.102         	12.782         	5.346
MS.103         	12.757         	5.484
MS.104         	12.73          	5.405
MS.105         	12.705         	5.425
MS.106         	12.68          	5.441
MS.107         	12.655         	5.305
MS.108         	12.63          	5.377
MS.109         	12.605         	5.344
MS.110         	12.58          	5.482
MS.111         	12.555         	5.446
MS.112         	12.53          	5.404
MS.113         	12.505         	5.373
MS.114         	12.48          	5.438
MS.115         	12.455         	5.526
MS.116         	12.43          	5.411
MS.117         	12.405         	5.383
MS.118         	12.38          	5.369
MS.119         	12.355         	5.371
MS.120         	12.33          	5.453
MS.121         	12.305         	5.385
MS.122         	12.28          	5.364
MS.123         	12.257         	5.357
MS.124         	12.233         	5.428
MS.125         	12.207         	5.383
MS.126         	12.182         	5.373
MS.127         	12.157         	5.316
MS.128         	12.135         	5.306
MS.129         	12.11          	5.322
MS.130         	12.085         	5.356
MS.131         	12.062         	5.342
MS.132         	12.037         	5.357
MS.133         	12.012         	5.377
MS.134         	11.99          	5.348
MS.135         	11.965         	5.364
MS.136         	11.943         	5.313
MS.137         	11.917         	5.363
MS.138         	11.895         	5.367
MS.139         	11.87          	5.359
MS.140         	11.847         	5.338
MS.141         	11.822         	5.248
MS.142         	11.8           	5.316
MS.143         	11.775         	5.223
MS.144         	11.752         	5.307
MS.145         	11.73          	5.308
MS.146         	11.705         	5.253
MS.147         	11.682         	5.347
MS.148         	11.657         	5.299
MS.149         	11.635         	5.25
MS.150         	11.613         	5.283
MS.151         	11.59          	5.214
MS.152         	11.565         	5.221
MS.153         	11.542         	5.219
MS.154         	11.52          	5.27
MS.155         	11.497         	5.178
MS.156         	11.472         	5.204
MS.157         	11.45          	5.137
MS.158         	11.427         	5.213
MS.159         	11.405         	5.121
MS.160         	11.382         	5.175
MS.161         	11.36          	5.089
MS.162         	11.337         	5.091
MS.163         	11.315         	5.052
MS.164         	11.292         	5.162
MS.165         	11.27          	5.121
MS.166         	11.247         	5.101
MS.167         	11.225         	5.146
MS.168         	11.202         	5.246
MS.169         	11.18          	5.161
MS.170         	11.157         	5.054
MS.171         	11.135         	5.073
MS.172         	11.113         	5.057
MS.173         	11.09          	5.104
MS.174         	11.068         	5.143
MS.175         	11.045         	5.161
MS.176         	11.023         	5.062
MS.177         	11.002         	4.959
MS.178         	10.98          	5.105
MS.179         	10.957         	5.079
MS.180         	10.935         	4.969
MS.181         	10.915         	5.054
MS.182         	10.892         	5.108
MS.183         	10.87          	5.059
MS.184         	10.847         	4.932
MS.185         	10.827         	4.938
MS.186         	10.805         	4.986
MS.187         	10.785         	4.974
MS.188         	10.762         	4.954
MS.189         	10.74          	4.885
MS.190         	10.72          	4.899
MS.191         	10.698         	4.949
MS.192         	10.677         	4.841
MS.193         	10.655         	4.922
MS.194         	10.635         	4.93
MS.195         	10.613         	4.882
MS.196         	10.592         	4.815
MS.197         	10.57          	4.888
MS.198         	10.55          	4.826
MS.199         	10.528         	4.847
MS.200         	10.507         	4.899
MS.201         	10.485         	4.876
MS.202         	10.465         	4.863
MS.203         	10.445         	4.82
MS.204         	10.422         	4.774
MS.205         	10.403         	4.834
MS.206         	10.382         	4.799
MS.207         	10.36          	4.751
MS.208         	10.34          	4.813
MS.209         	10.32          	4.688
MS.210         	10.3           	4.799
MS.211         	10.278         	4.737
MS.212         	10.257         	4.706
MS.213         	10.238         	4.711
MS.214         	10.217         	4.702
MS.215         	10.198         	4.701
MS.216         	10.175         	4.721
MS.217         	10.155         	4.684
MS.218         	10.135         	4.744
MS.219         	10.115         	4.55
MS.220         	10.095         	4.612
MS.221         	10.075         	4.629
MS.222         	10.055         	4.548
MS.223         	10.035         	4.511
MS.224         	10.015         	4.553
MS.225         	9.995          	4.436
MS.226         	9.975          	4.431
MS.227         	9.955          	4.591
MS.228         	9.935          	4.619
MS.229         	9.915          	4.477
MS.230         	9.895          	4.466
MS.231         	9.875          	4.567
MS.232         	9.855          	4.427
MS.233         	9.835          	4.464
MS.234         	9.818          	4.415
MS.235         	9.797          	4.327
MS.236         	9.778          	4.292
MS.237         	9.757          	4.282
MS.238         	9.738          	4.188
MS.239         	9.717          	4.058
MS.240         	9.7            	4.125
MS.241         	9.68           	4.115
MS.242         	9.66           	4.023
MS.243         	9.64           	4.116
MS.244         	9.622          	4.165
MS.245         	9.602          	4.087
MS.246         	9.582          	3.937
MS.247         	9.565          	3.937
MS.248         	9.545          	3.939
MS.249         	9.525          	3.99
MS.250         	9.507          	3.882
MS.251         	9.488          	4.027
MS.252         	9.47           	3.901
MS.253         	9.45           	3.902
MS.254         	9.432          	3.851
MS.255         	9.412          	3.849
MS.256         	9.395          	3.876
MS.257         	9.375          	3.8
MS.258         	9.358          	3.752
MS.259         	9.337          	3.73
MS.260         	9.32           	3.732
MS.261         	9.3            	3.79
MS.262         	9.283          	3.749
MS.263         	9.262          	3.698
MS.264         	9.245          	3.719
MS.265         	9.225          	3.722
MS.266         	9.207          	3.741
MS.267         	9.19           	3.605
MS.268         	9.17           	3.794
MS.269         	9.153          	3.611
MS.270         	9.135          	3.682
MS.271         	9.115          	3.457
MS.272         	9.097          	3.513
MS.273         	9.08           	3.521
MS.274         	9.062          	3.527
MS.275         	9.042          	3.435
MS.276         	9.025          	3.514
MS.277         	9.007          	3.443
MS.278         	8.99           	3.301
MS.279         	8.972          	3.256
MS.280         	8.952          	3.21
MS.281         	8.935          	3.26
MS.282         	8.917          	3.307
MS.283         	8.9            	3.234
MS.284         	8.882          	3.177
MS.285         	8.865          	3.245
MS.286         	8.847          	3.149
MS.287         	8.83           	3.14
MS.288         	8.812          	3.171
MS.289         	8.795          	3.071
MS.290         	8.775          	3.056
MS.291         	8.757          	2.921
MS.292         	8.74           	2.85
MS.293         	8.722          	2.929
MS.294         	8.707          	2.965
MS.295         	8.69           	2.945
MS.296         	8.672          	2.946
MS.297         	8.655          	2.887
MS.298         	8.637          	2.895
MS.299         	8.62           	2.829
MS.300         	8.602          	2.88
MS.301         	8.585          	2.822
MS.302         	8.568          	2.82
MS.303         	8.55           	2.715
MS.304         	8.535          	2.819
MS.305         	8.517          	2.643
MS.306         	8.5            	2.578
MS.307         	8.483          	2.598
MS.308         	8.465          	2.667
MS.309         	8.45           	2.543
MS.310         	8.432          	2.586
MS.311         	8.415          	2.457
MS.312         	8.398          	2.502
MS.313         	8.382          	2.484
MS.314         	8.365          	2.535
MS.315         	8.347          	2.504
MS.316         	8.332          	2.47
MS.317         	8.315          	2.346
MS.318         	8.297          	2.388
MS.319         	8.283          	2.348
MS.320         	8.265          	2.192
MS.321         	8.247          	2.372
MS.322         	8.233          	2.357
MS.323         	8.215          	2.245
MS.324         	8.2            	2.376
MS.325         	8.182          	2.198
MS.326         	8.167          	2.147
MS.327         	8.15           	2.249
MS.328         	8.135          	2.07
MS.329         	8.117          	2.123
MS.330         	8.102          	2.068
MS.331         	8.085          	2.118
MS.332         	8.07           	2.097
MS.333         	8.052          	2.032
MS.334         	8.037          	1.988
MS.335         	8.02           	1.977
MS.336         	8.005          	1.816
MS.337         	7.99           	1.785
MS.338         	7.972          	1.823
MS.339         	7.957          	1.707
MS.340         	7.94           	1.752
MS.341         	7.925          	1.577
MS.342         	7.91           	1.727
MS.343         	7.892          	1.594
MS.344         	7.878          	1.563
MS.345         	7.862          	1.574
MS.346         	7.847          	1.5
MS.347         	7.83           	1.405
MS.348         	7.815          	1.406
MS.349         	7.8            	1.342
MS.350         	7.785          	1.343
MS.351         	7.767          	1.386
MS.352         	7.753          	1.274
MS.353         	7.737          	1.298
MS.354         	7.722          	1.344
MS.355         	7.707          	1.331
MS.356         	7.69           	1.176
MS.357         	7.675          	1.218
MS.358         	7.66           	1.199
MS.359         	7.645          	1.132
MS.360         	7.63           	1.213
MS.361         	7.615          	1.111
MS.362         	7.6            	1.052
MS.363         	7.585          	1.056
MS.364         	7.57           	0.993
MS.365         	7.555          	1.086
MS.366         	7.537          	0.929
MS.367         	7.523          	0.856
MS.368         	7.507          	0.94
MS.369         	7.492          	0.812
MS.370         	7.477          	0.843
MS.371         	7.462          	0.752
MS.372         	7.447          	0.767
MS.373         	7.435          	0.76
MS.374         	7.42           	0.784
MS.375         	7.405          	0.737
MS.376         	7.39           	0.723
MS.377         	7.375          	0.703
MS.378         	7.36           	0.638
MS.379         	7.345          	0.615
MS.380         	7.33           	0.573
MS.381         	7.315          	0.527
MS.382         	7.302          	0.443
MS.383         	7.287          	0.454
MS.384         	7.273          	0.467
MS.385         	7.257          	0.582
MS.386         	7.242          	0.408
MS.387         	7.227          	0.33
MS.388         	7.215          	0.375
MS.389         	7.2            	0.269
MS.390         	7.185          	0.323
MS.391         	7.17           	0.365
MS.392         	7.157          	0.295
MS.393         	7.142          	0.265
MS.394         	7.128          	0.286
MS.395         	7.115          	0.279
MS.396         	7.1            	0.341
MS.397         	7.085          	0.272
MS.398         	7.072          	0.22
MS.399         	7.057          	0.173
MS.400         	7.043          	0.118
MS.401         	7.03           	0.123
MS.402         	7.015          	0.123
MS.403         	7              	0.112
MS.404         	6.987          	0.107
MS.405         	6.972          	0.026
MS.406         	6.96           	0.084
MS.407         	6.945          	0.082
MS.408         	6.932          	0.031
MS.409         	6.918          	0.048
MS.410         	6.902          	0.036
MS.411         	6.89           	-0.085
MS.412         	6.875          	-0.052
MS.413         	6.862          	-0.005
MS.414         	6.847          	-0.123
MS.415         	6.835          	-0.059
MS.416         	6.822          	-0.027
MS.417         	6.807          	-0.132
MS.418         	6.795          	-0.085
MS.419         	6.78           	-0.109
MS.420         	6.767          	-0.137
MS.421         	6.753          	-0.179
MS.422         	6.74           	-0.171
MS.423         	6.727          	-0.164
MS.424         	6.712          	-0.213
MS.425         	6.7            	-0.239
MS.426         	6.685          	-0.264
MS.427         	6.672          	-0.249
MS.428         	6.66           	-0.223
MS.429         	6.645          	-0.316
MS.430         	6.632          	-0.294
MS.431         	6.62           	-0.235
MS.432         	6.608          	-0.361
MS.433         	6.592          	-0.256
MS.434         	6.58           	-0.354
MS.435         	6.567          	-0.421
MS.436         	6.555          	-0.291
MS.437         	6.54           	-0.316
MS.438         	6.527          	-0.419
MS.439         	6.515          	-0.414
MS.440         	6.503          	-0.396
MS.441         	6.487          	-0.45
MS.442         	6.475          	-0.444
MS.443         	6.462          	-0.382
MS.444         	6.45           	-0.445
MS.445         	6.438          	-0.488
MS.446         	6.425          	-0.463
MS.447         	6.41           	-0.518
MS.448         	6.398          	-0.479
MS.449         	6.385          	-0.491
MS.450         	6.372          	-0.529
MS.451         	6.36           	-0.533
MS.452         	6.347          	-0.546
MS.453         	6.335          	-0.54
MS.454         	6.322          	-0.549
MS.455         	6.31           	-0.531
MS.456         	6.297          	-0.552
MS.457         	6.285          	-0.558
MS.458         	6.273          	-0.562
MS.459         	6.26           	-0.564
MS.460         	6.247          	-0.575
MS.461         	6.235          	-0.613
MS.462         	6.222          	-0.594
MS.463         	6.21           	-0.615
MS.464         	6.197          	-0.612
MS.465         	6.185          	-0.647
MS.466         	6.172          	-0.65
MS.467         	6.16           	-0.623
MS.468         	6.148          	-0.656
MS.469         	6.135          	-0.692
MS.470         	6.122          	-0.685
MS.471         	6.11           	-0.692
MS.472         	6.097          	-0.687
MS.473         	6.088          	-0.692
MS.474         	6.075          	-0.654
MS.475         	6.062          	-0.684
MS.476         	6.05           	-0.658
MS.477         	6.037          	-0.752
MS.478         	6.025          	-0.756
MS.479         	6.012          	-0.718
MS.480         	6.003          	-0.749
MS.481         	5.99           	-0.707
MS.482         	5.977          	-0.748
MS.483         	5.965          	-0.788
MS.484         	5.955          	-0.72
MS.485         	5.942          	-0.77
MS.486         	5.93           	-0.702
MS.487         	5.918          	-0.777
MS.488         	5.907          	-0.81
MS.489         	5.895          	-0.778
MS.490         	5.882          	-0.798
MS.491         	5.87           	-0.781
MS.492         	5.86           	-0.77
MS.493         	5.847          	-0.756
MS.494         	5.835          	-0.756
MS.495         	5.825          	-0.779
MS.496         	5.812          	-0.758
MS.497         	5.8            	-0.767
MS.498         	5.79           	-0.778
MS.499         	5.777          	-0.754
MS.500         	5.767          	-0.784
