File:              	C:\Qtrac\Data\ME2C30710C.QZD
Name:              	 ST26P
Protocol:          	MSCAN-MV
Date:              	10/7/23
Date of birth:     	26/5/03
Age:               	20
Sex:               	M
Temperature:       	33.2
S/R sites:         	Knee CF-TA
NC/disease:        	NC
Operator:          	BY
Comments:
M-SCAN DATA (Repeat 3/3, 32.4-23.7m)
Scanpts: 1, 18, 620, 635
Stim. (mA)     	Amp. (mV)
MS.1           	18             	9.675
MS.2           	18             	9.667
MS.3           	18             	9.7
MS.4           	18             	9.63
MS.5           	18             	9.596
MS.6           	18             	9.643
MS.7           	18             	9.695
MS.8           	18             	9.647
MS.9           	18             	9.642
MS.10          	18             	9.638
MS.11          	18             	9.682
MS.12          	18             	9.64
MS.13          	18             	9.557
MS.14          	18             	9.621
MS.15          	18             	9.672
MS.16          	18             	9.619
MS.17          	18             	9.684
MS.18          	18             	9.632
MS.19          	18             	9.646
MS.20          	18             	9.632
MS.21          	18             	9.642
MS.22          	18             	9.633
MS.23          	18             	9.616
MS.24          	17.965         	9.622
MS.25          	17.927         	9.605
MS.26          	17.892         	9.59
MS.27          	17.858         	9.624
MS.28          	17.82          	9.649
MS.29          	17.785         	9.644
MS.30          	17.75          	9.6
MS.31          	17.715         	9.625
MS.32          	17.68          	9.653
MS.33          	17.642         	9.665
MS.34          	17.608         	9.637
MS.35          	17.573         	9.655
MS.36          	17.538         	9.636
MS.37          	17.503         	9.692
MS.38          	17.467         	9.621
MS.39          	17.432         	9.645
MS.40          	17.397         	9.659
MS.41          	17.362         	9.59
MS.42          	17.33          	9.61
MS.43          	17.295         	9.574
MS.44          	17.26          	9.553
MS.45          	17.225         	9.666
MS.46          	17.19          	9.592
MS.47          	17.157         	9.629
MS.48          	17.122         	9.636
MS.49          	17.087         	9.61
MS.50          	17.055         	9.636
MS.51          	17.02          	9.6
MS.52          	16.985         	9.631
MS.53          	16.952         	9.576
MS.54          	16.917         	9.624
MS.55          	16.885         	9.571
MS.56          	16.85          	9.599
MS.57          	16.817         	9.579
MS.58          	16.782         	9.628
MS.59          	16.75          	9.557
MS.60          	16.715         	9.594
MS.61          	16.682         	9.552
MS.62          	16.65          	9.55
MS.63          	16.615         	9.615
MS.64          	16.583         	9.606
MS.65          	16.55          	9.502
MS.66          	16.517         	9.595
MS.67          	16.483         	9.53
MS.68          	16.45          	9.619
MS.69          	16.417         	9.567
MS.70          	16.385         	9.537
MS.71          	16.352         	9.615
MS.72          	16.32          	9.542
MS.73          	16.288         	9.512
MS.74          	16.255         	9.59
MS.75          	16.222         	9.565
MS.76          	16.19          	9.565
MS.77          	16.157         	9.533
MS.78          	16.125         	9.554
MS.79          	16.092         	9.581
MS.80          	16.06          	9.521
MS.81          	16.028         	9.623
MS.82          	15.997         	9.492
MS.83          	15.965         	9.589
MS.84          	15.932         	9.618
MS.85          	15.9           	9.532
MS.86          	15.87          	9.604
MS.87          	15.837         	9.6
MS.88          	15.805         	9.601
MS.89          	15.775         	9.547
MS.90          	15.742         	9.547
MS.91          	15.71          	9.57
MS.92          	15.68          	9.513
MS.93          	15.648         	9.505
MS.94          	15.617         	9.569
MS.95          	15.585         	9.56
MS.96          	15.555         	9.53
MS.97          	15.525         	9.507
MS.98          	15.492         	9.45
MS.99          	15.462         	9.518
MS.100         	15.43          	9.462
MS.101         	15.4           	9.531
MS.102         	15.37          	9.532
MS.103         	15.337         	9.454
MS.104         	15.307         	9.47
MS.105         	15.277         	9.459
MS.106         	15.247         	9.485
MS.107         	15.217         	9.456
MS.108         	15.185         	9.468
MS.109         	15.155         	9.462
MS.110         	15.125         	9.526
MS.111         	15.095         	9.438
MS.112         	15.065         	9.504
MS.113         	15.035         	9.474
MS.114         	15.005         	9.428
MS.115         	14.975         	9.451
MS.116         	14.945         	9.536
MS.117         	14.915         	9.451
MS.118         	14.885         	9.415
MS.119         	14.855         	9.404
MS.120         	14.825         	9.426
MS.121         	14.795         	9.42
MS.122         	14.767         	9.409
MS.123         	14.737         	9.442
MS.124         	14.707         	9.452
MS.125         	14.677         	9.417
MS.126         	14.65          	9.436
MS.127         	14.62          	9.412
MS.128         	14.59          	9.445
MS.129         	14.562         	9.406
MS.130         	14.532         	9.39
MS.131         	14.502         	9.495
MS.132         	14.475         	9.415
MS.133         	14.445         	9.495
MS.134         	14.417         	9.403
MS.135         	14.387         	9.359
MS.136         	14.36          	9.438
MS.137         	14.33          	9.399
MS.138         	14.302         	9.369
MS.139         	14.273         	9.439
MS.140         	14.245         	9.384
MS.141         	14.215         	9.464
MS.142         	14.188         	9.389
MS.143         	14.16          	9.395
MS.144         	14.13          	9.39
MS.145         	14.102         	9.403
MS.146         	14.075         	9.401
MS.147         	14.047         	9.393
MS.148         	14.017         	9.367
MS.149         	13.99          	9.404
MS.150         	13.962         	9.425
MS.151         	13.935         	9.354
MS.152         	13.907         	9.383
MS.153         	13.88          	9.407
MS.154         	13.85          	9.377
MS.155         	13.822         	9.41
MS.156         	13.795         	9.403
MS.157         	13.767         	9.382
MS.158         	13.74          	9.386
MS.159         	13.712         	9.382
MS.160         	13.685         	9.399
MS.161         	13.657         	9.387
MS.162         	13.632         	9.32
MS.163         	13.605         	9.356
MS.164         	13.577         	9.359
MS.165         	13.55          	9.316
MS.166         	13.523         	9.377
MS.167         	13.495         	9.354
MS.168         	13.467         	9.3
MS.169         	13.443         	9.363
MS.170         	13.415         	9.39
MS.171         	13.387         	9.351
MS.172         	13.362         	9.332
MS.173         	13.335         	9.314
MS.174         	13.307         	9.246
MS.175         	13.282         	9.285
MS.176         	13.255         	9.229
MS.177         	13.227         	9.277
MS.178         	13.202         	9.24
MS.179         	13.175         	9.315
MS.180         	13.15          	9.402
MS.181         	13.122         	9.326
MS.182         	13.097         	9.179
MS.183         	13.07          	9.297
MS.184         	13.045         	9.173
MS.185         	13.017         	9.202
MS.186         	12.992         	9.244
MS.187         	12.967         	9.265
MS.188         	12.94          	9.264
MS.189         	12.915         	9.208
MS.190         	12.89          	9.213
MS.191         	12.862         	9.116
MS.192         	12.837         	9.172
MS.193         	12.812         	9.13
MS.194         	12.787         	9.266
MS.195         	12.76          	9.247
MS.196         	12.735         	9.181
MS.197         	12.71          	9.122
MS.198         	12.685         	9.166
MS.199         	12.66          	9.188
MS.200         	12.635         	9.154
MS.201         	12.608         	9.174
MS.202         	12.582         	9.082
MS.203         	12.557         	9.025
MS.204         	12.532         	9.124
MS.205         	12.507         	9.001
MS.206         	12.483         	9.108
MS.207         	12.457         	9.214
MS.208         	12.432         	8.927
MS.209         	12.407         	9.17
MS.210         	12.382         	8.818
MS.211         	12.36          	8.857
MS.212         	12.335         	9.009
MS.213         	12.31          	9.051
MS.214         	12.285         	8.807
MS.215         	12.26          	8.86
MS.216         	12.235         	8.873
MS.217         	12.212         	8.912
MS.218         	12.188         	8.795
MS.219         	12.162         	8.962
MS.220         	12.137         	8.856
MS.221         	12.115         	8.883
MS.222         	12.09          	8.913
MS.223         	12.065         	8.764
MS.224         	12.042         	8.597
MS.225         	12.017         	8.731
MS.226         	11.992         	8.689
MS.227         	11.97          	8.605
MS.228         	11.945         	8.659
MS.229         	11.922         	8.622
MS.230         	11.898         	8.698
MS.231         	11.875         	8.591
MS.232         	11.85          	8.604
MS.233         	11.827         	8.523
MS.234         	11.802         	8.585
MS.235         	11.78          	8.414
MS.236         	11.755         	8.609
MS.237         	11.733         	8.435
MS.238         	11.71          	8.463
MS.239         	11.685         	8.491
MS.240         	11.662         	8.408
MS.241         	11.64          	8.308
MS.242         	11.615         	8.545
MS.243         	11.592         	8.409
MS.244         	11.57          	8.296
MS.245         	11.547         	8.289
MS.246         	11.523         	8.348
MS.247         	11.5           	8.297
MS.248         	11.477         	8.324
MS.249         	11.455         	8.345
MS.250         	11.432         	8.323
MS.251         	11.407         	8.423
MS.252         	11.385         	8.211
MS.253         	11.363         	8.164
MS.254         	11.34          	8.173
MS.255         	11.318         	8.245
MS.256         	11.295         	8.189
MS.257         	11.273         	8.245
MS.258         	11.25          	8.076
MS.259         	11.227         	8.094
MS.260         	11.205         	8.237
MS.261         	11.182         	8.06
MS.262         	11.16          	8.012
MS.263         	11.137         	8.093
MS.264         	11.115         	8.081
MS.265         	11.092         	7.955
MS.266         	11.073         	7.921
MS.267         	11.05          	7.994
MS.268         	11.028         	7.968
MS.269         	11.005         	7.846
MS.270         	10.983         	7.829
MS.271         	10.962         	7.708
MS.272         	10.94          	7.754
MS.273         	10.917         	7.762
MS.274         	10.895         	7.712
MS.275         	10.875         	7.844
MS.276         	10.852         	7.618
MS.277         	10.83          	7.646
MS.278         	10.81          	7.741
MS.279         	10.787         	7.713
MS.280         	10.765         	7.575
MS.281         	10.745         	7.44
MS.282         	10.722         	7.647
MS.283         	10.702         	7.515
MS.284         	10.68          	7.412
MS.285         	10.657         	7.713
MS.286         	10.637         	7.521
MS.287         	10.615         	7.429
MS.288         	10.595         	7.416
MS.289         	10.573         	7.451
MS.290         	10.552         	7.405
MS.291         	10.532         	7.351
MS.292         	10.51          	7.335
MS.293         	10.49          	7.293
MS.294         	10.467         	7.364
MS.295         	10.448         	7.166
MS.296         	10.427         	7.227
MS.297         	10.405         	7.307
MS.298         	10.385         	7.294
MS.299         	10.365         	7.328
MS.300         	10.342         	7.227
MS.301         	10.323         	6.951
MS.302         	10.302         	7.055
MS.303         	10.282         	7.072
MS.304         	10.26          	7.144
MS.305         	10.24          	6.808
MS.306         	10.22          	6.946
MS.307         	10.2           	6.869
MS.308         	10.18          	7.062
MS.309         	10.16          	6.899
MS.310         	10.14          	6.923
MS.311         	10.117         	6.866
MS.312         	10.097         	6.685
MS.313         	10.077         	6.876
MS.314         	10.057         	6.817
MS.315         	10.037         	6.855
MS.316         	10.017         	6.829
MS.317         	9.997          	6.851
MS.318         	9.977          	6.798
MS.319         	9.957          	6.897
MS.320         	9.938          	6.727
MS.321         	9.917          	6.662
MS.322         	9.898          	6.747
MS.323         	9.877          	6.597
MS.324         	9.86           	6.543
MS.325         	9.84           	6.595
MS.326         	9.82           	6.609
MS.327         	9.8            	6.521
MS.328         	9.78           	6.582
MS.329         	9.76           	6.556
MS.330         	9.742          	6.45
MS.331         	9.722          	6.553
MS.332         	9.702          	6.215
MS.333         	9.682          	6.548
MS.334         	9.662          	6.427
MS.335         	9.645          	6.42
MS.336         	9.625          	6.313
MS.337         	9.605          	6.268
MS.338         	9.587          	6.166
MS.339         	9.568          	6.274
MS.340         	9.547          	6.218
MS.341         	9.53           	6.198
MS.342         	9.51           	6.143
MS.343         	9.492          	6.124
MS.344         	9.472          	6.111
MS.345         	9.452          	6.017
MS.346         	9.435          	5.949
MS.347         	9.415          	5.967
MS.348         	9.398          	6.221
MS.349         	9.377          	6.038
MS.350         	9.36           	5.789
MS.351         	9.34           	5.794
MS.352         	9.323          	5.894
MS.353         	9.302          	5.687
MS.354         	9.285          	5.59
MS.355         	9.265          	5.703
MS.356         	9.247          	5.729
MS.357         	9.23           	5.555
MS.358         	9.21           	5.538
MS.359         	9.193          	5.524
MS.360         	9.175          	5.461
MS.361         	9.155          	5.682
MS.362         	9.137          	5.443
MS.363         	9.12           	5.278
MS.364         	9.1            	5.379
MS.365         	9.082          	5.177
MS.366         	9.065          	5.188
MS.367         	9.047          	5.121
MS.368         	9.028          	5.302
MS.369         	9.01           	5.283
MS.370         	8.992          	5.024
MS.371         	8.975          	4.763
MS.372         	8.957          	4.852
MS.373         	8.938          	4.797
MS.374         	8.92           	4.979
MS.375         	8.903          	4.738
MS.376         	8.885          	4.852
MS.377         	8.867          	4.765
MS.378         	8.85           	4.534
MS.379         	8.832          	4.631
MS.380         	8.815          	4.686
MS.381         	8.797          	4.797
MS.382         	8.78           	4.603
MS.383         	8.762          	4.575
MS.384         	8.745          	4.449
MS.385         	8.727          	4.553
MS.386         	8.71           	4.626
MS.387         	8.693          	4.423
MS.388         	8.675          	4.589
MS.389         	8.658          	4.437
MS.390         	8.64           	4.321
MS.391         	8.622          	4.196
MS.392         	8.605          	4.18
MS.393         	8.587          	4.21
MS.394         	8.57           	4.377
MS.395         	8.555          	4.288
MS.396         	8.537          	4.263
MS.397         	8.52           	4.211
MS.398         	8.502          	4.015
MS.399         	8.485          	4.025
MS.400         	8.467          	3.912
MS.401         	8.452          	3.946
MS.402         	8.435          	3.947
MS.403         	8.417          	3.917
MS.404         	8.4            	4.079
MS.405         	8.385          	3.959
MS.406         	8.367          	3.885
MS.407         	8.35           	3.729
MS.408         	8.335          	3.713
MS.409         	8.318          	3.57
MS.410         	8.3            	3.462
MS.411         	8.285          	3.489
MS.412         	8.267          	3.699
MS.413         	8.252          	3.419
MS.414         	8.235          	3.382
MS.415         	8.217          	3.568
MS.416         	8.202          	3.316
MS.417         	8.185          	3.351
MS.418         	8.17           	3.21
MS.419         	8.153          	3.433
MS.420         	8.137          	3.298
MS.421         	8.12           	3.21
MS.422         	8.105          	3.145
MS.423         	8.087          	3.005
MS.424         	8.073          	3.11
MS.425         	8.055          	3.08
MS.426         	8.04           	3.268
MS.427         	8.023          	2.966
MS.428         	8.007          	2.949
MS.429         	7.992          	2.858
MS.430         	7.975          	2.758
MS.431         	7.96           	2.928
MS.432         	7.942          	2.899
MS.433         	7.927          	2.692
MS.434         	7.912          	2.862
MS.435         	7.895          	2.814
MS.436         	7.88           	2.708
MS.437         	7.865          	2.862
MS.438         	7.85           	2.63
MS.439         	7.832          	2.634
MS.440         	7.817          	2.675
MS.441         	7.802          	2.549
MS.442         	7.787          	2.67
MS.443         	7.77           	2.511
MS.444         	7.755          	2.487
MS.445         	7.74           	2.531
MS.446         	7.725          	2.402
MS.447         	7.71           	2.38
MS.448         	7.692          	2.326
MS.449         	7.677          	2.343
MS.450         	7.662          	2.442
MS.451         	7.648          	2.32
MS.452         	7.632          	2.233
MS.453         	7.617          	2.2
MS.454         	7.602          	2.112
MS.455         	7.587          	2.047
MS.456         	7.572          	2.103
MS.457         	7.555          	2.141
MS.458         	7.54           	2.131
MS.459         	7.525          	2.037
MS.460         	7.51           	2.044
MS.461         	7.495          	2.012
MS.462         	7.48           	1.985
MS.463         	7.465          	2.016
MS.464         	7.45           	1.827
MS.465         	7.438          	1.77
MS.466         	7.422          	1.912
MS.467         	7.407          	1.906
MS.468         	7.392          	1.843
MS.469         	7.378          	1.721
MS.470         	7.362          	1.642
MS.471         	7.347          	1.633
MS.472         	7.332          	1.599
MS.473         	7.317          	1.584
MS.474         	7.302          	1.67
MS.475         	7.29           	1.464
MS.476         	7.275          	1.538
MS.477         	7.26           	1.609
MS.478         	7.245          	1.461
MS.479         	7.23           	1.47
MS.480         	7.217          	1.353
MS.481         	7.202          	1.191
MS.482         	7.188          	1.451
MS.483         	7.172          	1.368
MS.484         	7.16           	1.394
MS.485         	7.145          	1.118
MS.486         	7.13           	1.179
MS.487         	7.115          	1.238
MS.488         	7.102          	1.199
MS.489         	7.087          	1.135
MS.490         	7.072          	1.167
MS.491         	7.06           	0.989
MS.492         	7.045          	1.171
MS.493         	7.032          	1.08
MS.494         	7.017          	0.981
MS.495         	7.003          	1.019
MS.496         	6.99           	0.934
MS.497         	6.975          	0.917
MS.498         	6.962          	0.884
MS.499         	6.947          	0.802
MS.500         	6.932          	0.92
MS.501         	6.92           	0.805
MS.502         	6.905          	0.945
MS.503         	6.892          	0.853
