File:              	C:\Qtrac\Data\ME2C30712C.QZD
Name:              	 MI19Y
Protocol:          	MSCAN-MV
Date:              	12/7/23
Date of birth:     	19/10/99
Age:               	23
Sex:               	F
Temperature:       	32.3
S/R sites:         	knee CF-TA
NC/disease:        	NC
Operator:          	BY
Comments:
M-SCAN DATA (Repeat 2/3, 23.2-15.2m)
Scanpts: 51, 65, 593, 612
Stim. (mA)     	Amp. (mV)
MS.1           	8              	6.061
MS.2           	8              	5.952
MS.3           	8              	5.939
MS.4           	8              	5.936
MS.5           	8              	5.9
MS.6           	8              	5.915
MS.7           	8              	5.88
MS.8           	8              	5.876
MS.9           	8              	5.869
MS.10          	8              	5.949
MS.11          	8              	5.888
MS.12          	8              	5.874
MS.13          	8              	5.925
MS.14          	8              	5.953
MS.15          	8              	5.944
MS.16          	8              	5.903
MS.17          	8              	5.944
MS.18          	8              	5.925
MS.19          	8              	5.944
MS.20          	8              	5.977
MS.21          	8              	5.984
MS.22          	8              	5.948
MS.23          	8              	5.954
MS.24          	7.985          	5.95
MS.25          	7.967          	6.013
MS.26          	7.952          	5.946
MS.27          	7.938          	5.981
MS.28          	7.92           	6.046
MS.29          	7.905          	5.999
MS.30          	7.89           	5.991
MS.31          	7.872          	5.961
MS.32          	7.857          	5.995
MS.33          	7.842          	5.919
MS.34          	7.825          	5.969
MS.35          	7.81           	5.98
MS.36          	7.795          	5.934
MS.37          	7.78           	5.942
MS.38          	7.762          	5.967
MS.39          	7.747          	5.963
MS.40          	7.732          	5.964
MS.41          	7.717          	5.944
MS.42          	7.702          	5.94
MS.43          	7.688          	5.917
MS.44          	7.67           	5.922
MS.45          	7.655          	5.891
MS.46          	7.64           	6.017
MS.47          	7.625          	5.958
MS.48          	7.61           	5.924
MS.49          	7.595          	5.942
MS.50          	7.58           	5.962
MS.51          	7.565          	5.977
MS.52          	7.55           	5.959
MS.53          	7.535          	5.933
MS.54          	7.52           	5.954
MS.55          	7.505          	5.919
MS.56          	7.49           	5.939
MS.57          	7.475          	6.002
MS.58          	7.46           	5.932
MS.59          	7.445          	5.925
MS.60          	7.43           	6.003
MS.61          	7.415          	5.956
MS.62          	7.4            	5.923
MS.63          	7.385          	5.909
MS.64          	7.37           	5.947
MS.65          	7.355          	5.931
MS.66          	7.34           	5.938
MS.67          	7.325          	5.883
MS.68          	7.312          	5.963
MS.69          	7.297          	5.902
MS.70          	7.282          	5.852
MS.71          	7.267          	5.98
MS.72          	7.253          	5.882
MS.73          	7.237          	5.962
MS.74          	7.225          	5.878
MS.75          	7.21           	5.902
MS.76          	7.195          	5.8
MS.77          	7.18           	5.876
MS.78          	7.168          	5.897
MS.79          	7.152          	5.889
MS.80          	7.137          	5.947
MS.81          	7.125          	5.956
MS.82          	7.11           	5.86
MS.83          	7.095          	5.867
MS.84          	7.08           	5.875
MS.85          	7.067          	5.798
MS.86          	7.052          	5.835
MS.87          	7.04           	5.887
MS.88          	7.025          	5.895
MS.89          	7.01           	5.879
MS.90          	6.997          	5.885
MS.91          	6.983          	5.791
MS.92          	6.97           	5.826
MS.93          	6.955          	5.837
MS.94          	6.94           	5.832
MS.95          	6.927          	5.895
MS.96          	6.912          	5.934
MS.97          	6.9            	5.946
MS.98          	6.885          	5.884
MS.99          	6.872          	5.89
MS.100         	6.858          	5.82
MS.101         	6.845          	5.884
MS.102         	6.83           	5.919
MS.103         	6.817          	5.905
MS.104         	6.802          	5.839
MS.105         	6.79           	5.899
MS.106         	6.777          	5.921
MS.107         	6.762          	5.905
MS.108         	6.75           	5.829
MS.109         	6.735          	5.857
MS.110         	6.722          	5.881
MS.111         	6.71           	5.871
MS.112         	6.695          	5.851
MS.113         	6.682          	5.831
MS.114         	6.67           	5.81
MS.115         	6.655          	5.914
MS.116         	6.642          	5.878
MS.117         	6.63           	5.848
MS.118         	6.615          	5.851
MS.119         	6.602          	5.869
MS.120         	6.59           	5.813
MS.121         	6.575          	5.829
MS.122         	6.562          	5.883
MS.123         	6.55           	5.815
MS.124         	6.537          	5.865
MS.125         	6.523          	5.82
MS.126         	6.51           	5.834
MS.127         	6.497          	5.814
MS.128         	6.485          	5.832
MS.129         	6.472          	5.795
MS.130         	6.46           	5.858
MS.131         	6.445          	5.793
MS.132         	6.432          	5.78
MS.133         	6.42           	5.829
MS.134         	6.407          	5.781
MS.135         	6.395          	5.799
MS.136         	6.382          	5.776
MS.137         	6.37           	5.862
MS.138         	6.358          	5.842
MS.139         	6.342          	5.873
MS.140         	6.33           	5.829
MS.141         	6.317          	5.824
MS.142         	6.305          	5.81
MS.143         	6.293          	5.846
MS.144         	6.28           	5.887
MS.145         	6.267          	5.904
MS.146         	6.255          	5.891
MS.147         	6.242          	5.823
MS.148         	6.23           	5.911
MS.149         	6.217          	5.801
MS.150         	6.205          	5.872
MS.151         	6.192          	5.887
MS.152         	6.18           	5.856
MS.153         	6.168          	5.858
MS.154         	6.155          	5.858
MS.155         	6.145          	5.836
MS.156         	6.132          	5.89
MS.157         	6.12           	5.844
MS.158         	6.108          	5.851
MS.159         	6.095          	5.893
MS.160         	6.082          	5.883
MS.161         	6.07           	5.798
MS.162         	6.057          	5.881
MS.163         	6.047          	5.837
MS.164         	6.035          	5.848
MS.165         	6.023          	5.836
MS.166         	6.01           	5.797
MS.167         	5.997          	5.837
MS.168         	5.985          	5.808
MS.169         	5.975          	5.809
MS.170         	5.963          	5.777
MS.171         	5.95           	5.807
MS.172         	5.938          	5.848
MS.173         	5.927          	5.814
MS.174         	5.915          	5.79
MS.175         	5.902          	5.831
MS.176         	5.89           	5.701
MS.177         	5.88           	5.775
MS.178         	5.867          	5.806
MS.179         	5.855          	5.756
MS.180         	5.845          	5.703
MS.181         	5.832          	5.74
MS.182         	5.82           	5.784
MS.183         	5.81           	5.72
MS.184         	5.797          	5.726
MS.185         	5.785          	5.683
MS.186         	5.775          	5.708
MS.187         	5.762          	5.717
MS.188         	5.753          	5.662
MS.189         	5.74           	5.671
MS.190         	5.727          	5.715
MS.191         	5.717          	5.704
MS.192         	5.705          	5.656
MS.193         	5.695          	5.645
MS.194         	5.682          	5.648
MS.195         	5.672          	5.687
MS.196         	5.66           	5.688
MS.197         	5.65           	5.657
MS.198         	5.637          	5.669
MS.199         	5.625          	5.561
MS.200         	5.615          	5.64
MS.201         	5.605          	5.613
MS.202         	5.592          	5.536
MS.203         	5.582          	5.58
MS.204         	5.57           	5.544
MS.205         	5.56           	5.545
MS.206         	5.547          	5.513
MS.207         	5.537          	5.546
MS.208         	5.525          	5.507
MS.209         	5.515          	5.488
MS.210         	5.505          	5.527
MS.211         	5.492          	5.538
MS.212         	5.483          	5.43
MS.213         	5.47           	5.41
MS.214         	5.46           	5.516
MS.215         	5.45           	5.499
MS.216         	5.438          	5.452
MS.217         	5.427          	5.416
MS.218         	5.418          	5.421
MS.219         	5.405          	5.443
MS.220         	5.395          	5.453
MS.221         	5.385          	5.34
MS.222         	5.372          	5.338
MS.223         	5.362          	5.381
MS.224         	5.352          	5.448
MS.225         	5.34           	5.322
MS.226         	5.33           	5.356
MS.227         	5.32           	5.366
MS.228         	5.31           	5.322
MS.229         	5.297          	5.32
MS.230         	5.287          	5.33
MS.231         	5.277          	5.299
MS.232         	5.267          	5.312
MS.233         	5.257          	5.211
MS.234         	5.245          	5.258
MS.235         	5.235          	5.244
MS.236         	5.225          	5.317
MS.237         	5.215          	5.222
MS.238         	5.205          	5.226
MS.239         	5.193          	5.264
MS.240         	5.182          	5.226
MS.241         	5.172          	5.183
MS.242         	5.162          	5.19
MS.243         	5.152          	5.199
MS.244         	5.142          	5.244
MS.245         	5.132          	5.135
MS.246         	5.122          	5.132
MS.247         	5.11           	5.096
MS.248         	5.1            	5.089
MS.249         	5.09           	5.091
MS.250         	5.08           	5.05
MS.251         	5.07           	5.054
MS.252         	5.06           	5.11
MS.253         	5.05           	5.126
MS.254         	5.04           	5.033
MS.255         	5.03           	5.013
MS.256         	5.02           	4.973
MS.257         	5.01           	5.02
MS.258         	5              	4.919
MS.259         	4.99           	5.013
MS.260         	4.98           	4.971
MS.261         	4.97           	4.921
MS.262         	4.96           	4.913
MS.263         	4.95           	4.929
MS.264         	4.94           	4.891
MS.265         	4.93           	4.919
MS.266         	4.92           	4.886
MS.267         	4.91           	4.9
MS.268         	4.9            	4.871
MS.269         	4.89           	4.93
MS.270         	4.882          	4.854
MS.271         	4.872          	4.895
MS.272         	4.862          	4.984
MS.273         	4.852          	4.778
MS.274         	4.842          	4.912
MS.275         	4.832          	4.822
MS.276         	4.822          	4.793
MS.277         	4.812          	4.683
MS.278         	4.805          	4.604
MS.279         	4.795          	4.758
MS.280         	4.785          	4.739
MS.281         	4.775          	4.814
MS.282         	4.765          	4.639
MS.283         	4.755          	4.695
MS.284         	4.747          	4.671
MS.285         	4.737          	4.686
MS.286         	4.727          	4.599
MS.287         	4.717          	4.534
MS.288         	4.71           	4.586
MS.289         	4.7            	4.482
MS.290         	4.69           	4.538
MS.291         	4.68           	4.506
MS.292         	4.673          	4.539
MS.293         	4.662          	4.658
MS.294         	4.652          	4.51
MS.295         	4.642          	4.401
MS.296         	4.635          	4.407
MS.297         	4.625          	4.572
MS.298         	4.615          	4.468
MS.299         	4.608          	4.345
MS.300         	4.597          	4.325
MS.301         	4.588          	4.322
MS.302         	4.58           	4.302
MS.303         	4.57           	4.277
MS.304         	4.56           	4.247
MS.305         	4.552          	4.267
MS.306         	4.543          	4.321
MS.307         	4.532          	4.229
MS.308         	4.525          	4.232
MS.309         	4.515          	4.265
MS.310         	4.505          	4.194
MS.311         	4.497          	4.232
MS.312         	4.487          	4.139
MS.313         	4.48           	4.187
MS.314         	4.47           	4.209
MS.315         	4.463          	4.14
MS.316         	4.452          	4.171
MS.317         	4.443          	4.153
MS.318         	4.435          	4.1
MS.319         	4.425          	4.138
MS.320         	4.418          	4.075
MS.321         	4.407          	4.02
MS.322         	4.4            	4.082
MS.323         	4.39           	4.084
MS.324         	4.382          	3.986
MS.325         	4.372          	3.865
MS.326         	4.365          	4.062
MS.327         	4.355          	3.967
MS.328         	4.347          	3.842
MS.329         	4.338          	3.85
MS.330         	4.33           	3.917
MS.331         	4.32           	3.855
MS.332         	4.312          	3.842
MS.333         	4.302          	3.717
MS.334         	4.295          	3.712
MS.335         	4.287          	3.669
MS.336         	4.277          	3.654
MS.337         	4.27           	3.571
MS.338         	4.26           	3.657
MS.339         	4.253          	3.663
MS.340         	4.242          	3.76
MS.341         	4.235          	3.734
MS.342         	4.227          	3.595
MS.343         	4.217          	3.599
MS.344         	4.21           	3.609
MS.345         	4.202          	3.581
MS.346         	4.193          	3.544
MS.347         	4.185          	3.568
MS.348         	4.177          	3.549
MS.349         	4.168          	3.461
MS.350         	4.16           	3.381
MS.351         	4.152          	3.499
MS.352         	4.142          	3.365
MS.353         	4.135          	3.407
MS.354         	4.128          	3.284
MS.355         	4.117          	3.276
MS.356         	4.11           	3.375
MS.357         	4.102          	3.206
MS.358         	4.092          	3.344
MS.359         	4.085          	3.331
MS.360         	4.077          	3.321
MS.361         	4.07           	3.249
MS.362         	4.06           	3.245
MS.363         	4.052          	3.165
MS.364         	4.045          	3.124
MS.365         	4.037          	3.233
MS.366         	4.027          	3.129
MS.367         	4.02           	3.157
MS.368         	4.012          	3.082
MS.369         	4.005          	3.181
MS.370         	3.997          	3.088
MS.371         	3.987          	3.116
MS.372         	3.98           	2.9
MS.373         	3.972          	3.015
MS.374         	3.965          	3.037
MS.375         	3.957          	2.857
MS.376         	3.95           	2.979
MS.377         	3.94           	2.908
MS.378         	3.932          	2.969
MS.379         	3.925          	2.929
MS.380         	3.918          	2.864
MS.381         	3.91           	2.838
MS.382         	3.902          	2.886
MS.383         	3.895          	2.789
MS.384         	3.885          	2.775
MS.385         	3.877          	2.861
MS.386         	3.87           	2.65
MS.387         	3.862          	2.762
MS.388         	3.855          	2.758
MS.389         	3.847          	2.75
MS.390         	3.84           	2.671
MS.391         	3.832          	2.574
MS.392         	3.825          	2.626
MS.393         	3.817          	2.467
MS.394         	3.81           	2.592
MS.395         	3.803          	2.537
MS.396         	3.795          	2.538
MS.397         	3.787          	2.524
MS.398         	3.78           	2.421
MS.399         	3.772          	2.503
MS.400         	3.765          	2.346
MS.401         	3.757          	2.393
MS.402         	3.75           	2.343
MS.403         	3.742          	2.386
MS.404         	3.735          	2.288
MS.405         	3.727          	2.256
MS.406         	3.72           	2.228
MS.407         	3.712          	2.26
MS.408         	3.705          	2.173
MS.409         	3.697          	2.131
MS.410         	3.69           	2.017
MS.411         	3.682          	2.197
MS.412         	3.675          	2.174
MS.413         	3.668          	2.07
MS.414         	3.66           	2.065
MS.415         	3.652          	1.996
MS.416         	3.645          	2.097
MS.417         	3.637          	1.904
MS.418         	3.63           	1.95
MS.419         	3.622          	1.936
MS.420         	3.617          	1.95
MS.421         	3.61           	1.783
MS.422         	3.602          	1.898
MS.423         	3.595          	1.97
MS.424         	3.587          	1.794
MS.425         	3.58           	1.766
MS.426         	3.572          	1.796
MS.427         	3.565          	1.762
MS.428         	3.56           	1.659
MS.429         	3.553          	1.75
MS.430         	3.545          	1.653
MS.431         	3.537          	1.605
MS.432         	3.53           	1.648
MS.433         	3.523          	1.515
MS.434         	3.517          	1.424
MS.435         	3.51           	1.677
MS.436         	3.502          	1.454
MS.437         	3.495          	1.503
MS.438         	3.487          	1.482
MS.439         	3.482          	1.526
MS.440         	3.475          	1.393
MS.441         	3.467          	1.335
MS.442         	3.46           	1.412
MS.443         	3.452          	1.329
MS.444         	3.447          	1.359
MS.445         	3.44           	1.288
MS.446         	3.432          	1.29
MS.447         	3.425          	1.311
MS.448         	3.42           	1.252
MS.449         	3.412          	1.135
MS.450         	3.405          	1.1
MS.451         	3.4            	1.201
MS.452         	3.392          	1.151
MS.453         	3.385          	1.102
MS.454         	3.377          	1.173
MS.455         	3.372          	1.111
MS.456         	3.365          	1.14
MS.457         	3.357          	0.954
MS.458         	3.352          	1.066
MS.459         	3.345          	1.009
MS.460         	3.337          	0.896
MS.461         	3.332          	0.964
MS.462         	3.325          	0.989
MS.463         	3.317          	0.879
MS.464         	3.312          	0.868
MS.465         	3.305          	0.903
MS.466         	3.297          	0.847
MS.467         	3.293          	0.789
MS.468         	3.285          	0.821
MS.469         	3.277          	0.833
MS.470         	3.273          	0.74
MS.471         	3.265          	0.811
MS.472         	3.26           	0.65
MS.473         	3.252          	0.716
MS.474         	3.245          	0.782
MS.475         	3.24           	0.67
MS.476         	3.232          	0.594
MS.477         	3.227          	0.663
MS.478         	3.22           	0.671
MS.479         	3.215          	0.66
MS.480         	3.207          	0.608
MS.481         	3.2            	0.596
MS.482         	3.195          	0.529
MS.483         	3.188          	0.57
MS.484         	3.182          	0.588
MS.485         	3.175          	0.483
MS.486         	3.17           	0.471
MS.487         	3.162          	0.5
MS.488         	3.158          	0.499
MS.489         	3.15           	0.43
MS.490         	3.145          	0.43
MS.491         	3.138          	0.457
MS.492         	3.132          	0.449
MS.493         	3.125          	0.276
MS.494         	3.12           	0.297
MS.495         	3.112          	0.327
MS.496         	3.107          	0.281
MS.497         	3.1            	0.28
MS.498         	3.095          	0.27
MS.499         	3.087          	0.195
MS.500         	3.082          	0.177
MS.501         	3.075          	0.305
MS.502         	3.07           	0.229
MS.503         	3.062          	0.181
