File:              	C:\Qtrac\Data\ME2C30630A.QZD
Name:              	 SO09N
Protocol:          	MSCAN-MV
Date:              	30/6/23
Date of birth:     	9/6/00
Age:               	23
Sex:               	M
Temperature:       	32.5
S/R sites:         	Knee CF-TA
NC/disease:        	NC
Operator:          	BY
Comments:
M-SCAN DATA (Repeat 2/3, 24.8-16.5m)
Scanpts: 1, 23, 580, 665
Stim. (mA)     	Amp. (mV)
MS.1           	13.5           	6.595
MS.2           	13.5           	6.61
MS.3           	13.5           	6.584
MS.4           	13.5           	6.594
MS.5           	13.5           	6.589
MS.6           	13.5           	6.561
MS.7           	13.5           	6.588
MS.8           	13.5           	6.591
MS.9           	13.5           	6.594
MS.10          	13.5           	6.591
MS.11          	13.5           	6.605
MS.12          	13.5           	6.594
MS.13          	13.5           	6.6
MS.14          	13.5           	6.594
MS.15          	13.5           	6.596
MS.16          	13.5           	6.591
MS.17          	13.5           	6.575
MS.18          	13.5           	6.599
MS.19          	13.5           	6.562
MS.20          	13.5           	6.578
MS.21          	13.5           	6.565
MS.22          	13.5           	6.575
MS.23          	13.5           	6.584
MS.24          	13.472         	6.592
MS.25          	13.445         	6.591
MS.26          	13.42          	6.575
MS.27          	13.392         	6.581
MS.28          	13.365         	6.572
MS.29          	13.34          	6.58
MS.30          	13.312         	6.58
MS.31          	13.285         	6.564
MS.32          	13.26          	6.584
MS.33          	13.233         	6.593
MS.34          	13.205         	6.558
MS.35          	13.18          	6.563
MS.36          	13.153         	6.583
MS.37          	13.127         	6.573
MS.38          	13.1           	6.572
MS.39          	13.075         	6.511
MS.40          	13.047         	6.558
MS.41          	13.023         	6.531
MS.42          	12.997         	6.569
MS.43          	12.97          	6.574
MS.44          	12.945         	6.558
MS.45          	12.92          	6.526
MS.46          	12.892         	6.53
MS.47          	12.867         	6.556
MS.48          	12.842         	6.557
MS.49          	12.815         	6.562
MS.50          	12.79          	6.537
MS.51          	12.765         	6.53
MS.52          	12.74          	6.523
MS.53          	12.715         	6.514
MS.54          	12.688         	6.571
MS.55          	12.662         	6.51
MS.56          	12.637         	6.535
MS.57          	12.613         	6.518
MS.58          	12.587         	6.524
MS.59          	12.562         	6.534
MS.60          	12.537         	6.543
MS.61          	12.512         	6.526
MS.62          	12.488         	6.533
MS.63          	12.462         	6.539
MS.64          	12.438         	6.57
MS.65          	12.412         	6.516
MS.66          	12.387         	6.519
MS.67          	12.363         	6.537
MS.68          	12.337         	6.523
MS.69          	12.312         	6.533
MS.70          	12.29          	6.539
MS.71          	12.265         	6.516
MS.72          	12.24          	6.515
MS.73          	12.215         	6.506
MS.74          	12.19          	6.523
MS.75          	12.167         	6.523
MS.76          	12.142         	6.525
MS.77          	12.117         	6.521
MS.78          	12.095         	6.525
MS.79          	12.07          	6.492
MS.80          	12.045         	6.525
MS.81          	12.023         	6.512
MS.82          	11.997         	6.506
MS.83          	11.972         	6.507
MS.84          	11.95          	6.508
MS.85          	11.925         	6.498
MS.86          	11.903         	6.483
MS.87          	11.877         	6.487
MS.88          	11.855         	6.501
MS.89          	11.83          	6.495
MS.90          	11.807         	6.501
MS.91          	11.782         	6.497
MS.92          	11.76          	6.5
MS.93          	11.738         	6.484
MS.94          	11.712         	6.494
MS.95          	11.69          	6.473
MS.96          	11.665         	6.459
MS.97          	11.642         	6.487
MS.98          	11.62          	6.462
MS.99          	11.597         	6.484
MS.100         	11.572         	6.476
MS.101         	11.55          	6.486
MS.102         	11.528         	6.466
MS.103         	11.505         	6.445
MS.104         	11.48          	6.463
MS.105         	11.457         	6.464
MS.106         	11.435         	6.434
MS.107         	11.412         	6.461
MS.108         	11.39          	6.456
MS.109         	11.367         	6.447
MS.110         	11.345         	6.422
MS.111         	11.322         	6.441
MS.112         	11.297         	6.446
MS.113         	11.275         	6.453
MS.114         	11.252         	6.434
MS.115         	11.23          	6.454
MS.116         	11.207         	6.418
MS.117         	11.188         	6.448
MS.118         	11.165         	6.438
MS.119         	11.142         	6.37
MS.120         	11.12          	6.418
MS.121         	11.097         	6.442
MS.122         	11.075         	6.389
MS.123         	11.052         	6.27
MS.124         	11.03          	6.387
MS.125         	11.007         	6.372
MS.126         	10.988         	6.377
MS.127         	10.965         	6.347
MS.128         	10.943         	6.264
MS.129         	10.92          	6.307
MS.130         	10.9           	6.297
MS.131         	10.877         	6.332
MS.132         	10.855         	6.299
MS.133         	10.835         	6.391
MS.134         	10.812         	6.279
MS.135         	10.79          	6.256
MS.136         	10.77          	6.28
MS.137         	10.747         	6.265
MS.138         	10.725         	6.279
MS.139         	10.705         	6.245
MS.140         	10.682         	6.196
MS.141         	10.662         	6.223
MS.142         	10.64          	6.263
MS.143         	10.62          	6.202
MS.144         	10.597         	6.204
MS.145         	10.577         	6.166
MS.146         	10.555         	6.127
MS.147         	10.535         	6.229
MS.148         	10.515         	6.23
MS.149         	10.492         	6.086
MS.150         	10.472         	6.14
MS.151         	10.45          	6.19
MS.152         	10.43          	6.109
MS.153         	10.41          	6.127
MS.154         	10.387         	6.125
MS.155         	10.367         	6.173
MS.156         	10.347         	6.122
MS.157         	10.327         	6.108
MS.158         	10.305         	6.096
MS.159         	10.285         	6.145
MS.160         	10.265         	6.092
MS.161         	10.245         	6.008
MS.162         	10.222         	5.995
MS.163         	10.202         	6.042
MS.164         	10.182         	6.005
MS.165         	10.162         	5.909
MS.166         	10.142         	5.923
MS.167         	10.122         	6.029
MS.168         	10.102         	5.869
MS.169         	10.082         	5.942
MS.170         	10.06          	5.817
MS.171         	10.04          	5.849
MS.172         	10.02          	5.906
MS.173         	10             	5.854
MS.174         	9.98           	5.856
MS.175         	9.96           	5.854
MS.176         	9.94           	5.839
MS.177         	9.922          	5.844
MS.178         	9.903          	5.76
MS.179         	9.882          	5.795
MS.180         	9.863          	5.764
MS.181         	9.842          	5.778
MS.182         	9.823          	5.71
MS.183         	9.802          	5.657
MS.184         	9.782          	5.773
MS.185         	9.765          	5.841
MS.186         	9.745          	5.787
MS.187         	9.725          	5.699
MS.188         	9.705          	5.709
MS.189         	9.685          	5.729
MS.190         	9.667          	5.795
MS.191         	9.648          	5.618
MS.192         	9.627          	5.717
MS.193         	9.61           	5.67
MS.194         	9.59           	5.671
MS.195         	9.57           	5.536
MS.196         	9.552          	5.736
MS.197         	9.532          	5.659
MS.198         	9.512          	5.674
MS.199         	9.495          	5.512
MS.200         	9.475          	5.601
MS.201         	9.457          	5.586
MS.202         	9.438          	5.531
MS.203         	9.417          	5.538
MS.204         	9.4            	5.549
MS.205         	9.38           	5.466
MS.206         	9.363          	5.505
MS.207         	9.342          	5.592
MS.208         	9.325          	5.189
MS.209         	9.307          	5.487
MS.210         	9.287          	5.22
MS.211         	9.27           	5.251
MS.212         	9.25           	5.224
MS.213         	9.233          	5.327
MS.214         	9.212          	5.317
MS.215         	9.195          	5.117
MS.216         	9.177          	5.139
MS.217         	9.158          	4.969
MS.218         	9.14           	4.946
MS.219         	9.122          	5.153
MS.220         	9.105          	4.968
MS.221         	9.085          	4.993
MS.222         	9.068          	4.859
MS.223         	9.05           	4.996
MS.224         	9.03           	4.896
MS.225         	9.012          	4.847
MS.226         	8.995          	4.891
MS.227         	8.977          	4.775
MS.228         	8.96           	4.724
MS.229         	8.943          	4.758
MS.230         	8.922          	4.608
MS.231         	8.905          	4.766
MS.232         	8.887          	4.685
MS.233         	8.87           	4.719
MS.234         	8.852          	4.603
MS.235         	8.835          	4.633
MS.236         	8.818          	4.609
MS.237         	8.8            	4.431
MS.238         	8.783          	4.68
MS.239         	8.765          	4.542
MS.240         	8.747          	4.424
MS.241         	8.73           	4.315
MS.242         	8.712          	4.325
MS.243         	8.695          	4.404
MS.244         	8.677          	4.351
MS.245         	8.66           	4.364
MS.246         	8.642          	4.32
MS.247         	8.625          	4.156
MS.248         	8.608          	4.282
MS.249         	8.59           	4.111
MS.250         	8.573          	4.163
MS.251         	8.557          	4.043
MS.252         	8.54           	4.164
MS.253         	8.523          	4.14
MS.254         	8.505          	4.147
MS.255         	8.488          	4.024
MS.256         	8.472          	4.157
MS.257         	8.455          	3.926
MS.258         	8.438          	3.959
MS.259         	8.42           	3.946
MS.260         	8.405          	3.852
MS.261         	8.387          	4.025
MS.262         	8.37           	3.881
MS.263         	8.352          	3.84
MS.264         	8.337          	3.798
MS.265         	8.32           	3.669
MS.266         	8.302          	3.962
MS.267         	8.287          	3.765
MS.268         	8.27           	3.911
MS.269         	8.255          	3.741
MS.270         	8.238          	3.885
MS.271         	8.22           	3.633
MS.272         	8.205          	3.854
MS.273         	8.188          	3.666
MS.274         	8.172          	3.732
MS.275         	8.155          	3.547
MS.276         	8.14           	3.544
MS.277         	8.122          	3.516
MS.278         	8.108          	3.519
MS.279         	8.09           	3.593
MS.280         	8.075          	3.486
MS.281         	8.057          	3.434
MS.282         	8.042          	3.531
MS.283         	8.025          	3.474
MS.284         	8.01           	3.425
MS.285         	7.995          	3.403
MS.286         	7.977          	3.444
MS.287         	7.962          	3.48
MS.288         	7.945          	3.355
MS.289         	7.93           	3.408
MS.290         	7.915          	3.27
MS.291         	7.898          	3.369
MS.292         	7.882          	3.287
MS.293         	7.867          	3.323
MS.294         	7.852          	3.327
MS.295         	7.835          	3.237
MS.296         	7.82           	3.267
MS.297         	7.805          	3.198
MS.298         	7.79           	3.267
MS.299         	7.773          	3.048
MS.300         	7.757          	3.176
MS.301         	7.742          	3.157
MS.302         	7.727          	3.177
MS.303         	7.712          	3.126
MS.304         	7.695          	3.08
MS.305         	7.68           	3.034
MS.306         	7.665          	3.035
MS.307         	7.65           	2.99
MS.308         	7.635          	2.946
MS.309         	7.62           	3.028
MS.310         	7.605          	3.036
MS.311         	7.59           	3.014
MS.312         	7.575          	2.896
MS.313         	7.557          	2.862
MS.314         	7.543          	2.907
MS.315         	7.527          	2.916
MS.316         	7.512          	2.819
MS.317         	7.497          	2.817
MS.318         	7.482          	2.775
MS.319         	7.467          	2.838
MS.320         	7.452          	2.663
MS.321         	7.438          	2.7
MS.322         	7.425          	2.735
MS.323         	7.41           	2.579
MS.324         	7.395          	2.61
MS.325         	7.38           	2.564
MS.326         	7.365          	2.499
MS.327         	7.35           	2.576
MS.328         	7.335          	2.375
MS.329         	7.32           	2.437
MS.330         	7.305          	2.501
MS.331         	7.293          	2.434
MS.332         	7.277          	2.433
MS.333         	7.262          	2.545
MS.334         	7.247          	2.473
MS.335         	7.233          	2.429
MS.336         	7.22           	2.416
MS.337         	7.205          	2.38
MS.338         	7.19           	2.445
MS.339         	7.175          	2.224
MS.340         	7.162          	2.238
MS.341         	7.148          	2.278
MS.342         	7.132          	2.311
MS.343         	7.117          	2.261
MS.344         	7.105          	2.349
MS.345         	7.09           	2.161
MS.346         	7.075          	2.243
MS.347         	7.062          	2.209
MS.348         	7.047          	2.175
MS.349         	7.032          	2.1
MS.350         	7.02           	2.036
MS.351         	7.005          	2.036
MS.352         	6.992          	2.032
MS.353         	6.977          	2.136
MS.354         	6.962          	1.984
MS.355         	6.95           	2.006
MS.356         	6.935          	1.971
MS.357         	6.922          	1.954
MS.358         	6.907          	2.029
MS.359         	6.895          	1.944
MS.360         	6.88           	1.953
MS.361         	6.867          	1.881
MS.362         	6.852          	1.904
MS.363         	6.84           	1.982
MS.364         	6.825          	1.838
MS.365         	6.812          	1.88
MS.366         	6.797          	1.812
MS.367         	6.785          	1.726
MS.368         	6.773          	1.749
MS.369         	6.757          	1.73
MS.370         	6.745          	1.655
MS.371         	6.73           	1.795
MS.372         	6.717          	1.635
MS.373         	6.705          	1.7
MS.374         	6.69           	1.618
MS.375         	6.677          	1.58
MS.376         	6.665          	1.591
MS.377         	6.65           	1.523
MS.378         	6.637          	1.575
MS.379         	6.625          	1.537
MS.380         	6.61           	1.477
MS.381         	6.597          	1.545
MS.382         	6.585          	1.545
MS.383         	6.57           	1.478
MS.384         	6.557          	1.439
MS.385         	6.545          	1.441
MS.386         	6.532          	1.293
MS.387         	6.52           	1.252
MS.388         	6.505          	1.368
MS.389         	6.492          	1.25
MS.390         	6.48           	1.389
MS.391         	6.467          	1.262
MS.392         	6.455          	1.212
MS.393         	6.44           	1.265
MS.394         	6.427          	1.382
MS.395         	6.415          	1.342
MS.396         	6.402          	1.255
MS.397         	6.39           	1.273
MS.398         	6.378          	1.225
MS.399         	6.365          	1.166
MS.400         	6.352          	1.151
MS.401         	6.34           	1.115
MS.402         	6.325          	1.098
MS.403         	6.312          	1.124
MS.404         	6.3            	1.16
MS.405         	6.287          	1.125
MS.406         	6.275          	1.089
MS.407         	6.262          	1.03
MS.408         	6.25           	1.017
MS.409         	6.237          	0.975
MS.410         	6.225          	0.981
MS.411         	6.213          	1.011
MS.412         	6.2            	0.947
MS.413         	6.188          	0.955
MS.414         	6.175          	0.909
MS.415         	6.165          	0.915
MS.416         	6.152          	0.919
MS.417         	6.14           	0.897
MS.418         	6.128          	0.831
MS.419         	6.115          	0.837
MS.420         	6.102          	0.773
MS.421         	6.09           	0.887
MS.422         	6.077          	0.776
MS.423         	6.065          	0.766
MS.424         	6.055          	0.779
MS.425         	6.043          	0.802
MS.426         	6.03           	0.798
MS.427         	6.017          	0.765
MS.428         	6.005          	0.677
MS.429         	5.992          	0.665
MS.430         	5.983          	0.743
MS.431         	5.97           	0.693
MS.432         	5.957          	0.618
MS.433         	5.945          	0.63
MS.434         	5.935          	0.611
MS.435         	5.922          	0.574
MS.436         	5.91           	0.647
MS.437         	5.898          	0.636
MS.438         	5.887          	0.578
MS.439         	5.875          	0.601
MS.440         	5.862          	0.626
MS.441         	5.852          	0.612
MS.442         	5.84           	0.54
MS.443         	5.827          	0.54
MS.444         	5.817          	0.571
MS.445         	5.805          	0.501
MS.446         	5.793          	0.511
MS.447         	5.782          	0.57
MS.448         	5.77           	0.481
MS.449         	5.757          	0.475
MS.450         	5.747          	0.49
MS.451         	5.735          	0.532
MS.452         	5.725          	0.475
MS.453         	5.713          	0.428
MS.454         	5.702          	0.414
MS.455         	5.69           	0.409
MS.456         	5.677          	0.406
MS.457         	5.668          	0.433
MS.458         	5.655          	0.422
MS.459         	5.645          	0.414
MS.460         	5.632          	0.315
MS.461         	5.622          	0.377
MS.462         	5.61           	0.383
MS.463         	5.6            	0.388
MS.464         	5.588          	0.327
MS.465         	5.577          	0.351
MS.466         	5.565          	0.338
MS.467         	5.555          	0.347
MS.468         	5.545          	0.345
MS.469         	5.532          	0.275
MS.470         	5.523          	0.319
MS.471         	5.51           	0.327
MS.472         	5.5            	0.239
MS.473         	5.487          	0.268
MS.474         	5.477          	0.277
MS.475         	5.467          	0.263
MS.476         	5.455          	0.278
MS.477         	5.445          	0.253
MS.478         	5.435          	0.23
MS.479         	5.422          	0.215
MS.480         	5.412          	0.205
MS.481         	5.402          	0.198
MS.482         	5.39           	0.234
MS.483         	5.38           	0.166
MS.484         	5.37           	0.218
MS.485         	5.358          	0.17
MS.486         	5.347          	0.194
MS.487         	5.338          	0.205
MS.488         	5.327          	0.193
MS.489         	5.315          	0.2
MS.490         	5.305          	0.159
MS.491         	5.295          	0.172
MS.492         	5.285          	0.133
MS.493         	5.273          	0.137
MS.494         	5.262          	0.131
MS.495         	5.253          	0.143
MS.496         	5.242          	0.109
MS.497         	5.233          	0.158
MS.498         	5.22           	0.104
MS.499         	5.21           	0.106
MS.500         	5.2            	0.123
MS.501         	5.19           	0.115
MS.502         	5.18           	0.134
MS.503         	5.17           	0.095
