File:              	C:\Qtrac\Data\ME2C30629A.QZD
Name:              	 HA02N
Protocol:          	MSCAN-MV
Date:              	29/6/23
Date of birth:     	2/3/00
Age:               	23
Sex:               	M
Temperature:       	33.7
S/R sites:         	Knee CF-TA
NC/disease:        	NC
Operator:          	BY
Comments:
M-SCAN DATA (Repeat 2/3, 26.4-14.2m)
Scanpts: 1, 29, 886, 939
Stim. (mA)     	Amp. (mV)
MS.1           	15             	5.142
MS.2           	15             	5.143
MS.3           	15             	5.145
MS.4           	15             	5.143
MS.5           	15             	5.129
MS.6           	15             	5.157
MS.7           	15             	5.152
MS.8           	15             	5.137
MS.9           	15             	5.106
MS.10          	15             	5.135
MS.11          	15             	5.122
MS.12          	15             	5.134
MS.13          	15             	5.129
MS.14          	15             	5.15
MS.15          	15             	5.108
MS.16          	15             	5.136
MS.17          	15             	5.126
MS.18          	15             	5.142
MS.19          	15             	5.143
MS.20          	15             	5.141
MS.21          	15             	5.146
MS.22          	15             	5.142
MS.23          	15             	5.158
MS.24          	14.97          	5.131
MS.25          	14.94          	5.145
MS.26          	14.91          	5.159
MS.27          	14.88          	5.149
MS.28          	14.85          	5.152
MS.29          	14.82          	5.146
MS.30          	14.792         	5.125
MS.31          	14.762         	5.147
MS.32          	14.733         	5.139
MS.33          	14.702         	5.124
MS.34          	14.672         	5.132
MS.35          	14.645         	5.164
MS.36          	14.615         	5.059
MS.37          	14.585         	5.128
MS.38          	14.557         	5.121
MS.39          	14.527         	5.132
MS.40          	14.497         	5.148
MS.41          	14.47          	5.07
MS.42          	14.44          	5.121
MS.43          	14.412         	5.053
MS.44          	14.382         	5.121
MS.45          	14.355         	5.048
MS.46          	14.325         	5.066
MS.47          	14.297         	5.045
MS.48          	14.267         	5.029
MS.49          	14.24          	5.059
MS.50          	14.212         	5.126
MS.51          	14.182         	5.063
MS.52          	14.155         	5.057
MS.53          	14.127         	5.048
MS.54          	14.097         	5.045
MS.55          	14.07          	5.025
MS.56          	14.042         	5.042
MS.57          	14.015         	5.043
MS.58          	13.985         	5.041
MS.59          	13.957         	5.057
MS.60          	13.93          	5.037
MS.61          	13.903         	5.047
MS.62          	13.875         	5.039
MS.63          	13.847         	5.013
MS.64          	13.82          	5.033
MS.65          	13.792         	5.023
MS.66          	13.765         	5.027
MS.67          	13.737         	5.042
MS.68          	13.71          	5.026
MS.69          	13.682         	5.029
MS.70          	13.655         	5.036
MS.71          	13.627         	5.016
MS.72          	13.6           	5.027
MS.73          	13.572         	5.032
MS.74          	13.545         	4.99
MS.75          	13.517         	5.01
MS.76          	13.492         	5.064
MS.77          	13.465         	5.044
MS.78          	13.438         	5.018
MS.79          	13.41          	5.032
MS.80          	13.385         	5.013
MS.81          	13.358         	5.034
MS.82          	13.33          	5.048
MS.83          	13.305         	5.029
MS.84          	13.278         	5.029
MS.85          	13.25          	5.031
MS.86          	13.225         	5.026
MS.87          	13.197         	5.034
MS.88          	13.172         	5.012
MS.89          	13.145         	4.998
MS.90          	13.12          	5.004
MS.91          	13.092         	4.999
MS.92          	13.068         	4.99
MS.93          	13.04          	4.989
MS.94          	13.015         	5.009
MS.95          	12.987         	5.01
MS.96          	12.962         	5.017
MS.97          	12.938         	5.001
MS.98          	12.91          	4.973
MS.99          	12.885         	5.007
MS.100         	12.86          	4.994
MS.101         	12.832         	4.993
MS.102         	12.807         	5.007
MS.103         	12.782         	4.984
MS.104         	12.757         	5.02
MS.105         	12.73          	4.994
MS.106         	12.705         	5.017
MS.107         	12.68          	4.998
MS.108         	12.655         	4.99
MS.109         	12.63          	4.975
MS.110         	12.605         	4.988
MS.111         	12.58          	4.99
MS.112         	12.555         	4.982
MS.113         	12.53          	4.992
MS.114         	12.505         	4.962
MS.115         	12.48          	4.971
MS.116         	12.455         	4.97
MS.117         	12.43          	4.995
MS.118         	12.405         	4.958
MS.119         	12.38          	4.979
MS.120         	12.355         	4.982
MS.121         	12.33          	4.963
MS.122         	12.305         	4.977
MS.123         	12.28          	4.95
MS.124         	12.257         	4.955
MS.125         	12.233         	4.949
MS.126         	12.207         	4.958
MS.127         	12.182         	4.998
MS.128         	12.16          	4.946
MS.129         	12.135         	4.973
MS.130         	12.11          	4.98
MS.131         	12.085         	4.963
MS.132         	12.062         	4.969
MS.133         	12.037         	4.963
MS.134         	12.012         	4.954
MS.135         	11.99          	4.991
MS.136         	11.965         	4.944
MS.137         	11.943         	4.965
MS.138         	11.917         	4.93
MS.139         	11.895         	4.984
MS.140         	11.87          	4.933
MS.141         	11.847         	4.993
MS.142         	11.822         	4.922
MS.143         	11.8           	4.932
MS.144         	11.775         	4.907
MS.145         	11.752         	4.952
MS.146         	11.73          	4.933
MS.147         	11.705         	4.914
MS.148         	11.682         	4.924
MS.149         	11.657         	4.905
MS.150         	11.635         	4.955
MS.151         	11.613         	4.948
MS.152         	11.59          	4.941
MS.153         	11.565         	4.901
MS.154         	11.542         	4.904
MS.155         	11.52          	4.905
MS.156         	11.497         	4.868
MS.157         	11.472         	4.888
MS.158         	11.45          	4.896
MS.159         	11.427         	4.916
MS.160         	11.405         	4.89
MS.161         	11.382         	4.952
MS.162         	11.36          	4.911
MS.163         	11.337         	4.896
MS.164         	11.315         	4.908
MS.165         	11.292         	4.89
MS.166         	11.27          	4.799
MS.167         	11.247         	4.874
MS.168         	11.225         	4.891
MS.169         	11.202         	4.897
MS.170         	11.18          	4.844
MS.171         	11.157         	4.88
MS.172         	11.135         	4.918
MS.173         	11.113         	4.871
MS.174         	11.09          	4.891
MS.175         	11.068         	4.885
MS.176         	11.045         	4.878
MS.177         	11.023         	4.885
MS.178         	11.002         	4.879
MS.179         	10.98          	4.886
MS.180         	10.957         	4.874
MS.181         	10.935         	4.85
MS.182         	10.915         	4.874
MS.183         	10.892         	4.855
MS.184         	10.87          	4.845
MS.185         	10.85          	4.883
MS.186         	10.827         	4.833
MS.187         	10.805         	4.861
MS.188         	10.785         	4.909
MS.189         	10.762         	4.844
MS.190         	10.74          	4.862
MS.191         	10.72          	4.843
MS.192         	10.698         	4.843
MS.193         	10.677         	4.85
MS.194         	10.655         	4.809
MS.195         	10.635         	4.86
MS.196         	10.613         	4.855
MS.197         	10.592         	4.827
MS.198         	10.57          	4.859
MS.199         	10.55          	4.83
MS.200         	10.528         	4.819
MS.201         	10.507         	4.828
MS.202         	10.485         	4.847
MS.203         	10.465         	4.83
MS.204         	10.445         	4.809
MS.205         	10.422         	4.808
MS.206         	10.403         	4.811
MS.207         	10.382         	4.821
MS.208         	10.36          	4.859
MS.209         	10.34          	4.785
MS.210         	10.32          	4.817
MS.211         	10.3           	4.781
MS.212         	10.278         	4.799
MS.213         	10.257         	4.817
MS.214         	10.238         	4.81
MS.215         	10.217         	4.79
MS.216         	10.198         	4.8
MS.217         	10.175         	4.772
MS.218         	10.155         	4.794
MS.219         	10.135         	4.758
MS.220         	10.115         	4.777
MS.221         	10.095         	4.788
MS.222         	10.075         	4.771
MS.223         	10.055         	4.775
MS.224         	10.035         	4.766
MS.225         	10.015         	4.753
MS.226         	9.995          	4.741
MS.227         	9.975          	4.771
MS.228         	9.955          	4.713
MS.229         	9.935          	4.763
MS.230         	9.915          	4.771
MS.231         	9.895          	4.739
MS.232         	9.875          	4.763
MS.233         	9.855          	4.763
MS.234         	9.835          	4.677
MS.235         	9.818          	4.75
MS.236         	9.797          	4.747
MS.237         	9.778          	4.698
MS.238         	9.757          	4.692
MS.239         	9.738          	4.711
MS.240         	9.717          	4.699
MS.241         	9.7            	4.677
MS.242         	9.68           	4.705
MS.243         	9.66           	4.678
MS.244         	9.64           	4.695
MS.245         	9.622          	4.672
MS.246         	9.602          	4.694
MS.247         	9.582          	4.708
MS.248         	9.565          	4.659
MS.249         	9.545          	4.692
MS.250         	9.525          	4.722
MS.251         	9.507          	4.677
MS.252         	9.488          	4.659
MS.253         	9.47           	4.678
MS.254         	9.45           	4.642
MS.255         	9.432          	4.623
MS.256         	9.412          	4.638
MS.257         	9.395          	4.633
MS.258         	9.375          	4.63
MS.259         	9.358          	4.606
MS.260         	9.337          	4.617
MS.261         	9.32           	4.634
MS.262         	9.3            	4.646
MS.263         	9.283          	4.617
MS.264         	9.262          	4.626
MS.265         	9.245          	4.607
MS.266         	9.225          	4.57
MS.267         	9.207          	4.597
MS.268         	9.19           	4.619
MS.269         	9.17           	4.621
MS.270         	9.153          	4.601
MS.271         	9.135          	4.604
MS.272         	9.115          	4.61
MS.273         	9.097          	4.611
MS.274         	9.08           	4.563
MS.275         	9.062          	4.626
MS.276         	9.042          	4.54
MS.277         	9.025          	4.563
MS.278         	9.007          	4.537
MS.279         	8.99           	4.539
MS.280         	8.972          	4.523
MS.281         	8.952          	4.536
MS.282         	8.935          	4.54
MS.283         	8.917          	4.553
MS.284         	8.9            	4.545
MS.285         	8.882          	4.506
MS.286         	8.865          	4.517
MS.287         	8.847          	4.492
MS.288         	8.83           	4.515
MS.289         	8.812          	4.374
MS.290         	8.795          	4.496
MS.291         	8.778          	4.443
MS.292         	8.757          	4.504
MS.293         	8.74           	4.354
MS.294         	8.725          	4.442
MS.295         	8.707          	4.488
MS.296         	8.69           	4.397
MS.297         	8.672          	4.396
MS.298         	8.655          	4.401
MS.299         	8.637          	4.353
MS.300         	8.62           	4.401
MS.301         	8.602          	4.465
MS.302         	8.585          	4.463
MS.303         	8.568          	4.435
MS.304         	8.55           	4.426
MS.305         	8.535          	4.368
MS.306         	8.517          	4.396
MS.307         	8.5            	4.37
MS.308         	8.483          	4.307
MS.309         	8.465          	4.36
MS.310         	8.45           	4.304
MS.311         	8.432          	4.221
MS.312         	8.415          	4.279
MS.313         	8.398          	4.304
MS.314         	8.382          	4.264
MS.315         	8.365          	4.283
MS.316         	8.347          	4.271
MS.317         	8.332          	4.337
MS.318         	8.315          	4.305
MS.319         	8.297          	4.285
MS.320         	8.283          	4.219
MS.321         	8.265          	4.266
MS.322         	8.247          	4.27
MS.323         	8.233          	4.299
MS.324         	8.215          	4.234
MS.325         	8.2            	4.225
MS.326         	8.182          	4.175
MS.327         	8.167          	4.219
MS.328         	8.15           	4.197
MS.329         	8.135          	4.255
MS.330         	8.117          	4.207
MS.331         	8.102          	4.23
MS.332         	8.085          	4.184
MS.333         	8.07           	4.194
MS.334         	8.052          	4.304
MS.335         	8.037          	4.3
MS.336         	8.02           	4.189
MS.337         	8.005          	4.213
MS.338         	7.99           	4.194
MS.339         	7.972          	4.16
MS.340         	7.957          	4.268
MS.341         	7.94           	4.227
MS.342         	7.925          	4.175
MS.343         	7.91           	4.202
MS.344         	7.892          	4.222
MS.345         	7.878          	4.225
MS.346         	7.862          	4.189
MS.347         	7.847          	4.208
MS.348         	7.83           	4.16
MS.349         	7.815          	4.061
MS.350         	7.8            	4.152
MS.351         	7.785          	4.196
MS.352         	7.767          	4.095
MS.353         	7.753          	4.047
MS.354         	7.737          	4.048
MS.355         	7.722          	4.136
MS.356         	7.707          	4.151
MS.357         	7.69           	4.096
MS.358         	7.675          	4.12
MS.359         	7.66           	3.94
MS.360         	7.645          	4.058
MS.361         	7.63           	4.039
MS.362         	7.615          	4.117
MS.363         	7.6            	4.013
MS.364         	7.585          	4.064
MS.365         	7.57           	4.087
MS.366         	7.555          	4.022
MS.367         	7.537          	4.036
MS.368         	7.523          	3.92
MS.369         	7.507          	3.934
MS.370         	7.492          	3.878
MS.371         	7.477          	3.96
MS.372         	7.462          	3.899
MS.373         	7.45           	3.875
MS.374         	7.435          	3.811
MS.375         	7.42           	3.802
MS.376         	7.405          	3.89
MS.377         	7.39           	3.765
MS.378         	7.375          	3.815
MS.379         	7.36           	3.788
MS.380         	7.345          	3.718
MS.381         	7.33           	3.688
MS.382         	7.315          	3.731
MS.383         	7.302          	3.74
MS.384         	7.287          	3.706
MS.385         	7.273          	3.77
MS.386         	7.257          	3.724
MS.387         	7.242          	3.663
MS.388         	7.227          	3.605
MS.389         	7.215          	3.678
MS.390         	7.2            	3.608
MS.391         	7.185          	3.557
MS.392         	7.17           	3.636
MS.393         	7.157          	3.542
MS.394         	7.142          	3.528
MS.395         	7.128          	3.541
MS.396         	7.115          	3.573
MS.397         	7.1            	3.593
MS.398         	7.085          	3.536
MS.399         	7.072          	3.554
MS.400         	7.057          	3.469
MS.401         	7.043          	3.445
MS.402         	7.03           	3.427
MS.403         	7.015          	3.524
MS.404         	7              	3.354
MS.405         	6.987          	3.333
MS.406         	6.972          	3.436
MS.407         	6.96           	3.464
MS.408         	6.945          	3.406
MS.409         	6.932          	3.328
MS.410         	6.918          	3.348
MS.411         	6.902          	3.366
MS.412         	6.89           	3.445
MS.413         	6.875          	3.24
MS.414         	6.862          	3.306
MS.415         	6.847          	3.247
MS.416         	6.835          	3.251
MS.417         	6.822          	3.216
MS.418         	6.807          	3.3
MS.419         	6.795          	3.265
MS.420         	6.78           	3.223
MS.421         	6.767          	3.186
MS.422         	6.753          	3.267
MS.423         	6.74           	3.213
MS.424         	6.727          	3.199
MS.425         	6.712          	3.098
MS.426         	6.7            	3.139
MS.427         	6.685          	3.116
MS.428         	6.672          	3.079
MS.429         	6.66           	3.106
MS.430         	6.645          	3.137
MS.431         	6.632          	3.171
MS.432         	6.62           	3.06
MS.433         	6.608          	3.157
MS.434         	6.592          	2.915
MS.435         	6.58           	3.018
MS.436         	6.567          	3.058
MS.437         	6.555          	2.917
MS.438         	6.54           	2.927
MS.439         	6.527          	2.931
MS.440         	6.515          	2.942
MS.441         	6.503          	2.947
MS.442         	6.487          	2.833
MS.443         	6.475          	2.762
MS.444         	6.462          	2.865
MS.445         	6.45           	2.771
MS.446         	6.438          	2.736
MS.447         	6.425          	2.734
MS.448         	6.41           	2.78
MS.449         	6.398          	2.661
MS.450         	6.385          	2.651
MS.451         	6.372          	2.609
MS.452         	6.36           	2.622
MS.453         	6.347          	2.626
MS.454         	6.335          	2.676
MS.455         	6.322          	2.44
MS.456         	6.31           	2.49
MS.457         	6.297          	2.641
MS.458         	6.285          	2.424
MS.459         	6.273          	2.363
MS.460         	6.26           	2.397
MS.461         	6.247          	2.255
MS.462         	6.235          	2.402
MS.463         	6.222          	2.358
MS.464         	6.21           	2.438
MS.465         	6.197          	2.328
MS.466         	6.185          	2.368
MS.467         	6.172          	2.261
MS.468         	6.16           	2.265
MS.469         	6.148          	2.252
MS.470         	6.135          	2.236
MS.471         	6.122          	2.271
MS.472         	6.11           	2.088
MS.473         	6.097          	2.091
MS.474         	6.088          	2.205
MS.475         	6.075          	2.099
MS.476         	6.062          	2.083
MS.477         	6.05           	2.127
MS.478         	6.037          	2.068
MS.479         	6.025          	2.151
MS.480         	6.015          	2.062
MS.481         	6.003          	1.929
MS.482         	5.99           	2.008
MS.483         	5.977          	1.881
MS.484         	5.965          	1.962
MS.485         	5.955          	1.997
MS.486         	5.942          	1.942
MS.487         	5.93           	1.781
MS.488         	5.918          	1.968
MS.489         	5.907          	1.902
MS.490         	5.895          	1.848
MS.491         	5.882          	1.824
MS.492         	5.87           	1.864
MS.493         	5.86           	1.753
MS.494         	5.847          	1.777
MS.495         	5.835          	1.711
MS.496         	5.825          	1.73
MS.497         	5.812          	1.608
MS.498         	5.8            	1.738
MS.499         	5.79           	1.738
MS.500         	5.777          	1.564
MS.501         	5.767          	1.634
MS.502         	5.755          	1.585
MS.503         	5.742          	1.62
