File:              	C:\Qtrac\Data\ME2C30717B.QZD
Name:              	 ST26P
Protocol:          	MSCAN-MV
Date:              	17/7/23
Date of birth:     	26/5/03
Age:               	20
Sex:               	M
Temperature:       	31.6
S/R sites:         	Knee CF-TA
NC/disease:        	NC
Operator:          	BY
Comments:
M-SCAN DATA (Repeat 2/3, 21.9-13.6m)
Scanpts: 1, 17, 625, 674
Stim. (mA)     	Amp. (mV)
MS.1           	18             	10.159
MS.2           	18             	10.17
MS.3           	18             	10.201
MS.4           	18             	10.188
MS.5           	18             	10.179
MS.6           	18             	10.164
MS.7           	18             	10.142
MS.8           	18             	10.188
MS.9           	18             	10.208
MS.10          	18             	10.164
MS.11          	18             	10.175
MS.12          	18             	10.131
MS.13          	18             	10.131
MS.14          	18             	10.192
MS.15          	18             	10.183
MS.16          	18             	10.154
MS.17          	18             	10.199
MS.18          	18             	10.117
MS.19          	18             	10.107
MS.20          	18             	10.143
MS.21          	18             	10.132
MS.22          	18             	10.151
MS.23          	18             	10.166
MS.24          	17.965         	10.146
MS.25          	17.927         	10.178
MS.26          	17.892         	10.131
MS.27          	17.858         	10.168
MS.28          	17.82          	10.086
MS.29          	17.785         	10.115
MS.30          	17.75          	10.13
MS.31          	17.715         	10.132
MS.32          	17.68          	10.08
MS.33          	17.642         	10.106
MS.34          	17.608         	10.131
MS.35          	17.573         	10.131
MS.36          	17.538         	10.081
MS.37          	17.503         	10.175
MS.38          	17.467         	10.131
MS.39          	17.432         	10.05
MS.40          	17.397         	10.117
MS.41          	17.362         	10.088
MS.42          	17.33          	10.084
MS.43          	17.295         	10.098
MS.44          	17.26          	10.115
MS.45          	17.225         	10.08
MS.46          	17.19          	10.116
MS.47          	17.157         	10.031
MS.48          	17.122         	10.045
MS.49          	17.087         	10.01
MS.50          	17.055         	10.038
MS.51          	17.02          	10.071
MS.52          	16.985         	10.054
MS.53          	16.952         	10.085
MS.54          	16.917         	10.052
MS.55          	16.885         	10.047
MS.56          	16.85          	10.052
MS.57          	16.817         	10.068
MS.58          	16.782         	10.046
MS.59          	16.75          	10.026
MS.60          	16.715         	10.025
MS.61          	16.682         	10.003
MS.62          	16.65          	9.986
MS.63          	16.615         	10.018
MS.64          	16.583         	10.012
MS.65          	16.55          	9.946
MS.66          	16.517         	10.033
MS.67          	16.483         	9.982
MS.68          	16.45          	10.007
MS.69          	16.417         	10.054
MS.70          	16.385         	10.016
MS.71          	16.352         	9.976
MS.72          	16.32          	9.985
MS.73          	16.288         	9.938
MS.74          	16.255         	9.985
MS.75          	16.222         	10.029
MS.76          	16.19          	9.942
MS.77          	16.157         	9.971
MS.78          	16.125         	9.944
MS.79          	16.092         	9.994
MS.80          	16.06          	9.946
MS.81          	16.028         	9.917
MS.82          	15.997         	9.952
MS.83          	15.965         	10.025
MS.84          	15.932         	9.969
MS.85          	15.9           	9.993
MS.86          	15.87          	9.899
MS.87          	15.837         	9.962
MS.88          	15.805         	9.962
MS.89          	15.775         	9.974
MS.90          	15.742         	9.952
MS.91          	15.71          	9.875
MS.92          	15.68          	9.941
MS.93          	15.648         	9.944
MS.94          	15.617         	9.917
MS.95          	15.585         	9.979
MS.96          	15.555         	9.899
MS.97          	15.525         	9.927
MS.98          	15.492         	9.876
MS.99          	15.462         	9.894
MS.100         	15.43          	9.868
MS.101         	15.4           	9.888
MS.102         	15.37          	9.849
MS.103         	15.337         	9.902
MS.104         	15.307         	9.868
MS.105         	15.277         	9.891
MS.106         	15.247         	9.904
MS.107         	15.217         	9.83
MS.108         	15.185         	9.835
MS.109         	15.155         	9.832
MS.110         	15.125         	9.901
MS.111         	15.095         	9.9
MS.112         	15.065         	9.858
MS.113         	15.035         	9.763
MS.114         	15.005         	9.792
MS.115         	14.975         	9.821
MS.116         	14.945         	9.822
MS.117         	14.915         	9.839
MS.118         	14.885         	9.781
MS.119         	14.855         	9.85
MS.120         	14.825         	9.845
MS.121         	14.795         	9.73
MS.122         	14.767         	9.788
MS.123         	14.737         	9.811
MS.124         	14.707         	9.717
MS.125         	14.677         	9.749
MS.126         	14.65          	9.747
MS.127         	14.62          	9.784
MS.128         	14.59          	9.789
MS.129         	14.562         	9.763
MS.130         	14.532         	9.7
MS.131         	14.502         	9.802
MS.132         	14.475         	9.739
MS.133         	14.445         	9.72
MS.134         	14.417         	9.714
MS.135         	14.387         	9.725
MS.136         	14.36          	9.738
MS.137         	14.33          	9.7
MS.138         	14.302         	9.731
MS.139         	14.273         	9.761
MS.140         	14.245         	9.721
MS.141         	14.215         	9.772
MS.142         	14.188         	9.72
MS.143         	14.16          	9.755
MS.144         	14.13          	9.719
MS.145         	14.102         	9.706
MS.146         	14.075         	9.725
MS.147         	14.047         	9.727
MS.148         	14.017         	9.734
MS.149         	13.99          	9.756
MS.150         	13.962         	9.709
MS.151         	13.935         	9.714
MS.152         	13.907         	9.707
MS.153         	13.88          	9.646
MS.154         	13.85          	9.701
MS.155         	13.822         	9.565
MS.156         	13.795         	9.659
MS.157         	13.767         	9.638
MS.158         	13.74          	9.657
MS.159         	13.712         	9.676
MS.160         	13.685         	9.641
MS.161         	13.657         	9.639
MS.162         	13.632         	9.653
MS.163         	13.605         	9.594
MS.164         	13.577         	9.741
MS.165         	13.55          	9.644
MS.166         	13.523         	9.652
MS.167         	13.495         	9.641
MS.168         	13.467         	9.631
MS.169         	13.443         	9.595
MS.170         	13.415         	9.561
MS.171         	13.387         	9.492
MS.172         	13.362         	9.4
MS.173         	13.335         	9.512
MS.174         	13.307         	9.592
MS.175         	13.282         	9.528
MS.176         	13.255         	9.575
MS.177         	13.227         	9.526
MS.178         	13.202         	9.589
MS.179         	13.175         	9.595
MS.180         	13.15          	9.531
MS.181         	13.122         	9.476
MS.182         	13.097         	9.493
MS.183         	13.07          	9.492
MS.184         	13.045         	9.485
MS.185         	13.017         	9.393
MS.186         	12.992         	9.433
MS.187         	12.967         	9.412
MS.188         	12.94          	9.49
MS.189         	12.915         	9.37
MS.190         	12.89          	9.371
MS.191         	12.862         	9.467
MS.192         	12.837         	9.324
MS.193         	12.812         	9.384
MS.194         	12.787         	9.371
MS.195         	12.76          	9.349
MS.196         	12.735         	9.282
MS.197         	12.71          	9.396
MS.198         	12.685         	9.38
MS.199         	12.66          	9.387
MS.200         	12.635         	9.218
MS.201         	12.608         	9.28
MS.202         	12.582         	9.2
MS.203         	12.557         	9.288
MS.204         	12.532         	9.255
MS.205         	12.507         	9.2
MS.206         	12.483         	9.197
MS.207         	12.457         	9.319
MS.208         	12.432         	9.351
MS.209         	12.407         	9.221
MS.210         	12.382         	9.151
MS.211         	12.36          	9.131
MS.212         	12.335         	9.198
MS.213         	12.31          	9.241
MS.214         	12.285         	9.081
MS.215         	12.26          	9.29
MS.216         	12.235         	9.073
MS.217         	12.212         	9.034
MS.218         	12.188         	9.036
MS.219         	12.162         	9.056
MS.220         	12.137         	8.945
MS.221         	12.115         	9.019
MS.222         	12.09          	8.964
MS.223         	12.065         	8.947
MS.224         	12.042         	9.062
MS.225         	12.017         	8.946
MS.226         	11.992         	8.935
MS.227         	11.97          	8.71
MS.228         	11.945         	8.906
MS.229         	11.922         	8.932
MS.230         	11.898         	8.914
MS.231         	11.875         	8.895
MS.232         	11.85          	8.926
MS.233         	11.827         	8.754
MS.234         	11.802         	8.855
MS.235         	11.78          	8.853
MS.236         	11.755         	8.882
MS.237         	11.733         	8.784
MS.238         	11.71          	8.704
MS.239         	11.685         	8.809
MS.240         	11.662         	8.839
MS.241         	11.64          	8.694
MS.242         	11.615         	8.637
MS.243         	11.592         	8.549
MS.244         	11.57          	8.752
MS.245         	11.547         	8.73
MS.246         	11.523         	8.72
MS.247         	11.5           	8.539
MS.248         	11.477         	8.554
MS.249         	11.455         	8.552
MS.250         	11.432         	8.573
MS.251         	11.407         	8.551
MS.252         	11.385         	8.47
MS.253         	11.363         	8.505
MS.254         	11.34          	8.542
MS.255         	11.318         	8.542
MS.256         	11.295         	8.507
MS.257         	11.273         	8.619
MS.258         	11.25          	8.471
MS.259         	11.227         	8.371
MS.260         	11.205         	8.422
MS.261         	11.182         	8.331
MS.262         	11.16          	8.484
MS.263         	11.137         	8.438
MS.264         	11.115         	8.267
MS.265         	11.092         	8.319
MS.266         	11.073         	8.203
MS.267         	11.05          	8.276
MS.268         	11.028         	8.1
MS.269         	11.005         	8.297
MS.270         	10.983         	8.198
MS.271         	10.962         	8.192
MS.272         	10.94          	8.163
MS.273         	10.917         	8.15
MS.274         	10.895         	8.177
MS.275         	10.875         	7.975
MS.276         	10.852         	8.004
MS.277         	10.83          	8.06
MS.278         	10.81          	8.105
MS.279         	10.787         	7.885
MS.280         	10.765         	7.916
MS.281         	10.745         	7.866
MS.282         	10.722         	7.845
MS.283         	10.702         	7.941
MS.284         	10.68          	7.791
MS.285         	10.657         	7.849
MS.286         	10.637         	7.766
MS.287         	10.615         	7.689
MS.288         	10.595         	7.815
MS.289         	10.573         	7.553
MS.290         	10.552         	7.672
MS.291         	10.532         	7.614
MS.292         	10.51          	7.646
MS.293         	10.49          	7.548
MS.294         	10.467         	7.543
MS.295         	10.448         	7.341
MS.296         	10.427         	7.288
MS.297         	10.405         	7.384
MS.298         	10.385         	7.266
MS.299         	10.365         	7.368
MS.300         	10.342         	7.247
MS.301         	10.323         	7.268
MS.302         	10.302         	7.09
MS.303         	10.282         	7.048
MS.304         	10.26          	6.973
MS.305         	10.24          	7.166
MS.306         	10.22          	7.027
MS.307         	10.2           	6.909
MS.308         	10.18          	7.133
MS.309         	10.16          	6.832
MS.310         	10.14          	6.859
MS.311         	10.117         	6.983
MS.312         	10.097         	6.681
MS.313         	10.077         	6.83
MS.314         	10.057         	6.722
MS.315         	10.037         	6.526
MS.316         	10.017         	6.758
MS.317         	9.997          	6.722
MS.318         	9.977          	6.714
MS.319         	9.957          	6.483
MS.320         	9.938          	6.492
MS.321         	9.917          	6.548
MS.322         	9.898          	6.721
MS.323         	9.877          	6.474
MS.324         	9.86           	6.406
MS.325         	9.84           	6.494
MS.326         	9.82           	6.309
MS.327         	9.8            	6.332
MS.328         	9.78           	6.481
MS.329         	9.76           	6.149
MS.330         	9.742          	6.226
MS.331         	9.722          	6.047
MS.332         	9.702          	6.121
MS.333         	9.682          	6.088
MS.334         	9.662          	6.085
MS.335         	9.645          	5.943
MS.336         	9.625          	5.945
MS.337         	9.605          	6.028
MS.338         	9.587          	6.016
MS.339         	9.568          	5.711
MS.340         	9.547          	5.884
MS.341         	9.53           	5.869
MS.342         	9.51           	5.768
MS.343         	9.492          	5.676
MS.344         	9.472          	5.673
MS.345         	9.452          	5.688
MS.346         	9.435          	5.48
MS.347         	9.415          	5.4
MS.348         	9.398          	5.435
MS.349         	9.377          	5.342
MS.350         	9.36           	5.358
MS.351         	9.34           	5.264
MS.352         	9.323          	5.27
MS.353         	9.302          	5.334
MS.354         	9.285          	5.397
MS.355         	9.265          	5.045
MS.356         	9.247          	5.08
MS.357         	9.23           	5.025
MS.358         	9.21           	4.82
MS.359         	9.193          	4.906
MS.360         	9.175          	4.847
MS.361         	9.155          	4.742
MS.362         	9.137          	4.791
MS.363         	9.12           	4.88
MS.364         	9.1            	4.623
MS.365         	9.082          	4.554
MS.366         	9.065          	4.677
MS.367         	9.047          	4.553
MS.368         	9.028          	4.664
MS.369         	9.01           	4.444
MS.370         	8.992          	4.36
MS.371         	8.975          	4.337
MS.372         	8.957          	4.282
MS.373         	8.938          	4.142
MS.374         	8.92           	4.296
MS.375         	8.903          	4.23
MS.376         	8.885          	3.97
MS.377         	8.867          	3.997
MS.378         	8.85           	4.134
MS.379         	8.832          	4.069
MS.380         	8.815          	3.811
MS.381         	8.797          	4.133
MS.382         	8.78           	3.895
MS.383         	8.762          	3.867
MS.384         	8.745          	3.737
MS.385         	8.727          	3.898
MS.386         	8.71           	3.682
MS.387         	8.693          	3.765
MS.388         	8.675          	3.623
MS.389         	8.658          	3.597
MS.390         	8.64           	3.605
MS.391         	8.622          	3.5
MS.392         	8.605          	3.605
MS.393         	8.587          	3.629
MS.394         	8.57           	3.468
MS.395         	8.555          	3.487
MS.396         	8.537          	3.328
MS.397         	8.52           	3.386
MS.398         	8.502          	3.316
MS.399         	8.485          	3.324
MS.400         	8.467          	3.247
MS.401         	8.452          	3.138
MS.402         	8.435          	3.203
MS.403         	8.417          	3.144
MS.404         	8.4            	3.231
MS.405         	8.385          	3.14
MS.406         	8.367          	3.214
MS.407         	8.35           	3.04
MS.408         	8.335          	3.074
MS.409         	8.318          	3.077
MS.410         	8.3            	2.908
MS.411         	8.285          	2.949
MS.412         	8.267          	2.934
MS.413         	8.252          	2.991
MS.414         	8.235          	2.789
MS.415         	8.217          	2.838
MS.416         	8.202          	2.77
MS.417         	8.185          	2.715
MS.418         	8.17           	2.567
MS.419         	8.153          	2.569
MS.420         	8.137          	2.563
MS.421         	8.12           	2.562
MS.422         	8.105          	2.385
MS.423         	8.087          	2.523
MS.424         	8.073          	2.5
MS.425         	8.055          	2.387
MS.426         	8.04           	2.186
MS.427         	8.023          	2.305
MS.428         	8.007          	2.249
MS.429         	7.992          	2.322
MS.430         	7.975          	2.195
MS.431         	7.96           	1.989
MS.432         	7.942          	2.142
MS.433         	7.927          	1.964
MS.434         	7.912          	1.937
MS.435         	7.895          	1.876
MS.436         	7.88           	1.83
MS.437         	7.865          	1.881
MS.438         	7.85           	1.88
MS.439         	7.832          	1.916
MS.440         	7.817          	1.908
MS.441         	7.802          	1.68
MS.442         	7.787          	1.749
MS.443         	7.77           	1.712
MS.444         	7.755          	1.58
MS.445         	7.74           	1.695
MS.446         	7.725          	1.662
MS.447         	7.71           	1.502
MS.448         	7.692          	1.445
MS.449         	7.677          	1.367
MS.450         	7.662          	1.272
MS.451         	7.648          	1.509
MS.452         	7.632          	1.453
MS.453         	7.617          	1.444
MS.454         	7.602          	1.324
MS.455         	7.587          	1.274
MS.456         	7.572          	1.418
MS.457         	7.555          	1.272
MS.458         	7.54           	1.19
MS.459         	7.525          	1.242
MS.460         	7.51           	1.129
MS.461         	7.495          	1.178
MS.462         	7.48           	1.14
MS.463         	7.465          	1.061
MS.464         	7.45           	1.04
MS.465         	7.438          	1.092
MS.466         	7.422          	1.066
MS.467         	7.407          	1.01
MS.468         	7.392          	0.976
MS.469         	7.378          	0.981
MS.470         	7.362          	1.063
MS.471         	7.347          	0.939
MS.472         	7.332          	0.944
MS.473         	7.317          	0.894
MS.474         	7.302          	0.825
MS.475         	7.29           	0.883
MS.476         	7.275          	0.721
MS.477         	7.26           	0.775
MS.478         	7.245          	0.767
MS.479         	7.23           	0.696
MS.480         	7.217          	0.692
MS.481         	7.202          	0.816
MS.482         	7.188          	0.717
MS.483         	7.172          	0.839
MS.484         	7.16           	0.679
MS.485         	7.145          	0.768
MS.486         	7.13           	0.626
MS.487         	7.115          	0.608
MS.488         	7.102          	0.61
MS.489         	7.087          	0.568
MS.490         	7.072          	0.615
MS.491         	7.06           	0.638
MS.492         	7.045          	0.543
MS.493         	7.032          	0.609
MS.494         	7.017          	0.572
MS.495         	7.003          	0.465
MS.496         	6.99           	0.496
MS.497         	6.975          	0.497
MS.498         	6.962          	0.536
MS.499         	6.947          	0.425
MS.500         	6.932          	0.435
MS.501         	6.92           	0.437
