File:              	C:\Qtrac\Data\ME2C30711A.QZD
Name:              	 LL19N
Protocol:          	MSCAN-MV
Date:              	11/7/23
Date of birth:     	19/1/96
Age:               	27
Sex:               	M
Temperature:       	30.0
S/R sites:         	Knee CF-TA
NC/disease:        	NC
Operator:          	BY
Comments:
M-SCAN DATA (Repeat 2/3, 22.1-16.3m)
Scanpts: 5, 9, 388, 440
Stim. (mA)     	Amp. (mV)
MS.1           	10             	8.971
MS.2           	10             	8.979
MS.3           	9.98           	9.089
MS.4           	9.96           	9.015
MS.5           	9.94           	8.906
MS.6           	9.92           	8.986
MS.7           	9.9            	8.954
MS.8           	9.88           	8.996
MS.9           	9.86           	8.826
MS.10          	9.842          	8.834
MS.11          	9.823          	8.781
MS.12          	9.802          	8.808
MS.13          	9.782          	8.849
MS.14          	9.762          	8.81
MS.15          	9.742          	8.868
MS.16          	9.725          	8.925
MS.17          	9.705          	8.87
MS.18          	9.685          	8.82
MS.19          	9.665          	8.777
MS.20          	9.648          	8.816
MS.21          	9.627          	8.724
MS.22          	9.608          	8.683
MS.23          	9.587          	8.805
MS.24          	9.57           	8.801
MS.25          	9.55           	8.656
MS.26          	9.532          	8.801
MS.27          	9.512          	8.73
MS.28          	9.492          	8.804
MS.29          	9.475          	8.748
MS.30          	9.455          	8.755
MS.31          	9.438          	8.729
MS.32          	9.417          	8.646
MS.33          	9.4            	8.708
MS.34          	9.38           	8.732
MS.35          	9.363          	8.77
MS.36          	9.342          	8.699
MS.37          	9.325          	8.778
MS.38          	9.305          	8.604
MS.39          	9.287          	8.532
MS.40          	9.267          	8.696
MS.41          	9.25           	8.599
MS.42          	9.23           	8.674
MS.43          	9.212          	8.542
MS.44          	9.195          	8.64
MS.45          	9.175          	8.641
MS.46          	9.158          	8.586
MS.47          	9.14           	8.546
MS.48          	9.12           	8.648
MS.49          	9.102          	8.516
MS.50          	9.085          	8.478
MS.51          	9.068          	8.734
MS.52          	9.047          	8.572
MS.53          	9.03           	8.605
MS.54          	9.012          	8.439
MS.55          	8.995          	8.516
MS.56          	8.977          	8.496
MS.57          	8.957          	8.46
MS.58          	8.94           	8.511
MS.59          	8.922          	8.5
MS.60          	8.905          	8.264
MS.61          	8.887          	8.372
MS.62          	8.87           	8.301
MS.63          	8.852          	8.444
MS.64          	8.835          	8.307
MS.65          	8.815          	8.55
MS.66          	8.797          	8.344
MS.67          	8.78           	8.555
MS.68          	8.762          	8.409
MS.69          	8.745          	8.354
MS.70          	8.727          	8.528
MS.71          	8.71           	8.516
MS.72          	8.693          	8.337
MS.73          	8.675          	8.275
MS.74          	8.66           	8.398
MS.75          	8.642          	8.416
MS.76          	8.625          	8.059
MS.77          	8.608          	8.268
MS.78          	8.59           	8.192
MS.79          	8.573          	8.13
MS.80          	8.555          	8.36
MS.81          	8.537          	8.358
MS.82          	8.523          	8.195
MS.83          	8.505          	8.214
MS.84          	8.488          	8.137
MS.85          	8.47           	8.119
MS.86          	8.452          	8.18
MS.87          	8.438          	8.126
MS.88          	8.42           	8.018
MS.89          	8.403          	7.972
MS.90          	8.385          	7.863
MS.91          	8.37           	8.163
MS.92          	8.352          	7.737
MS.93          	8.335          	7.498
MS.94          	8.32           	7.792
MS.95          	8.302          	7.848
MS.96          	8.285          	7.896
MS.97          	8.27           	7.848
MS.98          	8.252          	7.868
MS.99          	8.238          	7.818
MS.100         	8.22           	7.531
MS.101         	8.202          	7.88
MS.102         	8.188          	7.71
MS.103         	8.17           	7.774
MS.104         	8.155          	7.677
MS.105         	8.137          	7.699
MS.106         	8.122          	7.155
MS.107         	8.105          	7.577
MS.108         	8.09           	7.515
MS.109         	8.073          	7.335
MS.110         	8.057          	7.73
MS.111         	8.042          	7.297
MS.112         	8.025          	7.396
MS.113         	8.01           	7.136
MS.114         	7.992          	7.459
MS.115         	7.977          	7.198
MS.116         	7.96           	7.253
MS.117         	7.945          	7.086
MS.118         	7.93           	7.051
MS.119         	7.912          	7.123
MS.120         	7.898          	7.161
MS.121         	7.882          	7.026
MS.122         	7.867          	6.888
MS.123         	7.85           	6.779
MS.124         	7.835          	7.018
MS.125         	7.82           	6.733
MS.126         	7.802          	6.811
MS.127         	7.787          	6.817
MS.128         	7.773          	6.716
MS.129         	7.757          	6.793
MS.130         	7.742          	6.487
MS.131         	7.725          	6.367
MS.132         	7.71           	6.804
MS.133         	7.695          	6.423
MS.134         	7.68           	6.277
MS.135         	7.665          	6.386
MS.136         	7.65           	6.456
MS.137         	7.635          	6.286
MS.138         	7.617          	6.406
MS.139         	7.602          	6.227
MS.140         	7.587          	6.127
MS.141         	7.572          	6.123
MS.142         	7.557          	6.254
MS.143         	7.543          	6.212
MS.144         	7.527          	6.204
MS.145         	7.512          	6.034
MS.146         	7.497          	5.964
MS.147         	7.482          	6.157
MS.148         	7.467          	5.966
MS.149         	7.452          	6.072
MS.150         	7.438          	5.994
MS.151         	7.422          	6.13
MS.152         	7.407          	5.865
MS.153         	7.392          	5.865
MS.154         	7.378          	5.802
MS.155         	7.365          	5.953
MS.156         	7.35           	5.977
MS.157         	7.335          	5.851
MS.158         	7.32           	5.65
MS.159         	7.305          	5.71
MS.160         	7.29           	5.48
MS.161         	7.275          	5.522
MS.162         	7.262          	5.782
MS.163         	7.247          	5.599
MS.164         	7.233          	5.632
MS.165         	7.217          	5.525
MS.166         	7.202          	5.755
MS.167         	7.19           	5.528
MS.168         	7.175          	5.513
MS.169         	7.16           	5.197
MS.170         	7.145          	5.234
MS.171         	7.132          	5.109
MS.172         	7.117          	5.331
MS.173         	7.102          	5.108
MS.174         	7.09           	5.003
MS.175         	7.075          	5.361
MS.176         	7.06           	4.711
MS.177         	7.047          	4.865
MS.178         	7.032          	4.858
MS.179         	7.02           	4.51
MS.180         	7.005          	4.677
MS.181         	6.99           	4.521
MS.182         	6.977          	4.542
MS.183         	6.962          	4.361
MS.184         	6.95           	4.102
MS.185         	6.935          	4.218
MS.186         	6.92           	4.286
MS.187         	6.907          	4.354
MS.188         	6.892          	4.242
MS.189         	6.88           	4.268
MS.190         	6.865          	3.973
MS.191         	6.852          	3.824
MS.192         	6.837          	4.168
MS.193         	6.825          	4.001
MS.194         	6.812          	3.917
MS.195         	6.797          	3.857
MS.196         	6.785          	3.9
MS.197         	6.77           	3.663
MS.198         	6.757          	3.486
MS.199         	6.742          	3.646
MS.200         	6.73           	3.547
MS.201         	6.717          	3.541
MS.202         	6.702          	3.585
MS.203         	6.69           	3.556
MS.204         	6.677          	3.442
MS.205         	6.662          	3.268
MS.206         	6.65           	3.222
MS.207         	6.637          	3.14
MS.208         	6.622          	3.26
MS.209         	6.61           	3.488
MS.210         	6.597          	3.505
MS.211         	6.582          	3.16
MS.212         	6.57           	3.217
MS.213         	6.557          	3.331
MS.214         	6.545          	3.184
MS.215         	6.53           	3.07
MS.216         	6.517          	2.833
MS.217         	6.505          	2.962
MS.218         	6.492          	3.04
MS.219         	6.48           	2.898
MS.220         	6.465          	2.769
MS.221         	6.452          	2.812
MS.222         	6.44           	2.889
MS.223         	6.427          	2.665
MS.224         	6.415          	2.958
MS.225         	6.402          	2.805
MS.226         	6.39           	2.744
MS.227         	6.378          	2.814
MS.228         	6.362          	2.705
MS.229         	6.35           	2.404
MS.230         	6.338          	2.616
MS.231         	6.325          	2.48
MS.232         	6.312          	2.632
MS.233         	6.3            	2.424
MS.234         	6.287          	2.459
MS.235         	6.275          	2.748
MS.236         	6.262          	2.374
MS.237         	6.25           	2.374
MS.238         	6.237          	2.306
MS.239         	6.225          	2.294
MS.240         	6.213          	2.198
MS.241         	6.2            	2.184
MS.242         	6.188          	2.085
MS.243         	6.175          	1.851
MS.244         	6.162          	2.18
MS.245         	6.15           	1.789
MS.246         	6.137          	1.993
MS.247         	6.128          	2.045
MS.248         	6.115          	2.005
MS.249         	6.102          	1.887
MS.250         	6.09           	1.798
MS.251         	6.077          	2.037
MS.252         	6.065          	1.67
MS.253         	6.052          	1.865
MS.254         	6.04           	1.935
MS.255         	6.03           	1.627
MS.256         	6.017          	1.788
MS.257         	6.005          	1.675
MS.258         	5.992          	1.661
MS.259         	5.98           	1.554
MS.260         	5.97           	1.627
MS.261         	5.957          	1.431
MS.262         	5.945          	1.584
MS.263         	5.932          	1.483
MS.264         	5.922          	1.588
MS.265         	5.91           	1.273
MS.266         	5.898          	1.465
MS.267         	5.885          	1.377
MS.268         	5.875          	1.278
MS.269         	5.862          	1.304
MS.270         	5.85           	1.175
MS.271         	5.84           	1.165
MS.272         	5.827          	1.179
MS.273         	5.815          	1.087
MS.274         	5.805          	1.229
MS.275         	5.793          	1.086
MS.276         	5.78           	1.137
MS.277         	5.77           	0.97
MS.278         	5.757          	1.004
MS.279         	5.747          	0.822
MS.280         	5.735          	1.005
MS.281         	5.722          	1.037
MS.282         	5.713          	0.873
MS.283         	5.7            	0.794
MS.284         	5.69           	0.809
MS.285         	5.677          	0.733
MS.286         	5.668          	0.746
MS.287         	5.655          	0.634
MS.288         	5.645          	0.728
MS.289         	5.632          	0.738
MS.290         	5.622          	0.751
MS.291         	5.61           	0.579
MS.292         	5.6            	0.571
MS.293         	5.588          	0.639
MS.294         	5.577          	0.575
MS.295         	5.565          	0.504
MS.296         	5.555          	0.497
MS.297         	5.543          	0.558
MS.298         	5.532          	0.515
MS.299         	5.52           	0.455
MS.300         	5.51           	0.488
MS.301         	5.5            	0.453
MS.302         	5.487          	0.5
MS.303         	5.477          	0.33
MS.304         	5.465          	0.464
MS.305         	5.455          	0.457
MS.306         	5.445          	0.39
MS.307         	5.432          	0.413
MS.308         	5.422          	0.294
MS.309         	5.412          	0.352
MS.310         	5.4            	0.353
MS.311         	5.39           	0.312
MS.312         	5.38           	0.333
MS.313         	5.367          	0.249
MS.314         	5.358          	0.289
MS.315         	5.347          	0.229
MS.316         	5.338          	0.165
MS.317         	5.325          	0.175
MS.318         	5.315          	0.164
MS.319         	5.305          	0.159
MS.320         	5.295          	0.211
MS.321         	5.282          	0.228
MS.322         	5.273          	0.209
MS.323         	5.262          	0.221
MS.324         	5.253          	0.203
MS.325         	5.242          	0.188
MS.326         	5.23           	0.147
MS.327         	5.22           	0.193
MS.328         	5.21           	0.133
MS.329         	5.2            	0.215
MS.330         	5.19           	0.109
MS.331         	5.18           	0.117
MS.332         	5.168          	0.182
MS.333         	5.157          	0.113
MS.334         	5.148          	0.084
MS.335         	5.137          	0.089
MS.336         	5.128          	0.076
MS.337         	5.117          	0.079
MS.338         	5.108          	0.128
MS.339         	5.097          	0.099
MS.340         	5.088          	0.109
MS.341         	5.077          	0.062
MS.342         	5.065          	0.023
MS.343         	5.055          	0.104
MS.344         	5.045          	0.082
MS.345         	5.035          	0.04
MS.346         	5.025          	0.05
MS.347         	5.015          	0.058
MS.348         	5.005          	0.035
MS.349         	4.995          	0.054
MS.350         	4.985          	0.027
MS.351         	4.975          	0.042
MS.352         	4.965          	-0.018
MS.353         	4.955          	-0.012
MS.354         	4.945          	0.024
MS.355         	4.935          	-0.011
MS.356         	4.927          	-0.002
MS.357         	4.918          	0.029
MS.358         	4.907          	0.032
MS.359         	4.898          	-0.009
MS.360         	4.887          	0.031
MS.361         	4.878          	0.005
MS.362         	4.867          	0.017
MS.363         	4.858          	-0.018
MS.364         	4.847          	-0.031
MS.365         	4.838          	-0.002
MS.366         	4.827          	0.06
MS.367         	4.82           	-0.01
MS.368         	4.81           	-0.029
MS.369         	4.8            	-0.03
MS.370         	4.79           	-0.012
MS.371         	4.78           	-0.037
MS.372         	4.77           	-0.034
MS.373         	4.762          	-0.043
MS.374         	4.753          	-0.046
MS.375         	4.742          	-0.037
MS.376         	4.733          	-0.023
MS.377         	4.722          	-0.011
MS.378         	4.715          	-0.044
MS.379         	4.705          	-0.04
MS.380         	4.695          	-0.037
MS.381         	4.685          	-0.046
MS.382         	4.677          	-0.037
MS.383         	4.668          	-0.037
MS.384         	4.657          	-0.028
MS.385         	4.648          	-0.045
MS.386         	4.64           	-0.042
MS.387         	4.63           	-0.036
MS.388         	4.62           	-0.039
MS.389         	4.612          	-0.042
MS.390         	4.602          	-0.046
MS.391         	4.592          	-0.044
MS.392         	4.585          	-0.042
MS.393         	4.575          	-0.043
MS.394         	4.565          	-0.046
MS.395         	4.557          	-0.045
MS.396         	4.548          	-0.036
MS.397         	4.537          	-0.048
MS.398         	4.53           	-0.045
MS.399         	4.52           	-0.051
MS.400         	4.512          	-0.038
MS.401         	4.503          	-0.046
MS.402         	4.492          	-0.048
MS.403         	4.485          	-0.024
MS.404         	4.475          	-0.034
MS.405         	4.467          	-0.042
MS.406         	4.457          	-0.045
MS.407         	4.447          	-0.042
MS.408         	4.44           	-0.043
MS.409         	4.43           	-0.045
MS.410         	4.423          	-0.044
MS.411         	4.412          	-0.038
MS.412         	4.405          	-0.038
MS.413         	4.395          	-0.045
MS.414         	4.387          	-0.046
MS.415         	4.378          	-0.043
MS.416         	4.37           	-0.041
MS.417         	4.36           	-0.033
MS.418         	4.352          	-0.046
MS.419         	4.342          	-0.046
MS.420         	4.335          	-0.015
MS.421         	4.325          	-0.038
MS.422         	4.318          	-0.042
MS.423         	4.307          	-0.043
MS.424         	4.3            	-0.04
MS.425         	4.293          	-0.045
MS.426         	4.282          	-0.04
MS.427         	4.275          	-0.039
MS.428         	4.265          	-0.043
MS.429         	4.257          	-0.038
MS.430         	4.247          	-0.042
MS.431         	4.24           	-0.04
MS.432         	4.233          	-0.042
MS.433         	4.222          	-0.043
MS.434         	4.215          	-0.04
MS.435         	4.207          	-0.044
MS.436         	4.197          	-0.042
MS.437         	4.19           	-0.042
MS.438         	4.18           	-0.039
MS.439         	4.173          	-0.042
MS.440         	4.165          	-0.039
DERIVED EXCITABILITY VARIABLES
Program = QTracP 27/06/2023
Threshold method = 6 (optimised for CAP, using data for present condition only)
SR method = 1 (using actual data values)
6.                 	0.000               	Peak response\(mV)
9.                 	30                  	Temperature ( C)
17.                	27                  	Age (years)
18.                	1                   	Sex (M=1, F=2)

EXTRA VARIABLES

MScPeak(mV) = 9.01
MScS5(mA) = 5.47
MScS50(mA) = 6.97
MScS95(mA) = 9.17
MScNSteps = 1
MScSteps(%) = 2.5
MScStepMax(%) = 2.5
MScD50 = 55
MScSlope = 4.51
MScDuration(min) = 5.9
MSFTraces = 436
MSFPeakAmp(mV) = 8.97
MSFNUnits = 122
MSFMeanUnitAmp(uV) = 73.6
MSFHuntTime(m) = 1.4
MSFError(%) = 3.24
MSFNLarge = 34.11
MSFMedianAmp(%) = 0.616
MSFMedianAmp(mV) = 0.0553
MSFHalfAmpAmp(%) = 0.985
MSFHalfAmpAmp(mV) = 0.0884
MSFLargestAmp(%) = 2.36
MSFLargestAmp(mV) = 0.212
MSFMeanRS(%) = 2
MSFSizeLimit(uV) = 29.9
MSFLimitType = 1
MSFSmallestAmp(uV) = 32.1
MSFOpts = 10104222032
MSFSDMax = 69.6
MSFSDMin = 5.66

EXTRA WAVEFORMS


!MScan Model
!122
	1	4.8	0.57	2
	2	5.02	0.38	2
	3	5.12	0.57	2
	4	5.19	0.46	2
	5	5.3	0.8	2
	6	5.36	0.57	2
	7	5.39	0.5	2
	8	5.41	0.51	2
	9	5.44	0.42	2
	10	5.48	0.47	2
	11	5.52	0.6	2
	12	5.54	0.36	2
	13	5.56	0.45	2
	14	5.58	0.36	2
	15	5.61	0.54	2
	16	5.63	0.36	2
	17	5.66	0.78	2
	18	5.68	0.67	2
	19	5.7	0.59	2
	20	5.72	0.36	2
	21	5.73	0.45	2
	22	5.74	0.44	2
	23	5.76	0.5	2
	24	5.79	0.65	2
	25	5.8	0.41	2
	26	5.81	0.38	2
	27	5.83	0.45	2
	28	5.84	0.43	2
	29	5.85	0.43	2
	30	5.87	0.45	2
	31	5.88	0.52	2
	32	5.9	0.42	2
	33	5.91	0.49	2
	34	5.93	0.54	2
	35	5.95	0.52	2
	36	5.96	0.57	2
	37	5.98	0.6	2
	38	6.01	1.02	2
	39	6.06	1.27	2
	40	6.11	1.3	2
	41	6.14	0.43	2
	42	6.16	0.59	2
	43	6.17	0.4	2
	44	6.18	0.38	2
	45	6.2	0.39	2
	46	6.21	0.64	2
	47	6.22	0.73	2
	48	6.26	1.08	2
	49	6.28	1.98	2
	50	6.33	2.13	2
	51	6.45	1.61	2
	52	6.48	0.47	2
	53	6.49	0.47	2
	54	6.51	0.46	2
	55	6.52	0.63	2
	56	6.55	1.27	2
	57	6.64	2.33	2
	58	6.67	0.7	2
	59	6.7	0.53	2
	60	6.71	0.4	2
	61	6.72	0.56	2
	62	6.74	0.66	2
	63	6.75	0.57	2
	64	6.77	0.61	2
	65	6.79	0.66	2
	66	6.81	0.78	2
	67	6.83	1.41	2
	68	6.85	1.07	2
	69	6.87	0.61	2
	70	6.89	0.67	2
	71	6.92	0.92	2
	72	6.94	0.71	2
	73	6.95	0.54	2
	74	6.96	0.5	2
	75	6.97	0.4	2
	76	6.99	0.74	2
