File:              	C:\Qtrac\Data\ME2C30710A.QZD
Name:              	 ST14R
Protocol:          	MSCAN-MV
Date:              	10/7/23
Date of birth:     	14/4/00
Age:               	23
Sex:               	M
Temperature:       	30.7
S/R sites:         	Knee CF-TA
NC/disease:        	NC
Operator:          	BY
Comments:
M-SCAN DATA (Repeat 1/3, 13.1-6.9m)
Scanpts: 44, 50, 424, 446
Stim. (mA)     	Amp. (mV)
MS.1           	23             	5.12
MS.2           	23             	5.072
MS.3           	23             	5.063
MS.4           	23             	5.084
MS.5           	23             	5.076
MS.6           	23             	5.059
MS.7           	23             	5.078
MS.8           	23             	5.031
MS.9           	23             	5.059
MS.10          	23             	5.046
MS.11          	23             	5.036
MS.12          	23             	5.03
MS.13          	23             	5.08
MS.14          	23             	5.032
MS.15          	23             	5.096
MS.16          	23             	5.041
MS.17          	23             	5.063
MS.18          	23             	5.113
MS.19          	23             	5.046
MS.20          	23             	5.065
MS.21          	23             	5.078
MS.22          	23             	5.045
MS.23          	23             	5.059
MS.24          	22.907         	4.98
MS.25          	22.862         	5.022
MS.26          	22.817         	5.06
MS.27          	22.77          	5.085
MS.28          	22.725         	5.091
MS.29          	22.68          	5.098
MS.30          	22.635         	5.04
MS.31          	22.59          	5.08
MS.32          	22.545         	5.072
MS.33          	22.5           	5.044
MS.34          	22.455         	5.034
MS.35          	22.41          	5.076
MS.36          	22.365         	5.08
MS.37          	22.32          	5.028
MS.38          	22.275         	5.056
MS.39          	22.23          	5.083
MS.40          	22.188         	4.998
MS.41          	22.142         	5.082
MS.42          	22.097         	5.095
MS.43          	22.055         	5.026
MS.44          	22.01          	5.123
MS.45          	21.965         	5.081
MS.46          	21.922         	5.108
MS.47          	21.877         	5.128
MS.48          	21.835         	5.102
MS.49          	21.79          	5.137
MS.50          	21.747         	5.081
MS.51          	21.705         	5.114
MS.52          	21.66          	5.083
MS.53          	21.618         	5.128
MS.54          	21.575         	5.124
MS.55          	21.53          	5.026
MS.56          	21.487         	5.099
MS.57          	21.445         	5.17
MS.58          	21.403         	5.075
MS.59          	21.36          	5.092
MS.60          	21.317         	5.103
MS.61          	21.275         	4.985
MS.62          	21.233         	5.048
MS.63          	21.19          	5.081
MS.64          	21.147         	5.026
MS.65          	21.105         	4.995
MS.66          	21.062         	5.068
MS.67          	21.02          	4.948
MS.68          	20.977         	4.978
MS.69          	20.938         	5.068
MS.70          	20.895         	5.05
MS.71          	20.852         	4.96
MS.72          	20.81          	4.961
MS.73          	20.77          	4.955
MS.74          	20.727         	5.007
MS.75          	20.688         	5.009
MS.76          	20.645         	5.039
MS.77          	20.605         	5.001
MS.78          	20.562         	5.068
MS.79          	20.522         	4.997
MS.80          	20.48          	5.017
MS.81          	20.44          	5.027
MS.82          	20.4           	4.98
MS.83          	20.358         	4.924
MS.84          	20.317         	4.967
MS.85          	20.278         	5.002
MS.86          	20.237         	4.975
MS.87          	20.195         	4.969
MS.88          	20.155         	4.978
MS.89          	20.115         	4.958
MS.90          	20.075         	4.925
MS.91          	20.035         	4.95
MS.92          	19.995         	4.852
MS.93          	19.955         	4.995
MS.94          	19.915         	4.89
MS.95          	19.875         	4.966
MS.96          	19.835         	4.926
MS.97          	19.795         	4.879
MS.98          	19.757         	4.797
MS.99          	19.717         	4.938
MS.100         	19.677         	4.916
MS.101         	19.637         	4.814
MS.102         	19.6           	4.862
MS.103         	19.56          	4.832
MS.104         	19.52          	4.865
MS.105         	19.483         	4.877
MS.106         	19.442         	4.786
MS.107         	19.405         	4.844
MS.108         	19.365         	4.803
MS.109         	19.327         	4.849
MS.110         	19.288         	4.742
MS.111         	19.25          	4.727
MS.112         	19.21          	4.692
MS.113         	19.172         	4.653
MS.114         	19.135         	4.683
MS.115         	19.095         	4.79
MS.116         	19.057         	4.746
MS.117         	19.02          	4.786
MS.118         	18.983         	4.768
MS.119         	18.945         	4.626
MS.120         	18.905         	4.702
MS.121         	18.868         	4.618
MS.122         	18.83          	4.687
MS.123         	18.792         	4.734
MS.124         	18.755         	4.64
MS.125         	18.717         	4.785
MS.126         	18.68          	4.534
MS.127         	18.642         	4.636
MS.128         	18.605         	4.569
MS.129         	18.57          	4.658
MS.130         	18.532         	4.487
MS.131         	18.495         	4.522
MS.132         	18.458         	4.587
MS.133         	18.42          	4.661
MS.134         	18.385         	4.556
MS.135         	18.347         	4.65
MS.136         	18.31          	4.517
MS.137         	18.275         	4.553
MS.138         	18.237         	4.552
MS.139         	18.202         	4.528
MS.140         	18.165         	4.509
MS.141         	18.128         	4.548
MS.142         	18.092         	4.442
MS.143         	18.055         	4.511
MS.144         	18.02          	4.411
MS.145         	17.985         	4.359
MS.146         	17.948         	4.382
MS.147         	17.913         	4.419
MS.148         	17.878         	4.413
MS.149         	17.84          	4.283
MS.150         	17.805         	4.308
MS.151         	17.77          	4.276
MS.152         	17.735         	4.299
MS.153         	17.698         	4.269
MS.154         	17.663         	4.313
MS.155         	17.628         	4.202
MS.156         	17.592         	4.335
MS.157         	17.557         	4.205
MS.158         	17.522         	4.299
MS.159         	17.487         	4.185
MS.160         	17.452         	4.229
MS.161         	17.417         	4.133
MS.162         	17.382         	4.063
MS.163         	17.347         	4.232
MS.164         	17.312         	3.98
MS.165         	17.28          	4.018
MS.166         	17.245         	3.984
MS.167         	17.21          	4.062
MS.168         	17.175         	3.931
MS.169         	17.142         	4.005
MS.170         	17.108         	4.008
MS.171         	17.073         	3.96
MS.172         	17.04          	4.004
MS.173         	17.005         	3.932
MS.174         	16.97          	3.89
MS.175         	16.938         	3.942
MS.176         	16.903         	3.962
MS.177         	16.87          	3.882
MS.178         	16.835         	3.678
MS.179         	16.802         	3.732
MS.180         	16.767         	3.73
MS.181         	16.735         	3.792
MS.182         	16.702         	3.737
MS.183         	16.667         	3.654
MS.184         	16.635         	3.628
MS.185         	16.602         	3.599
MS.186         	16.567         	3.519
MS.187         	16.535         	3.577
MS.188         	16.503         	3.527
MS.189         	16.47          	3.399
MS.190         	16.438         	3.528
MS.191         	16.403         	3.499
MS.192         	16.37          	3.459
MS.193         	16.337         	3.437
MS.194         	16.305         	3.447
MS.195         	16.272         	3.424
MS.196         	16.24          	3.334
MS.197         	16.208         	3.392
MS.198         	16.175         	3.345
MS.199         	16.142         	3.405
MS.200         	16.11          	3.321
MS.201         	16.077         	3.267
MS.202         	16.047         	3.276
MS.203         	16.015         	3.293
MS.204         	15.983         	3.263
MS.205         	15.95          	3.329
MS.206         	15.917         	3.167
MS.207         	15.887         	3.118
MS.208         	15.855         	3.126
MS.209         	15.822         	3.177
MS.210         	15.792         	3.204
MS.211         	15.76          	3.14
MS.212         	15.73          	3.044
MS.213         	15.697         	3.089
MS.214         	15.665         	3.076
MS.215         	15.635         	3.07
MS.216         	15.602         	3.063
MS.217         	15.572         	2.885
MS.218         	15.54          	2.928
MS.219         	15.51          	2.884
MS.220         	15.48          	3.083
MS.221         	15.447         	2.907
MS.222         	15.417         	2.84
MS.223         	15.387         	2.941
MS.224         	15.355         	2.812
MS.225         	15.325         	2.79
MS.226         	15.295         	2.745
MS.227         	15.265         	2.709
MS.228         	15.233         	2.738
MS.229         	15.202         	2.736
MS.230         	15.172         	2.696
MS.231         	15.142         	2.698
MS.232         	15.112         	2.628
MS.233         	15.082         	2.668
MS.234         	15.052         	2.595
MS.235         	15.023         	2.474
MS.236         	14.992         	2.572
MS.237         	14.962         	2.504
MS.238         	14.932         	2.421
MS.239         	14.902         	2.427
MS.240         	14.872         	2.367
MS.241         	14.842         	2.325
MS.242         	14.812         	2.299
MS.243         	14.782         	2.216
MS.244         	14.752         	2.273
MS.245         	14.725         	2.263
MS.246         	14.695         	2.187
MS.247         	14.665         	2.117
MS.248         	14.635         	2.089
MS.249         	14.608         	2.015
MS.250         	14.577         	2.13
MS.251         	14.547         	2.082
MS.252         	14.52          	2.034
MS.253         	14.49          	1.898
MS.254         	14.462         	1.998
MS.255         	14.432         	2.006
MS.256         	14.405         	2.026
MS.257         	14.375         	1.958
MS.258         	14.347         	1.851
MS.259         	14.318         	1.739
MS.260         	14.29          	1.689
MS.261         	14.26          	1.78
MS.262         	14.233         	1.774
MS.263         	14.202         	1.605
MS.264         	14.175         	1.638
MS.265         	14.148         	1.482
MS.266         	14.117         	1.607
MS.267         	14.09          	1.42
MS.268         	14.062         	1.455
MS.269         	14.035         	1.529
MS.270         	14.005         	1.366
MS.271         	13.977         	1.364
MS.272         	13.95          	1.573
MS.273         	13.922         	1.584
MS.274         	13.895         	1.522
MS.275         	13.867         	1.479
MS.276         	13.84          	1.562
MS.277         	13.812         	1.418
MS.278         	13.785         	1.268
MS.279         	13.755         	1.272
MS.280         	13.727         	1.243
MS.281         	13.702         	1.308
MS.282         	13.675         	1.191
MS.283         	13.648         	1.212
MS.284         	13.62          	1.179
MS.285         	13.592         	1.143
MS.286         	13.565         	1.002
MS.287         	13.537         	1.045
MS.288         	13.51          	1.108
MS.289         	13.485         	0.966
MS.290         	13.457         	0.875
MS.291         	13.43          	0.734
MS.292         	13.403         	0.812
MS.293         	13.377         	0.904
MS.294         	13.35          	0.791
MS.295         	13.322         	0.718
MS.296         	13.297         	0.68
MS.297         	13.27          	0.551
MS.298         	13.242         	0.609
MS.299         	13.217         	0.732
MS.300         	13.19          	0.542
MS.301         	13.165         	0.692
MS.302         	13.137         	0.558
MS.303         	13.112         	0.615
MS.304         	13.085         	0.468
MS.305         	13.06          	0.564
MS.306         	13.032         	0.543
MS.307         	13.007         	0.446
MS.308         	12.98          	0.521
MS.309         	12.955         	0.45
MS.310         	12.93          	0.452
MS.311         	12.903         	0.374
MS.312         	12.877         	0.453
MS.313         	12.852         	0.335
MS.314         	12.825         	0.292
MS.315         	12.8           	0.234
MS.316         	12.775         	0.261
MS.317         	12.75          	0.265
MS.318         	12.725         	0.228
MS.319         	12.697         	0.162
MS.320         	12.672         	0.255
MS.321         	12.648         	0.084
MS.322         	12.622         	0.062
MS.323         	12.597         	-0.034
MS.324         	12.572         	0.043
MS.325         	12.547         	0.032
MS.326         	12.523         	-0.054
MS.327         	12.497         	0.004
MS.328         	12.472         	0.051
MS.329         	12.447         	-0.089
MS.330         	12.422         	-0.092
MS.331         	12.398         	-0.135
MS.332         	12.372         	-0.165
MS.333         	12.347         	-0.126
MS.334         	12.322         	-0.196
MS.335         	12.297         	-0.242
MS.336         	12.275         	-0.204
MS.337         	12.25          	-0.202
MS.338         	12.225         	-0.297
MS.339         	12.2           	-0.22
MS.340         	12.177         	-0.234
MS.341         	12.153         	-0.285
MS.342         	12.127         	-0.272
MS.343         	12.102         	-0.311
MS.344         	12.08          	-0.291
MS.345         	12.055         	-0.247
MS.346         	12.03          	-0.317
MS.347         	12.007         	-0.358
MS.348         	11.983         	-0.36
MS.349         	11.96          	-0.385
MS.350         	11.935         	-0.358
MS.351         	11.912         	-0.405
MS.352         	11.887         	-0.381
MS.353         	11.865         	-0.363
MS.354         	11.84          	-0.413
MS.355         	11.818         	-0.383
MS.356         	11.792         	-0.414
MS.357         	11.77          	-0.448
MS.358         	11.745         	-0.441
MS.359         	11.722         	-0.432
MS.360         	11.7           	-0.46
MS.361         	11.675         	-0.518
MS.362         	11.653         	-0.472
MS.363         	11.63          	-0.468
MS.364         	11.605         	-0.48
MS.365         	11.582         	-0.523
MS.366         	11.56          	-0.526
MS.367         	11.535         	-0.562
MS.368         	11.512         	-0.515
MS.369         	11.49          	-0.579
MS.370         	11.467         	-0.535
MS.371         	11.445         	-0.577
MS.372         	11.422         	-0.59
MS.373         	11.398         	-0.577
MS.374         	11.375         	-0.573
MS.375         	11.352         	-0.577
MS.376         	11.33          	-0.641
MS.377         	11.307         	-0.579
MS.378         	11.285         	-0.631
MS.379         	11.262         	-0.648
MS.380         	11.24          	-0.657
MS.381         	11.217         	-0.632
MS.382         	11.195         	-0.659
MS.383         	11.172         	-0.714
MS.384         	11.15          	-0.715
MS.385         	11.127         	-0.783
MS.386         	11.105         	-0.699
MS.387         	11.085         	-0.731
MS.388         	11.062         	-0.748
MS.389         	11.04          	-0.717
MS.390         	11.017         	-0.739
MS.391         	10.995         	-0.731
MS.392         	10.972         	-0.737
MS.393         	10.952         	-0.754
MS.394         	10.93          	-0.726
MS.395         	10.907         	-0.759
MS.396         	10.885         	-0.748
MS.397         	10.865         	-0.813
MS.398         	10.842         	-0.764
MS.399         	10.82          	-0.831
MS.400         	10.8           	-0.789
MS.401         	10.778         	-0.771
MS.402         	10.757         	-0.832
MS.403         	10.735         	-0.845
MS.404         	10.712         	-0.854
MS.405         	10.693         	-0.849
MS.406         	10.67          	-0.84
MS.407         	10.65          	-0.791
MS.408         	10.627         	-0.819
MS.409         	10.608         	-0.87
MS.410         	10.585         	-0.817
MS.411         	10.565         	-0.881
MS.412         	10.542         	-0.882
MS.413         	10.523         	-0.855
MS.414         	10.5           	-0.88
MS.415         	10.48          	-0.898
MS.416         	10.46          	-0.924
MS.417         	10.438         	-0.905
MS.418         	10.417         	-0.913
MS.419         	10.398         	-0.934
MS.420         	10.375         	-0.91
MS.421         	10.355         	-0.921
MS.422         	10.335         	-0.89
MS.423         	10.315         	-0.879
MS.424         	10.292         	-0.925
MS.425         	10.273         	-0.893
MS.426         	10.252         	-0.916
MS.427         	10.233         	-0.893
MS.428         	10.212         	-0.909
MS.429         	10.19          	-0.872
MS.430         	10.17          	-0.903
MS.431         	10.15          	-0.939
MS.432         	10.13          	-0.916
MS.433         	10.11          	-0.925
MS.434         	10.09          	-0.889
MS.435         	10.07          	-0.899
MS.436         	10.05          	-0.92
MS.437         	10.03          	-0.928
MS.438         	10.01          	-0.9
MS.439         	9.99           	-0.928
MS.440         	9.97           	-0.9
MS.441         	9.95           	-0.923
MS.442         	9.93           	-0.903
MS.443         	9.91           	-0.912
MS.444         	9.89           	-0.9
MS.445         	9.87           	-0.921
MS.446         	9.85           	-0.928
MS.447         	9.83           	-0.923
MS.448         	9.81           	-0.893
MS.449         	9.792          	-0.909
MS.450         	9.773          	-0.905
MS.451         	9.752          	-0.898
MS.452         	9.733          	-0.917
MS.453         	9.712          	-0.876
MS.454         	9.695          	-0.924
MS.455         	9.675          	-0.901
MS.456         	9.655          	-0.922
MS.457         	9.635          	-0.898
MS.458         	9.617          	-0.941
MS.459         	9.597          	-0.887
MS.460         	9.577          	-0.889
MS.461         	9.56           	-0.921
MS.462         	9.54           	-0.895
MS.463         	9.52           	-0.876
MS.464         	9.502          	-0.92
MS.465         	9.483          	-0.906
MS.466         	9.465          	-0.868
MS.467         	9.445          	-0.876
MS.468         	9.425          	-0.909
MS.469         	9.407          	-0.886
MS.470         	9.387          	-0.896
MS.471         	9.37           	-0.891
MS.472         	9.35           	-0.883
MS.473         	9.332          	-0.891
MS.474         	9.312          	-0.868
MS.475         	9.295          	-0.915
MS.476         	9.278          	-0.912
MS.477         	9.257          	-0.87
MS.478         	9.24           	-0.893
MS.479         	9.22           	-0.893
MS.480         	9.202          	-0.887
MS.481         	9.185          	-0.876
MS.482         	9.165          	-0.889
MS.483         	9.148          	-0.897
MS.484         	9.13           	-0.862
MS.485         	9.11           	-0.89
MS.486         	9.092          	-0.875
MS.487         	9.075          	-0.894
MS.488         	9.057          	-0.881
MS.489         	9.037          	-0.872
MS.490         	9.02           	-0.905
MS.491         	9.002          	-0.89
MS.492         	8.985          	-0.869
MS.493         	8.967          	-0.873
MS.494         	8.948          	-0.847
MS.495         	8.93           	-0.897
MS.496         	8.912          	-0.889
MS.497         	8.895          	-0.881
MS.498         	8.877          	-0.85
