File:              	C:\Qtrac\Data\ME2C30629C.QZD
Name:              	 JA20R
Protocol:          	MSCAN-MV
Date:              	29/6/23
Date of birth:     	20/10/00
Age:               	22
Sex:               	F
Temperature:       	33.0
S/R sites:         	Knee CF-TA
NC/disease:        	NC
Operator:          	BY
Comments:
M-SCAN DATA (Repeat 3/4, 23-16.2m)
Scanpts: 12, 22, 511, 548
Stim. (mA)     	Amp. (mV)
MS.1           	21             	3.802
MS.2           	21             	3.805
MS.3           	21             	3.821
MS.4           	21             	3.817
MS.5           	21             	3.787
MS.6           	21             	3.718
MS.7           	21             	3.675
MS.8           	21             	3.679
MS.9           	21             	3.688
MS.10          	21             	3.665
MS.11          	21             	3.716
MS.12          	21             	3.696
MS.13          	21             	3.702
MS.14          	21             	3.64
MS.15          	21             	3.607
MS.16          	21             	3.644
MS.17          	21             	3.698
MS.18          	21             	3.68
MS.19          	21             	3.669
MS.20          	21             	3.661
MS.21          	21             	3.645
MS.22          	21             	3.692
MS.23          	21             	3.654
MS.24          	20.958         	3.639
MS.25          	20.915         	3.628
MS.26          	20.875         	3.6
MS.27          	20.833         	3.57
MS.28          	20.79          	3.576
MS.29          	20.75          	3.597
MS.30          	20.708         	3.605
MS.31          	20.667         	3.593
MS.32          	20.625         	3.535
MS.33          	20.585         	3.508
MS.34          	20.542         	3.54
MS.35          	20.502         	3.552
MS.36          	20.46          	3.516
MS.37          	20.42          	3.525
MS.38          	20.38          	3.507
MS.39          	20.337         	3.509
MS.40          	20.297         	3.458
MS.41          	20.257         	3.514
MS.42          	20.217         	3.496
MS.43          	20.177         	3.484
MS.44          	20.137         	3.48
MS.45          	20.095         	3.486
MS.46          	20.055         	3.464
MS.47          	20.015         	3.479
MS.48          	19.975         	3.438
MS.49          	19.935         	3.442
MS.50          	19.895         	3.441
MS.51          	19.858         	3.433
MS.52          	19.817         	3.492
MS.53          	19.778         	3.408
MS.54          	19.737         	3.411
MS.55          	19.698         	3.386
MS.56          	19.66          	3.398
MS.57          	19.62          	3.378
MS.58          	19.58          	3.384
MS.59          	19.54          	3.395
MS.60          	19.502         	3.357
MS.61          	19.462         	3.328
MS.62          	19.425         	3.356
MS.63          	19.385         	3.381
MS.64          	19.347         	3.345
MS.65          	19.307         	3.317
MS.66          	19.27          	3.29
MS.67          	19.23          	3.289
MS.68          	19.192         	3.271
MS.69          	19.155         	3.309
MS.70          	19.115         	3.27
MS.71          	19.077         	3.251
MS.72          	19.04          	3.195
MS.73          	19.002         	3.166
MS.74          	18.962         	3.212
MS.75          	18.925         	3.199
MS.76          	18.887         	3.182
MS.77          	18.85          	3.203
MS.78          	18.812         	3.207
MS.79          	18.775         	3.09
MS.80          	18.737         	3.078
MS.81          	18.7           	3.082
MS.82          	18.663         	3.054
MS.83          	18.625         	3.1
MS.84          	18.587         	3.06
MS.85          	18.55          	2.997
MS.86          	18.515         	3
MS.87          	18.477         	2.927
MS.88          	18.44          	2.969
MS.89          	18.403         	2.964
MS.90          	18.368         	2.982
MS.91          	18.33          	2.915
MS.92          	18.292         	2.949
MS.93          	18.257         	2.946
MS.94          	18.22          	2.946
MS.95          	18.182         	2.913
MS.96          	18.147         	2.938
MS.97          	18.11          	2.869
MS.98          	18.075         	2.861
MS.99          	18.04          	2.792
MS.100         	18.003         	2.853
MS.101         	17.967         	2.919
MS.102         	17.93          	2.864
MS.103         	17.895         	2.878
MS.104         	17.86          	2.877
MS.105         	17.823         	2.759
MS.106         	17.788         	2.764
MS.107         	17.753         	2.863
MS.108         	17.717         	2.774
MS.109         	17.682         	2.675
MS.110         	17.645         	2.662
MS.111         	17.61          	2.673
MS.112         	17.575         	2.725
MS.113         	17.54          	2.673
MS.114         	17.505         	2.617
MS.115         	17.47          	2.562
MS.116         	17.435         	2.663
MS.117         	17.4           	2.621
MS.118         	17.365         	2.57
MS.119         	17.333         	2.657
MS.120         	17.297         	2.574
MS.121         	17.262         	2.557
MS.122         	17.227         	2.528
MS.123         	17.192         	2.508
MS.124         	17.16          	2.515
MS.125         	17.125         	2.507
MS.126         	17.09          	2.443
MS.127         	17.057         	2.448
MS.128         	17.022         	2.414
MS.129         	16.987         	2.465
MS.130         	16.955         	2.422
MS.131         	16.92          	2.437
MS.132         	16.887         	2.264
MS.133         	16.852         	2.377
MS.134         	16.82          	2.249
MS.135         	16.785         	2.203
MS.136         	16.753         	2.241
MS.137         	16.717         	2.241
MS.138         	16.685         	2.272
MS.139         	16.653         	2.094
MS.140         	16.618         	2.134
MS.141         	16.585         	2.145
MS.142         	16.552         	2.126
MS.143         	16.52          	2.135
MS.144         	16.485         	2.162
MS.145         	16.452         	2.012
MS.146         	16.42          	2.053
MS.147         	16.387         	2.072
MS.148         	16.355         	1.954
MS.149         	16.323         	1.964
MS.150         	16.29          	1.954
MS.151         	16.257         	1.958
MS.152         	16.225         	1.833
MS.153         	16.192         	1.891
MS.154         	16.16          	1.918
MS.155         	16.128         	1.94
MS.156         	16.095         	1.852
MS.157         	16.062         	1.929
MS.158         	16.03          	1.921
MS.159         	16             	1.758
MS.160         	15.967         	1.783
MS.161         	15.935         	1.707
MS.162         	15.902         	1.745
MS.163         	15.872         	1.724
MS.164         	15.84          	1.693
MS.165         	15.807         	1.671
MS.166         	15.777         	1.711
MS.167         	15.745         	1.646
MS.168         	15.712         	1.553
MS.169         	15.682         	1.735
MS.170         	15.65          	1.6
MS.171         	15.62          	1.586
MS.172         	15.587         	1.536
MS.173         	15.557         	1.516
MS.174         	15.525         	1.442
MS.175         	15.495         	1.461
MS.176         	15.465         	1.566
MS.177         	15.432         	1.52
MS.178         	15.402         	1.381
MS.179         	15.372         	1.388
MS.180         	15.34          	1.483
MS.181         	15.31          	1.335
MS.182         	15.28          	1.351
MS.183         	15.25          	1.324
MS.184         	15.217         	1.265
MS.185         	15.188         	1.316
MS.186         	15.157         	1.285
MS.187         	15.127         	1.378
MS.188         	15.097         	1.262
MS.189         	15.068         	1.306
MS.190         	15.037         	1.198
MS.191         	15.007         	1.218
MS.192         	14.977         	1.261
MS.193         	14.947         	1.257
MS.194         	14.917         	1.298
MS.195         	14.887         	1.189
MS.196         	14.858         	1.158
MS.197         	14.827         	1.076
MS.198         	14.797         	1.196
MS.199         	14.77          	1.204
MS.200         	14.74          	1.184
MS.201         	14.71          	1.138
MS.202         	14.68          	1.052
MS.203         	14.65          	1.111
MS.204         	14.622         	1.072
MS.205         	14.592         	1.041
MS.206         	14.562         	1.019
MS.207         	14.535         	1.053
MS.208         	14.505         	0.878
MS.209         	14.477         	0.869
MS.210         	14.447         	0.906
MS.211         	14.417         	0.853
MS.212         	14.39          	0.794
MS.213         	14.36          	0.765
MS.214         	14.332         	0.752
MS.215         	14.305         	0.88
MS.216         	14.275         	0.803
MS.217         	14.247         	0.807
MS.218         	14.217         	0.76
MS.219         	14.19          	0.778
MS.220         	14.162         	0.738
MS.221         	14.132         	0.726
MS.222         	14.105         	0.722
MS.223         	14.077         	0.685
MS.224         	14.047         	0.676
MS.225         	14.02          	0.749
MS.226         	13.992         	0.668
MS.227         	13.965         	0.643
MS.228         	13.938         	0.673
MS.229         	13.91          	0.625
MS.230         	13.88          	0.538
MS.231         	13.852         	0.69
MS.232         	13.825         	0.583
MS.233         	13.797         	0.605
MS.234         	13.77          	0.617
MS.235         	13.742         	0.593
MS.236         	13.715         	0.593
MS.237         	13.688         	0.537
MS.238         	13.66          	0.609
MS.239         	13.632         	0.6
MS.240         	13.605         	0.567
MS.241         	13.58          	0.56
MS.242         	13.552         	0.499
MS.243         	13.525         	0.542
MS.244         	13.497         	0.525
MS.245         	13.47          	0.543
MS.246         	13.445         	0.54
MS.247         	13.417         	0.532
MS.248         	13.39          	0.478
MS.249         	13.362         	0.507
MS.250         	13.337         	0.464
MS.251         	13.31          	0.506
MS.252         	13.282         	0.493
MS.253         	13.257         	0.466
MS.254         	13.23          	0.481
MS.255         	13.205         	0.505
MS.256         	13.177         	0.473
MS.257         	13.153         	0.427
MS.258         	13.125         	0.466
MS.259         	13.1           	0.463
MS.260         	13.072         	0.437
MS.261         	13.047         	0.458
MS.262         	13.02          	0.4
MS.263         	12.995         	0.385
MS.264         	12.967         	0.425
MS.265         	12.943         	0.393
MS.266         	12.917         	0.41
MS.267         	12.89          	0.4
MS.268         	12.865         	0.361
MS.269         	12.84          	0.367
MS.270         	12.815         	0.353
MS.271         	12.787         	0.389
MS.272         	12.762         	0.366
MS.273         	12.738         	0.361
MS.274         	12.712         	0.362
MS.275         	12.688         	0.358
MS.276         	12.66          	0.355
MS.277         	12.635         	0.317
MS.278         	12.61          	0.312
MS.279         	12.585         	0.318
MS.280         	12.56          	0.339
MS.281         	12.535         	0.248
MS.282         	12.51          	0.275
MS.283         	12.485         	0.267
MS.284         	12.46          	0.253
MS.285         	12.435         	0.266
MS.286         	12.41          	0.23
MS.287         	12.385         	0.283
MS.288         	12.36          	0.239
MS.289         	12.335         	0.252
MS.290         	12.312         	0.254
MS.291         	12.287         	0.229
MS.292         	12.262         	0.247
MS.293         	12.238         	0.239
MS.294         	12.212         	0.201
MS.295         	12.19          	0.219
MS.296         	12.165         	0.228
MS.297         	12.14          	0.216
MS.298         	12.115         	0.216
MS.299         	12.092         	0.208
MS.300         	12.068         	0.237
MS.301         	12.042         	0.198
MS.302         	12.02          	0.198
MS.303         	11.995         	0.209
MS.304         	11.972         	0.179
MS.305         	11.947         	0.204
MS.306         	11.922         	0.195
MS.307         	11.9           	0.18
MS.308         	11.875         	0.193
MS.309         	11.852         	0.214
MS.310         	11.827         	0.171
MS.311         	11.805         	0.186
MS.312         	11.782         	0.192
MS.313         	11.757         	0.17
MS.314         	11.735         	0.177
MS.315         	11.71          	0.146
MS.316         	11.688         	0.157
MS.317         	11.665         	0.151
MS.318         	11.64          	0.161
MS.319         	11.617         	0.159
MS.320         	11.595         	0.151
MS.321         	11.57          	0.153
MS.322         	11.547         	0.15
MS.323         	11.525         	0.143
MS.324         	11.502         	0.149
MS.325         	11.48          	0.168
MS.326         	11.455         	0.157
MS.327         	11.432         	0.129
MS.328         	11.41          	0.135
MS.329         	11.387         	0.142
MS.330         	11.365         	0.138
MS.331         	11.342         	0.14
MS.332         	11.32          	0.132
MS.333         	11.297         	0.139
MS.334         	11.275         	0.138
MS.335         	11.252         	0.136
MS.336         	11.23          	0.139
MS.337         	11.207         	0.126
MS.338         	11.185         	0.128
MS.339         	11.162         	0.131
MS.340         	11.14          	0.126
MS.341         	11.117         	0.121
MS.342         	11.095         	0.123
MS.343         	11.073         	0.118
MS.344         	11.05          	0.127
MS.345         	11.03          	0.12
MS.346         	11.007         	0.126
MS.347         	10.985         	0.125
MS.348         	10.962         	0.13
MS.349         	10.94          	0.126
MS.350         	10.92          	0.12
MS.351         	10.898         	0.127
MS.352         	10.875         	0.128
MS.353         	10.855         	0.125
MS.354         	10.832         	0.127
MS.355         	10.81          	0.126
MS.356         	10.79          	0.123
MS.357         	10.767         	0.125
MS.358         	10.745         	0.129
MS.359         	10.725         	0.106
MS.360         	10.702         	0.115
MS.361         	10.682         	0.123
MS.362         	10.66          	0.113
MS.363         	10.64          	0.117
MS.364         	10.617         	0.126
MS.365         	10.597         	0.103
MS.366         	10.575         	0.109
MS.367         	10.555         	0.115
MS.368         	10.532         	0.123
MS.369         	10.512         	0.12
MS.370         	10.49          	0.117
MS.371         	10.47          	0.117
MS.372         	10.45          	0.114
MS.373         	10.427         	0.117
MS.374         	10.407         	0.109
MS.375         	10.387         	0.106
MS.376         	10.365         	0.107
MS.377         	10.345         	0.108
MS.378         	10.325         	0.116
MS.379         	10.305         	0.099
MS.380         	10.282         	0.107
MS.381         	10.262         	0.114
MS.382         	10.242         	0.107
MS.383         	10.222         	0.106
MS.384         	10.202         	0.099
MS.385         	10.18          	0.1
MS.386         	10.16          	0.1
MS.387         	10.14          	0.092
MS.388         	10.12          	0.107
MS.389         	10.1           	0.1
MS.390         	10.08          	0.102
MS.391         	10.06          	0.096
MS.392         	10.04          	0.096
MS.393         	10.02          	0.099
MS.394         	10             	0.106
MS.395         	9.98           	0.099
MS.396         	9.96           	0.103
MS.397         	9.94           	0.09
MS.398         	9.92           	0.091
MS.399         	9.9            	0.098
MS.400         	9.88           	0.09
MS.401         	9.86           	0.091
MS.402         	9.84           	0.085
MS.403         	9.82           	0.083
MS.404         	9.802          	0.094
MS.405         	9.782          	0.092
MS.406         	9.762          	0.092
MS.407         	9.742          	0.088
MS.408         	9.722          	0.084
MS.409         	9.705          	0.098
MS.410         	9.685          	0.082
MS.411         	9.665          	0.091
MS.412         	9.645          	0.073
MS.413         	9.627          	0.071
MS.414         	9.608          	0.086
MS.415         	9.587          	0.095
MS.416         	9.57           	0.086
MS.417         	9.55           	0.084
MS.418         	9.53           	0.084
MS.419         	9.512          	0.074
MS.420         	9.492          	0.087
MS.421         	9.472          	0.083
MS.422         	9.455          	0.07
MS.423         	9.435          	0.087
MS.424         	9.417          	0.086
MS.425         	9.398          	0.076
MS.426         	9.38           	0.073
MS.427         	9.36           	0.085
MS.428         	9.342          	0.072
MS.429         	9.323          	0.064
MS.430         	9.305          	0.063
MS.431         	9.285          	0.064
MS.432         	9.267          	0.069
MS.433         	9.25           	0.064
MS.434         	9.23           	0.062
MS.435         	9.212          	0.063
MS.436         	9.193          	0.057
MS.437         	9.175          	0.06
MS.438         	9.158          	0.063
MS.439         	9.137          	0.062
MS.440         	9.12           	0.062
MS.441         	9.102          	0.061
MS.442         	9.085          	0.062
MS.443         	9.065          	0.056
MS.444         	9.047          	0.057
MS.445         	9.03           	0.056
MS.446         	9.012          	0.054
MS.447         	8.992          	0.057
MS.448         	8.975          	0.054
MS.449         	8.957          	0.056
MS.450         	8.94           	0.054
MS.451         	8.922          	0.054
MS.452         	8.905          	0.054
MS.453         	8.887          	0.053
MS.454         	8.867          	0.055
MS.455         	8.85           	0.057
MS.456         	8.832          	0.063
MS.457         	8.815          	0.052
MS.458         	8.797          	0.051
MS.459         	8.78           	0.052
MS.460         	8.762          	0.052
MS.461         	8.745          	0.054
MS.462         	8.727          	0.053
MS.463         	8.71           	0.054
MS.464         	8.693          	0.053
MS.465         	8.675          	0.052
MS.466         	8.658          	0.051
MS.467         	8.64           	0.051
MS.468         	8.625          	0.054
MS.469         	8.608          	0.054
MS.470         	8.59           	0.052
MS.471         	8.573          	0.052
MS.472         	8.555          	0.052
MS.473         	8.537          	0.053
MS.474         	8.52           	0.052
MS.475         	8.505          	0.052
MS.476         	8.488          	0.051
MS.477         	8.47           	0.053
MS.478         	8.452          	0.051
MS.479         	8.435          	0.051
MS.480         	8.42           	0.051
MS.481         	8.403          	0.051
MS.482         	8.385          	0.05
MS.483         	8.37           	0.049
MS.484         	8.352          	0.05
MS.485         	8.335          	0.051
MS.486         	8.32           	0.052
MS.487         	8.302          	0.052
MS.488         	8.285          	0.049
MS.489         	8.27           	0.051
MS.490         	8.252          	0.051
MS.491         	8.235          	0.051
MS.492         	8.22           	0.049
MS.493         	8.202          	0.049
MS.494         	8.188          	0.049
MS.495         	8.17           	0.049
MS.496         	8.155          	0.049
MS.497         	8.137          	0.049
MS.498         	8.122          	0.05
MS.499         	8.105          	0.05
MS.500         	8.09           	0.049
MS.501         	8.073          	0.049
MS.502         	8.057          	0.049
MS.503         	8.04           	0.049
