File:              	C:\Qtrac\Data\ME2C30707C.QZD
Name:              	 JO31X
Protocol:          	MSCAN-MV
Date:              	7/7/23
Date of birth:     	31/10/91
Age:               	31
Sex:               	M
Temperature:       	30.2
S/R sites:         	Knee CF-TA
NC/disease:        	NC
Operator:          	BY
Comments:
M-SCAN DATA (Repeat 3/3, 28.3-20.6m)
Scanpts: 10, 16, 549, 619
Stim. (mA)     	Amp. (mV)
MS.1           	19.5           	7.656
MS.2           	19.5           	7.72
MS.3           	19.5           	7.645
MS.4           	19.5           	7.679
MS.5           	19.5           	7.662
MS.6           	19.5           	7.646
MS.7           	19.5           	7.803
MS.8           	19.5           	7.651
MS.9           	19.5           	7.567
MS.10          	19.5           	7.673
MS.11          	19.5           	7.571
MS.12          	19.5           	7.61
MS.13          	19.5           	7.636
MS.14          	19.5           	7.638
MS.15          	19.5           	7.501
MS.16          	19.5           	7.643
MS.17          	19.5           	7.665
MS.18          	19.5           	7.551
MS.19          	19.5           	7.671
MS.20          	19.5           	7.509
MS.21          	19.5           	7.611
MS.22          	19.5           	7.719
MS.23          	19.5           	7.67
MS.24          	19.46          	7.625
MS.25          	19.422         	7.602
MS.26          	19.382         	7.558
MS.27          	19.345         	7.636
MS.28          	19.305         	7.5
MS.29          	19.267         	7.609
MS.30          	19.23          	7.625
MS.31          	19.19          	7.408
MS.32          	19.153         	7.453
MS.33          	19.115         	7.3
MS.34          	19.075         	7.369
MS.35          	19.038         	7.529
MS.36          	19             	7.253
MS.37          	18.962         	7.347
MS.38          	18.922         	7.295
MS.39          	18.885         	7.352
MS.40          	18.847         	7.46
MS.41          	18.81          	7.441
MS.42          	18.772         	7.347
MS.43          	18.735         	7.32
MS.44          	18.698         	7.241
MS.45          	18.66          	7.22
MS.46          	18.622         	7.18
MS.47          	18.585         	7.125
MS.48          	18.55          	7.188
MS.49          	18.512         	7.15
MS.50          	18.475         	7.141
MS.51          	18.438         	7.136
MS.52          	18.4           	7.05
MS.53          	18.365         	7.047
MS.54          	18.327         	7.096
MS.55          	18.29          	7.154
MS.56          	18.255         	7.162
MS.57          	18.217         	7.031
MS.58          	18.182         	6.985
MS.59          	18.145         	7.01
MS.60          	18.11          	7.104
MS.61          	18.073         	6.857
MS.62          	18.038         	6.92
MS.63          	18             	6.901
MS.64          	17.965         	6.97
MS.65          	17.93          	6.732
MS.66          	17.892         	6.863
MS.67          	17.858         	6.783
MS.68          	17.823         	6.84
MS.69          	17.785         	6.567
MS.70          	17.75          	6.721
MS.71          	17.715         	6.761
MS.72          	17.68          	6.675
MS.73          	17.645         	6.665
MS.74          	17.61          	6.482
MS.75          	17.575         	6.702
MS.76          	17.54          	6.719
MS.77          	17.503         	6.705
MS.78          	17.47          	6.503
MS.79          	17.435         	6.638
MS.80          	17.4           	6.575
MS.81          	17.365         	6.606
MS.82          	17.33          	6.395
MS.83          	17.295         	6.572
MS.84          	17.26          	6.328
MS.85          	17.225         	6.281
MS.86          	17.192         	6.277
MS.87          	17.157         	6.179
MS.88          	17.122         	6.376
MS.89          	17.087         	6.387
MS.90          	17.055         	6.331
MS.91          	17.02          	6.292
MS.92          	16.987         	6.171
MS.93          	16.952         	6.158
MS.94          	16.917         	6.199
MS.95          	16.885         	6.166
MS.96          	16.85          	6.122
MS.97          	16.817         	6.087
MS.98          	16.785         	6.168
MS.99          	16.75          	6.01
MS.100         	16.717         	6.082
MS.101         	16.682         	5.759
MS.102         	16.65          	6.07
MS.103         	16.618         	5.967
MS.104         	16.583         	6.069
MS.105         	16.55          	5.886
MS.106         	16.517         	5.824
MS.107         	16.485         	5.742
MS.108         	16.452         	5.765
MS.109         	16.417         	5.868
MS.110         	16.385         	5.82
MS.111         	16.352         	5.798
MS.112         	16.32          	5.656
MS.113         	16.288         	5.731
MS.114         	16.255         	5.533
MS.115         	16.222         	5.446
MS.116         	16.19          	5.602
MS.117         	16.157         	5.313
MS.118         	16.125         	5.46
MS.119         	16.092         	5.453
MS.120         	16.062         	5.367
MS.121         	16.03          	5.443
MS.122         	15.997         	5.346
MS.123         	15.965         	5.234
MS.124         	15.932         	5.18
MS.125         	15.902         	5.149
MS.126         	15.87          	5.121
MS.127         	15.837         	5.25
MS.128         	15.807         	5.096
MS.129         	15.775         	4.943
MS.130         	15.742         	5.106
MS.131         	15.712         	5.005
MS.132         	15.68          	5.01
MS.133         	15.65          	4.904
MS.134         	15.617         	5.085
MS.135         	15.587         	5.067
MS.136         	15.555         	4.897
MS.137         	15.525         	4.756
MS.138         	15.492         	4.784
MS.139         	15.462         	4.718
MS.140         	15.432         	4.777
MS.141         	15.4           	4.771
MS.142         	15.37          	4.832
MS.143         	15.34          	4.756
MS.144         	15.307         	4.637
MS.145         	15.277         	4.436
MS.146         	15.247         	4.678
MS.147         	15.217         	4.494
MS.148         	15.188         	4.625
MS.149         	15.157         	4.366
MS.150         	15.125         	4.51
MS.151         	15.095         	4.54
MS.152         	15.065         	4.314
MS.153         	15.035         	4.537
MS.154         	15.005         	4.307
MS.155         	14.975         	4.343
MS.156         	14.945         	4.108
MS.157         	14.915         	4.067
MS.158         	14.885         	4.206
MS.159         	14.855         	4.216
MS.160         	14.827         	3.975
MS.161         	14.797         	3.982
MS.162         	14.767         	4.046
MS.163         	14.737         	3.901
MS.164         	14.707         	4.055
MS.165         	14.68          	3.95
MS.166         	14.65          	3.644
MS.167         	14.62          	3.695
MS.168         	14.59          	3.707
MS.169         	14.562         	3.73
MS.170         	14.532         	3.754
MS.171         	14.505         	3.714
MS.172         	14.475         	3.599
MS.173         	14.445         	3.558
MS.174         	14.417         	3.502
MS.175         	14.387         	3.596
MS.176         	14.36          	3.503
MS.177         	14.33          	3.525
MS.178         	14.302         	3.408
MS.179         	14.273         	3.489
MS.180         	14.245         	3.467
MS.181         	14.217         	3.334
MS.182         	14.188         	3.515
MS.183         	14.16          	3.425
MS.184         	14.132         	3.324
MS.185         	14.102         	3.358
MS.186         	14.075         	3.343
MS.187         	14.047         	3.331
MS.188         	14.02          	3.196
MS.189         	13.99          	3.081
MS.190         	13.962         	3.282
MS.191         	13.935         	3.195
MS.192         	13.907         	3.26
MS.193         	13.88          	3.264
MS.194         	13.852         	3.129
MS.195         	13.825         	3.029
MS.196         	13.797         	3.027
MS.197         	13.77          	3.071
MS.198         	13.742         	3.068
MS.199         	13.715         	2.982
MS.200         	13.688         	3.024
MS.201         	13.66          	2.891
MS.202         	13.632         	2.919
MS.203         	13.605         	2.988
MS.204         	13.577         	2.891
MS.205         	13.55          	2.994
MS.206         	13.523         	2.834
MS.207         	13.497         	2.844
MS.208         	13.47          	2.825
MS.209         	13.443         	2.766
MS.210         	13.415         	2.832
MS.211         	13.387         	2.726
MS.212         	13.362         	2.643
MS.213         	13.335         	2.598
MS.214         	13.307         	2.727
MS.215         	13.282         	2.588
MS.216         	13.255         	2.545
MS.217         	13.23          	2.579
MS.218         	13.202         	2.643
MS.219         	13.175         	2.495
MS.220         	13.15          	2.516
MS.221         	13.122         	2.498
MS.222         	13.097         	2.527
MS.223         	13.07          	2.573
MS.224         	13.045         	2.388
MS.225         	13.02          	2.49
MS.226         	12.992         	2.512
MS.227         	12.967         	2.524
MS.228         	12.94          	2.397
MS.229         	12.915         	2.238
MS.230         	12.89          	2.167
MS.231         	12.865         	2.319
MS.232         	12.837         	2.183
MS.233         	12.812         	2.131
MS.234         	12.787         	2.032
MS.235         	12.762         	2.11
MS.236         	12.735         	2.077
MS.237         	12.71          	1.947
MS.238         	12.685         	1.912
MS.239         	12.66          	1.77
MS.240         	12.635         	1.973
MS.241         	12.61          	1.812
MS.242         	12.585         	1.934
MS.243         	12.557         	1.835
MS.244         	12.532         	1.75
MS.245         	12.507         	1.678
MS.246         	12.483         	1.776
MS.247         	12.457         	1.837
MS.248         	12.432         	1.656
MS.249         	12.41          	1.589
MS.250         	12.385         	1.611
MS.251         	12.36          	1.534
MS.252         	12.335         	1.579
MS.253         	12.31          	1.455
MS.254         	12.285         	1.535
MS.255         	12.26          	1.459
MS.256         	12.238         	1.357
MS.257         	12.212         	1.341
MS.258         	12.188         	1.343
MS.259         	12.162         	1.174
MS.260         	12.14          	1.212
MS.261         	12.115         	1.349
MS.262         	12.09          	1.177
MS.263         	12.068         	1.209
MS.264         	12.042         	1.176
MS.265         	12.017         	1.163
MS.266         	11.995         	1.172
MS.267         	11.97          	1.103
MS.268         	11.945         	1.108
MS.269         	11.922         	1.165
MS.270         	11.898         	1.105
MS.271         	11.875         	1.115
MS.272         	11.85          	1.044
MS.273         	11.827         	1.017
MS.274         	11.802         	1.062
MS.275         	11.78          	1.024
MS.276         	11.757         	0.955
MS.277         	11.733         	0.911
MS.278         	11.71          	0.912
MS.279         	11.688         	0.874
MS.280         	11.662         	0.861
MS.281         	11.64          	0.929
MS.282         	11.617         	0.842
MS.283         	11.592         	0.847
MS.284         	11.57          	0.764
MS.285         	11.547         	0.808
MS.286         	11.525         	0.85
MS.287         	11.5           	0.818
MS.288         	11.477         	0.723
MS.289         	11.455         	0.823
MS.290         	11.432         	0.817
MS.291         	11.41          	0.718
MS.292         	11.387         	0.786
MS.293         	11.363         	0.766
MS.294         	11.34          	0.689
MS.295         	11.318         	0.726
MS.296         	11.295         	0.681
MS.297         	11.273         	0.737
MS.298         	11.25          	0.641
MS.299         	11.227         	0.702
MS.300         	11.205         	0.679
MS.301         	11.182         	0.687
MS.302         	11.16          	0.715
MS.303         	11.137         	0.642
MS.304         	11.117         	0.631
MS.305         	11.095         	0.651
MS.306         	11.073         	0.591
MS.307         	11.05          	0.605
MS.308         	11.028         	0.56
MS.309         	11.005         	0.54
MS.310         	10.983         	0.58
MS.311         	10.962         	0.499
MS.312         	10.94          	0.517
MS.313         	10.917         	0.48
MS.314         	10.895         	0.515
MS.315         	10.875         	0.503
MS.316         	10.852         	0.516
MS.317         	10.83          	0.505
MS.318         	10.81          	0.418
MS.319         	10.787         	0.517
MS.320         	10.765         	0.424
MS.321         	10.745         	0.409
MS.322         	10.722         	0.401
MS.323         	10.702         	0.444
MS.324         	10.68          	0.392
MS.325         	10.66          	0.389
MS.326         	10.637         	0.389
MS.327         	10.617         	0.337
MS.328         	10.595         	0.434
MS.329         	10.575         	0.309
MS.330         	10.552         	0.368
MS.331         	10.532         	0.425
MS.332         	10.51          	0.317
MS.333         	10.49          	0.331
MS.334         	10.47          	0.341
MS.335         	10.448         	0.326
MS.336         	10.427         	0.353
MS.337         	10.407         	0.317
MS.338         	10.385         	0.389
MS.339         	10.365         	0.312
MS.340         	10.345         	0.328
MS.341         	10.323         	0.345
MS.342         	10.302         	0.281
MS.343         	10.282         	0.304
MS.344         	10.262         	0.286
MS.345         	10.24          	0.291
MS.346         	10.22          	0.285
MS.347         	10.2           	0.284
MS.348         	10.18          	0.291
MS.349         	10.16          	0.266
MS.350         	10.14          	0.241
MS.351         	10.12          	0.316
MS.352         	10.1           	0.247
MS.353         	10.077         	0.222
MS.354         	10.057         	0.206
MS.355         	10.037         	0.228
MS.356         	10.017         	0.27
MS.357         	9.997          	0.24
MS.358         	9.977          	0.231
MS.359         	9.957          	0.245
MS.360         	9.938          	0.218
MS.361         	9.917          	0.172
MS.362         	9.9            	0.236
MS.363         	9.88           	0.277
MS.364         	9.86           	0.199
MS.365         	9.84           	0.253
MS.366         	9.82           	0.223
MS.367         	9.8            	0.16
MS.368         	9.78           	0.167
MS.369         	9.76           	0.178
MS.370         	9.742          	0.17
MS.371         	9.722          	0.191
MS.372         	9.702          	0.195
MS.373         	9.682          	0.181
MS.374         	9.665          	0.151
MS.375         	9.645          	0.194
MS.376         	9.625          	0.165
MS.377         	9.608          	0.198
MS.378         	9.587          	0.165
MS.379         	9.568          	0.104
MS.380         	9.55           	0.175
MS.381         	9.53           	0.167
MS.382         	9.51           	0.204
MS.383         	9.492          	0.123
MS.384         	9.472          	0.164
MS.385         	9.455          	0.157
MS.386         	9.435          	0.142
MS.387         	9.415          	0.165
MS.388         	9.398          	0.059
MS.389         	9.377          	0.112
MS.390         	9.36           	0.146
MS.391         	9.34           	0.101
MS.392         	9.323          	0.092
MS.393         	9.302          	0.112
MS.394         	9.285          	0.135
MS.395         	9.267          	0.082
MS.396         	9.247          	0.079
MS.397         	9.23           	0.092
MS.398         	9.21           	0.125
MS.399         	9.193          	0.081
MS.400         	9.175          	0.11
MS.401         	9.155          	0.046
MS.402         	9.137          	0.125
MS.403         	9.12           	0.095
MS.404         	9.102          	0.082
MS.405         	9.082          	0.107
MS.406         	9.065          	0.06
MS.407         	9.047          	0.056
MS.408         	9.03           	0.056
MS.409         	9.01           	0.056
MS.410         	8.992          	0.039
MS.411         	8.975          	0.077
MS.412         	8.957          	0.051
MS.413         	8.94           	0.037
MS.414         	8.92           	0.049
MS.415         	8.903          	0.065
MS.416         	8.885          	0.06
MS.417         	8.867          	0.067
MS.418         	8.85           	0.032
MS.419         	8.832          	0.034
MS.420         	8.815          	0.035
MS.421         	8.797          	0.063
MS.422         	8.78           	0.029
MS.423         	8.762          	0.034
MS.424         	8.745          	0.027
MS.425         	8.727          	0.031
MS.426         	8.71           	0.038
MS.427         	8.693          	0.037
MS.428         	8.675          	0.047
MS.429         	8.658          	0.04
MS.430         	8.64           	0.067
MS.431         	8.622          	0.032
MS.432         	8.605          	0.048
MS.433         	8.587          	0.051
MS.434         	8.573          	0.034
MS.435         	8.555          	0.049
MS.436         	8.537          	0.034
MS.437         	8.52           	0.049
MS.438         	8.502          	0.051
MS.439         	8.485          	0.036
MS.440         	8.47           	0.037
MS.441         	8.452          	0.041
MS.442         	8.435          	0.042
MS.443         	8.417          	0.043
MS.444         	8.403          	0.038
MS.445         	8.385          	0.036
MS.446         	8.367          	0.04
MS.447         	8.352          	0.038
MS.448         	8.335          	0.037
MS.449         	8.318          	0.052
MS.450         	8.302          	0.037
MS.451         	8.285          	0.042
MS.452         	8.267          	0.047
MS.453         	8.252          	0.045
MS.454         	8.235          	0.049
MS.455         	8.217          	0.05
MS.456         	8.202          	0.034
MS.457         	8.185          	0.042
MS.458         	8.17           	0.049
MS.459         	8.153          	0.049
MS.460         	8.137          	0.042
MS.461         	8.12           	0.05
MS.462         	8.105          	0.049
MS.463         	8.087          	0.047
MS.464         	8.073          	0.054
MS.465         	8.055          	0.047
MS.466         	8.04           	0.05
MS.467         	8.025          	0.055
MS.468         	8.007          	0.047
MS.469         	7.992          	0.037
MS.470         	7.975          	0.051
MS.471         	7.96           	0.047
MS.472         	7.945          	0.048
MS.473         	7.927          	0.046
MS.474         	7.912          	0.048
MS.475         	7.898          	0.044
MS.476         	7.88           	0.051
MS.477         	7.865          	0.034
MS.478         	7.85           	0.046
MS.479         	7.832          	0.046
MS.480         	7.817          	0.035
MS.481         	7.802          	0.046
MS.482         	7.787          	0.048
MS.483         	7.77           	0.039
MS.484         	7.755          	0.048
MS.485         	7.74           	0.046
MS.486         	7.725          	0.049
MS.487         	7.71           	0.043
MS.488         	7.695          	0.037
MS.489         	7.677          	0.046
MS.490         	7.662          	0.048
MS.491         	7.648          	0.034
MS.492         	7.632          	0.047
MS.493         	7.617          	0.054
MS.494         	7.602          	0.046
MS.495         	7.587          	0.049
MS.496         	7.572          	0.036
MS.497         	7.557          	0.047
MS.498         	7.543          	0.038
MS.499         	7.527          	0.034
MS.500         	7.512          	0.049
MS.501         	7.497          	0.037
MS.502         	7.482          	0.035
MS.503         	7.467          	0.037
