File:              	C:\Qtrac\Data\ME2C30705A.QZD
Name:              	 ME14L
Protocol:          	MSCAN-MV
Date:              	5/7/23
Date of birth:     	14/6/01
Age:               	22
Sex:               	M
Temperature:       	33.2
S/R sites:         	Knee CF-TA
NC/disease:        	NC
Operator:          	BY
Comments:
M-SCAN DATA (Repeat 2/3, 17.1-11.7m)
Scanpts: 1, 7, 421, 434
Stim. (mA)     	Amp. (mV)
MS.1           	18.5           	5
MS.2           	18.5           	5.051
MS.3           	18.5           	5.046
MS.4           	18.5           	5.046
MS.5           	18.5           	5.047
MS.6           	18.5           	5.042
MS.7           	18.5           	5.058
MS.8           	18.5           	5.005
MS.9           	18.5           	5.065
MS.10          	18.5           	5.043
MS.11          	18.5           	4.98
MS.12          	18.5           	5.013
MS.13          	18.5           	5.029
MS.14          	18.5           	5.062
MS.15          	18.5           	5.084
MS.16          	18.5           	5.062
MS.17          	18.5           	5.102
MS.18          	18.5           	5.066
MS.19          	18.5           	5.046
MS.20          	18.5           	5.021
MS.21          	18.5           	5.004
MS.22          	18.5           	4.982
MS.23          	18.5           	5.071
MS.24          	18.462         	5.012
MS.25          	18.425         	5.007
MS.26          	18.39          	5.023
MS.27          	18.352         	5.023
MS.28          	18.315         	4.986
MS.29          	18.28          	5.037
MS.30          	18.243         	5.015
MS.31          	18.208         	5.031
MS.32          	18.17          	4.991
MS.33          	18.132         	5.035
MS.34          	18.097         	4.932
MS.35          	18.062         	5.042
MS.36          	18.025         	5.029
MS.37          	17.99          	4.93
MS.38          	17.952         	4.924
MS.39          	17.917         	4.893
MS.40          	17.882         	4.868
MS.41          	17.845         	4.861
MS.42          	17.81          	4.869
MS.43          	17.775         	4.907
MS.44          	17.74          	4.752
MS.45          	17.702         	4.805
MS.46          	17.667         	4.798
MS.47          	17.632         	4.844
MS.48          	17.597         	4.805
MS.49          	17.562         	4.753
MS.50          	17.528         	4.824
MS.51          	17.493         	4.656
MS.52          	17.458         	4.739
MS.53          	17.422         	4.809
MS.54          	17.387         	4.835
MS.55          	17.352         	4.698
MS.56          	17.317         	4.745
MS.57          	17.285         	4.749
MS.58          	17.25          	4.636
MS.59          	17.215         	4.663
MS.60          	17.18          	4.602
MS.61          	17.145         	4.715
MS.62          	17.112         	4.597
MS.63          	17.077         	4.608
MS.64          	17.042         	4.609
MS.65          	17.01          	4.542
MS.66          	16.975         	4.446
MS.67          	16.942         	4.459
MS.68          	16.907         	4.571
MS.69          	16.875         	4.573
MS.70          	16.84          	4.46
MS.71          	16.807         	4.485
MS.72          	16.772         	4.464
MS.73          	16.74          	4.47
MS.74          	16.705         	4.342
MS.75          	16.672         	4.425
MS.76          	16.64          	4.333
MS.77          	16.605         	4.43
MS.78          	16.573         	4.356
MS.79          	16.54          	4.365
MS.80          	16.507         	4.409
MS.81          	16.475         	4.26
MS.82          	16.44          	4.359
MS.83          	16.407         	4.287
MS.84          	16.375         	4.31
MS.85          	16.342         	4.227
MS.86          	16.31          	4.145
MS.87          	16.278         	4.21
MS.88          	16.245         	4.628
MS.89          	16.212         	4.179
MS.90          	16.18          	4.155
MS.91          	16.147         	4.067
MS.92          	16.115         	4.062
MS.93          	16.083         	3.975
MS.94          	16.05          	3.996
MS.95          	16.02          	4.083
MS.96          	15.987         	3.994
MS.97          	15.955         	3.903
MS.98          	15.922         	3.964
MS.99          	15.892         	3.951
MS.100         	15.86          	3.942
MS.101         	15.827         	3.89
MS.102         	15.795         	3.899
MS.103         	15.765         	3.893
MS.104         	15.733         	3.947
MS.105         	15.702         	3.845
MS.106         	15.67          	3.791
MS.107         	15.64          	3.754
MS.108         	15.608         	3.506
MS.109         	15.577         	3.701
MS.110         	15.545         	3.703
MS.111         	15.515         	3.855
MS.112         	15.483         	3.71
MS.113         	15.452         	3.715
MS.114         	15.422         	3.461
MS.115         	15.39          	3.508
MS.116         	15.36          	3.638
MS.117         	15.33          	3.481
MS.118         	15.297         	3.388
MS.119         	15.267         	3.373
MS.120         	15.237         	3.694
MS.121         	15.207         	3.387
MS.122         	15.177         	3.409
MS.123         	15.148         	3.625
MS.124         	15.117         	3.56
MS.125         	15.085         	3.375
MS.126         	15.055         	3.263
MS.127         	15.025         	3.279
MS.128         	14.995         	3.329
MS.129         	14.965         	3.225
MS.130         	14.935         	3.307
MS.131         	14.905         	3.265
MS.132         	14.877         	3.248
MS.133         	14.847         	3.26
MS.134         	14.818         	3.27
MS.135         	14.787         	3.188
MS.136         	14.757         	3.173
MS.137         	14.727         	3.234
MS.138         	14.7           	3.153
MS.139         	14.67          	2.921
MS.140         	14.64          	3.185
MS.141         	14.61          	3.089
MS.142         	14.582         	3.06
MS.143         	14.552         	3.156
MS.144         	14.523         	3.053
MS.145         	14.495         	2.925
MS.146         	14.465         	3.062
MS.147         	14.438         	3.062
MS.148         	14.407         	2.926
MS.149         	14.38          	2.978
MS.150         	14.35          	2.716
MS.151         	14.322         	2.932
MS.152         	14.292         	2.936
MS.153         	14.265         	2.856
MS.154         	14.235         	2.872
MS.155         	14.207         	2.848
MS.156         	14.18          	2.697
MS.157         	14.15          	2.802
MS.158         	14.122         	2.733
MS.159         	14.095         	2.703
MS.160         	14.065         	2.657
MS.161         	14.037         	2.502
MS.162         	14.01          	2.519
MS.163         	13.983         	2.485
MS.164         	13.955         	2.464
MS.165         	13.925         	2.484
MS.166         	13.898         	2.524
MS.167         	13.87          	2.592
MS.168         	13.842         	2.386
MS.169         	13.815         	2.328
MS.170         	13.787         	2.533
MS.171         	13.76          	2.413
MS.172         	13.733         	2.307
MS.173         	13.705         	2.278
MS.174         	13.677         	2.334
MS.175         	13.65          	2.136
MS.176         	13.622         	2.336
MS.177         	13.595         	2.335
MS.178         	13.57          	2.365
MS.179         	13.542         	2.153
MS.180         	13.515         	2.141
MS.181         	13.487         	2.009
MS.182         	13.46          	2.056
MS.183         	13.435         	1.978
MS.184         	13.407         	2.029
MS.185         	13.38          	2.184
MS.186         	13.352         	2.021
MS.187         	13.327         	1.926
MS.188         	13.3           	2.044
MS.189         	13.273         	1.946
MS.190         	13.247         	1.977
MS.191         	13.22          	1.936
MS.192         	13.195         	1.818
MS.193         	13.167         	1.655
MS.194         	13.142         	1.774
MS.195         	13.115         	1.783
MS.196         	13.09          	1.807
MS.197         	13.062         	1.844
MS.198         	13.037         	1.802
MS.199         	13.01          	1.721
MS.200         	12.985         	1.622
MS.201         	12.957         	1.622
MS.202         	12.932         	1.537
MS.203         	12.907         	1.542
MS.204         	12.88          	1.566
MS.205         	12.855         	1.556
MS.206         	12.83          	1.444
MS.207         	12.805         	1.384
MS.208         	12.778         	1.502
MS.209         	12.752         	1.303
MS.210         	12.727         	1.535
MS.211         	12.702         	1.154
MS.212         	12.677         	1.218
MS.213         	12.653         	1.387
MS.214         	12.625         	1.276
MS.215         	12.6           	1.321
MS.216         	12.575         	1.13
MS.217         	12.55          	1.219
MS.218         	12.525         	1.241
MS.219         	12.5           	1.381
MS.220         	12.475         	1.194
MS.221         	12.45          	1.158
MS.222         	12.425         	1.032
MS.223         	12.4           	0.781
MS.224         	12.375         	1.134
MS.225         	12.352         	1.144
MS.226         	12.327         	1.117
MS.227         	12.302         	1.084
MS.228         	12.278         	1.102
MS.229         	12.252         	0.965
MS.230         	12.227         	1.063
MS.231         	12.205         	0.829
MS.232         	12.18          	0.94
MS.233         	12.155         	0.947
MS.234         	12.13          	0.986
MS.235         	12.108         	0.939
MS.236         	12.082         	0.933
MS.237         	12.057         	0.659
MS.238         	12.035         	0.578
MS.239         	12.01          	0.819
MS.240         	11.988         	0.511
MS.241         	11.962         	0.441
MS.242         	11.938         	0.449
MS.243         	11.915         	0.664
MS.244         	11.89          	0.642
MS.245         	11.867         	0.335
MS.246         	11.842         	0.302
MS.247         	11.82          	0.598
MS.248         	11.795         	0.354
MS.249         	11.773         	0.213
MS.250         	11.75          	0.241
MS.251         	11.725         	0.21
MS.252         	11.702         	0.259
MS.253         	11.677         	0.228
MS.254         	11.655         	0.272
MS.255         	11.632         	0.345
MS.256         	11.61          	0.239
MS.257         	11.585         	0.201
MS.258         	11.562         	0.148
MS.259         	11.54          	0.32
MS.260         	11.517         	0.145
MS.261         	11.492         	0.238
MS.262         	11.47          	0.173
MS.263         	11.447         	0.082
MS.264         	11.425         	0.109
MS.265         	11.403         	0.076
MS.266         	11.38          	-0.024
MS.267         	11.358         	-0.018
MS.268         	11.332         	0.055
MS.269         	11.31          	-0.036
MS.270         	11.287         	-0.061
MS.271         	11.265         	-0.166
MS.272         	11.242         	-0.203
MS.273         	11.22          	-0.172
MS.274         	11.197         	-0.193
MS.275         	11.175         	-0.15
MS.276         	11.153         	-0.256
MS.277         	11.132         	-0.267
MS.278         	11.11          	-0.28
MS.279         	11.087         	-0.333
MS.280         	11.065         	-0.325
MS.281         	11.042         	-0.367
MS.282         	11.02          	-0.502
MS.283         	10.997         	-0.493
MS.284         	10.977         	-0.317
MS.285         	10.955         	-0.445
MS.286         	10.932         	-0.472
MS.287         	10.91          	-0.487
MS.288         	10.89          	-0.5
MS.289         	10.867         	-0.476
MS.290         	10.845         	-0.468
MS.291         	10.825         	-0.6
MS.292         	10.802         	-0.54
MS.293         	10.78          	-0.512
MS.294         	10.76          	-0.499
MS.295         	10.738         	-0.597
MS.296         	10.717         	-0.453
MS.297         	10.695         	-0.627
MS.298         	10.672         	-0.587
MS.299         	10.653         	-0.596
MS.300         	10.63          	-0.583
MS.301         	10.61          	-0.65
MS.302         	10.587         	-0.517
MS.303         	10.568         	-0.553
MS.304         	10.547         	-0.571
MS.305         	10.525         	-0.61
MS.306         	10.505         	-0.595
MS.307         	10.483         	-0.64
MS.308         	10.462         	-0.628
MS.309         	10.443         	-0.687
MS.310         	10.42          	-0.665
MS.311         	10.4           	-0.734
MS.312         	10.38          	-0.703
MS.313         	10.358         	-0.757
MS.314         	10.337         	-0.757
MS.315         	10.318         	-0.721
MS.316         	10.295         	-0.773
MS.317         	10.275         	-0.779
MS.318         	10.255         	-0.665
MS.319         	10.235         	-0.67
MS.320         	10.215         	-0.733
MS.321         	10.193         	-0.807
MS.322         	10.172         	-0.731
MS.323         	10.153         	-0.884
MS.324         	10.132         	-0.818
MS.325         	10.113         	-0.819
MS.326         	10.092         	-0.906
MS.327         	10.073         	-0.862
MS.328         	10.052         	-0.835
MS.329         	10.032         	-0.861
MS.330         	10.012         	-0.881
MS.331         	9.992          	-0.839
MS.332         	9.972          	-0.757
MS.333         	9.952          	-0.962
MS.334         	9.932          	-0.881
MS.335         	9.912          	-0.884
MS.336         	9.892          	-0.831
MS.337         	9.872          	-1.004
MS.338         	9.852          	-0.97
MS.339         	9.832          	-0.961
MS.340         	9.812          	-0.953
MS.341         	9.795          	-0.949
MS.342         	9.775          	-0.944
MS.343         	9.755          	-0.965
MS.344         	9.735          	-0.969
MS.345         	9.715          	-0.912
MS.346         	9.698          	-0.908
MS.347         	9.677          	-0.964
MS.348         	9.657          	-1.007
MS.349         	9.637          	-0.94
MS.350         	9.62           	-0.967
MS.351         	9.6            	-0.971
MS.352         	9.58           	-0.952
MS.353         	9.562          	-0.952
MS.354         	9.542          	-0.876
MS.355         	9.523          	-0.984
MS.356         	9.505          	-0.966
MS.357         	9.485          	-0.997
MS.358         	9.467          	-0.984
MS.359         	9.448          	-0.964
MS.360         	9.43           	-0.984
MS.361         	9.41           	-0.961
MS.362         	9.39           	-0.945
MS.363         	9.372          	-0.98
MS.364         	9.352          	-0.959
MS.365         	9.335          	-0.922
MS.366         	9.318          	-0.972
MS.367         	9.297          	-0.981
MS.368         	9.28           	-0.978
MS.369         	9.26           	-0.931
MS.370         	9.242          	-0.947
MS.371         	9.222          	-0.947
MS.372         	9.205          	-0.994
MS.373         	9.188          	-0.98
MS.374         	9.167          	-0.988
MS.375         	9.15           	-0.977
MS.376         	9.132          	-0.986
MS.377         	9.113          	-1.006
MS.378         	9.095          	-0.965
MS.379         	9.077          	-0.973
MS.380         	9.06           	-0.983
MS.381         	9.04           	-0.878
MS.382         	9.023          	-0.958
MS.383         	9.005          	-0.956
MS.384         	8.988          	-0.952
MS.385         	8.97           	-0.959
MS.386         	8.95           	-0.96
MS.387         	8.932          	-0.891
MS.388         	8.915          	-0.977
MS.389         	8.898          	-0.962
MS.390         	8.88           	-1.008
MS.391         	8.863          	-0.95
MS.392         	8.845          	-0.936
MS.393         	8.827          	-0.931
MS.394         	8.81           	-0.936
MS.395         	8.792          	-0.93
MS.396         	8.775          	-0.934
MS.397         	8.757          	-0.994
MS.398         	8.74           	-0.96
MS.399         	8.722          	-0.959
MS.400         	8.705          	-0.908
MS.401         	8.688          	-0.942
MS.402         	8.67           	-0.982
MS.403         	8.653          	-0.963
MS.404         	8.635          	-0.926
MS.405         	8.617          	-0.934
MS.406         	8.6            	-0.944
MS.407         	8.582          	-0.911
MS.408         	8.565          	-0.939
MS.409         	8.547          	-0.957
MS.410         	8.533          	-0.932
MS.411         	8.515          	-0.934
MS.412         	8.497          	-0.949
MS.413         	8.48           	-0.918
MS.414         	8.462          	-0.931
MS.415         	8.448          	-0.929
MS.416         	8.43           	-0.943
MS.417         	8.412          	-0.931
MS.418         	8.395          	-0.947
MS.419         	8.38           	-0.912
MS.420         	8.363          	-0.942
MS.421         	8.345          	-0.94
MS.422         	8.33           	-0.93
MS.423         	8.312          	-0.921
MS.424         	8.295          	-0.925
MS.425         	8.28           	-0.938
MS.426         	8.262          	-1
MS.427         	8.247          	-0.941
MS.428         	8.23           	-0.931
MS.429         	8.212          	-0.956
MS.430         	8.198          	-0.955
MS.431         	8.18           	-0.922
MS.432         	8.165          	-0.94
MS.433         	8.148          	-0.937
MS.434         	8.132          	-0.941
MS.435         	8.115          	-0.92
MS.436         	8.1            	-0.953
MS.437         	8.082          	-0.964
MS.438         	8.068          	-0.948
MS.439         	8.05           	-0.951
MS.440         	8.035          	-0.939
MS.441         	8.017          	-0.936
MS.442         	8.002          	-0.935
MS.443         	7.987          	-0.917
MS.444         	7.97           	-0.936
MS.445         	7.955          	-0.936
MS.446         	7.94           	-0.944
DERIVED EXCITABILITY VARIABLES
Program = QTracP 27/06/2023
Threshold method = 6 (optimised for CAP, using data for present condition only)
SR method = 1 (using actual data values)
6.                 	0.000               	Peak response\(mV)
9.                 	33.2                	Temperature ( C)
17.                	22                  	Age (years)
18.                	1                   	Sex (M=1, F=2)

EXTRA VARIABLES

MScPeak(mV) = 5.98
MScS5(mA) = 11.63
MScS50(mA) = 14.55
MScNSteps = 0
MScSteps(%) = 0.0
MScStepMax(%) = 0.0
MScD50 = 54
MScSlope = 3.75
MScDuration(min) = 5.9
MSFTraces = 434
MSFPeakAmp(mV) = 5.98
MSFNUnits = 94
MSFMeanUnitAmp(uV) = 63.6
MSFHuntTime(m) = 1.17
MSFError(%) = 3.27
MSFNLarge = 24.46
MSFMedianAmp(%) = 0.807
MSFMedianAmp(mV) = 0.0483
MSFHalfAmpAmp(%) = 1.38
MSFHalfAmpAmp(mV) = 0.0823
MSFLargestAmp(%) = 3.48
MSFLargestAmp(mV) = 0.208
MSFMeanRS(%) = 2
MSFSizeLimit(uV) = 19.9
MSFLimitType = 1
MSFSmallestAmp(uV) = 20.3
MSFOpts = 10104222032
MSFSDMax = 19
MSFSDMin = 19

EXTRA WAVEFORMS


!MScan Model
!94
	1	10.04	1.44	2
	2	10.14	0.76	2
	3	10.31	1.18	2
	4	10.36	0.42	2
	5	10.42	0.45	2
	6	10.45	0.39	2
	7	10.55	1.06	2
	8	10.87	1.69	2
	9	10.94	0.65	2
	10	10.99	0.65	2
	11	11.03	0.66	2
	12	11.08	0.67	2
	13	11.1	0.37	2
	14	11.12	0.41	2
	15	11.14	0.4	2
	16	11.15	0.38	2
	17	11.17	0.41	2
	18	11.19	0.41	2
	19	11.2	0.38	2
	20	11.22	0.34	2
	21	11.25	0.68	2
	22	11.29	0.58	2
	23	11.31	0.6	2
	24	11.35	0.77	2
	25	11.39	0.8	2
	26	11.43	1.32	2
	27	11.55	1.18	2
	28	11.68	1.28	2
	29	11.75	1	2
	30	11.82	1.02	2
	31	11.93	2.46	2
	32	11.97	0.7	2
	33	12	1.51	2
	34	12.04	1.23	2
	35	12.08	2.73	2
	36	12.39	2.21	2.08
	37	12.39	2.31	2.08
	38	12.59	1.63	2
	39	12.71	1.53	2
	40	12.79	1.48	2
	41	12.83	0.61	2
	42	12.85	0.61	2
	43	12.88	0.63	2
	44	12.9	0.58	2
	45	13	1.64	2
	46	13.12	2.1	2
	47	13.22	1.64	2
	48	13.31	1.19	2
	49	13.41	1.66	2
	50	13.5	1.44	2
	51	13.59	1.01	2
	52	13.78	3.22	2
	53	13.89	1.1	2
	54	13.94	0.81	2
	55	13.98	0.8	2
