File:              	C:\Qtrac\Data\ME2C30710C.QZD
Name:              	 ST26P
Protocol:          	MSCAN-MV
Date:              	10/7/23
Date of birth:     	26/5/03
Age:               	20
Sex:               	M
Temperature:       	33.2
S/R sites:         	Knee CF-TA
NC/disease:        	NC
Operator:          	BY
Comments:
M-SCAN DATA (Repeat 1/3, 12.5-5m)
Scanpts: 8, 26, 581, 610
Stim. (mA)     	Amp. (mV)
MS.1           	18             	7.925
MS.2           	18             	7.936
MS.3           	18             	7.94
MS.4           	18             	7.933
MS.5           	18             	7.924
MS.6           	18             	7.884
MS.7           	18             	7.923
MS.8           	18             	7.92
MS.9           	18             	7.911
MS.10          	18             	7.903
MS.11          	18             	7.92
MS.12          	18             	7.923
MS.13          	18             	7.908
MS.14          	18             	7.922
MS.15          	18             	7.892
MS.16          	18             	7.916
MS.17          	18             	7.913
MS.18          	18             	7.913
MS.19          	18             	7.918
MS.20          	18             	7.902
MS.21          	18             	7.913
MS.22          	18             	7.881
MS.23          	18             	7.921
MS.24          	17.927         	7.911
MS.25          	17.892         	7.922
MS.26          	17.858         	7.903
MS.27          	17.82          	7.916
MS.28          	17.785         	7.898
MS.29          	17.75          	7.883
MS.30          	17.715         	7.878
MS.31          	17.68          	7.922
MS.32          	17.642         	7.874
MS.33          	17.608         	7.903
MS.34          	17.573         	7.873
MS.35          	17.538         	7.88
MS.36          	17.503         	7.879
MS.37          	17.467         	7.885
MS.38          	17.432         	7.87
MS.39          	17.397         	7.912
MS.40          	17.362         	7.846
MS.41          	17.33          	7.851
MS.42          	17.295         	7.851
MS.43          	17.26          	7.88
MS.44          	17.225         	7.844
MS.45          	17.19          	7.879
MS.46          	17.157         	7.896
MS.47          	17.122         	7.836
MS.48          	17.087         	7.863
MS.49          	17.052         	7.885
MS.50          	17.02          	7.881
MS.51          	16.985         	7.878
MS.52          	16.952         	7.836
MS.53          	16.917         	7.842
MS.54          	16.885         	7.834
MS.55          	16.85          	7.834
MS.56          	16.817         	7.86
MS.57          	16.782         	7.861
MS.58          	16.75          	7.824
MS.59          	16.715         	7.852
MS.60          	16.682         	7.819
MS.61          	16.65          	7.842
MS.62          	16.615         	7.828
MS.63          	16.583         	7.859
MS.64          	16.55          	7.808
MS.65          	16.517         	7.853
MS.66          	16.483         	7.829
MS.67          	16.45          	7.841
MS.68          	16.417         	7.817
MS.69          	16.385         	7.83
MS.70          	16.352         	7.838
MS.71          	16.32          	7.849
MS.72          	16.288         	7.831
MS.73          	16.255         	7.846
MS.74          	16.222         	7.839
MS.75          	16.19          	7.885
MS.76          	16.157         	7.833
MS.77          	16.125         	7.878
MS.78          	16.092         	7.847
MS.79          	16.06          	7.838
MS.80          	16.028         	7.828
MS.81          	15.997         	7.823
MS.82          	15.965         	7.839
MS.83          	15.932         	7.823
MS.84          	15.9           	7.842
MS.85          	15.87          	7.873
MS.86          	15.837         	7.853
MS.87          	15.805         	7.848
MS.88          	15.775         	7.859
MS.89          	15.742         	7.841
MS.90          	15.71          	7.869
MS.91          	15.68          	7.832
MS.92          	15.648         	7.836
MS.93          	15.617         	7.797
MS.94          	15.585         	7.794
MS.95          	15.555         	7.859
MS.96          	15.523         	7.874
MS.97          	15.492         	7.834
MS.98          	15.462         	7.848
MS.99          	15.43          	7.856
MS.100         	15.4           	7.795
MS.101         	15.37          	7.878
MS.102         	15.337         	7.856
MS.103         	15.307         	7.864
MS.104         	15.277         	7.836
MS.105         	15.247         	7.82
MS.106         	15.217         	7.809
MS.107         	15.185         	7.816
MS.108         	15.155         	7.831
MS.109         	15.125         	7.792
MS.110         	15.095         	7.858
MS.111         	15.065         	7.795
MS.112         	15.035         	7.798
MS.113         	15.005         	7.753
MS.114         	14.975         	7.721
MS.115         	14.945         	7.827
MS.116         	14.915         	7.809
MS.117         	14.885         	7.745
MS.118         	14.855         	7.743
MS.119         	14.825         	7.727
MS.120         	14.795         	7.687
MS.121         	14.767         	7.756
MS.122         	14.737         	7.738
MS.123         	14.707         	7.767
MS.124         	14.677         	7.714
MS.125         	14.65          	7.75
MS.126         	14.62          	7.401
MS.127         	14.59          	7.563
MS.128         	14.562         	7.563
MS.129         	14.532         	7.685
MS.130         	14.502         	7.589
MS.131         	14.475         	7.642
MS.132         	14.445         	7.554
MS.133         	14.417         	7.541
MS.134         	14.387         	7.57
MS.135         	14.36          	7.477
MS.136         	14.33          	7.478
MS.137         	14.302         	7.296
MS.138         	14.273         	7.316
MS.139         	14.245         	7.325
MS.140         	14.215         	7.241
MS.141         	14.188         	7.239
MS.142         	14.16          	7.841
MS.143         	14.13          	7.213
MS.144         	14.102         	7.198
MS.145         	14.075         	7.2
MS.146         	14.047         	7.137
MS.147         	14.017         	7.155
MS.148         	13.99          	7.206
MS.149         	13.962         	7.15
MS.150         	13.935         	7.149
MS.151         	13.907         	7.164
MS.152         	13.88          	7.169
MS.153         	13.85          	7.224
MS.154         	13.822         	7.176
MS.155         	13.795         	7.098
MS.156         	13.767         	7.195
MS.157         	13.74          	7.08
MS.158         	13.712         	7.132
MS.159         	13.685         	7.093
MS.160         	13.657         	7.04
MS.161         	13.632         	7.108
MS.162         	13.605         	7.02
MS.163         	13.577         	7.051
MS.164         	13.55          	7.058
MS.165         	13.523         	7.113
MS.166         	13.495         	7.035
MS.167         	13.467         	7.078
MS.168         	13.443         	7.036
MS.169         	13.415         	6.976
MS.170         	13.387         	6.934
MS.171         	13.362         	6.755
MS.172         	13.335         	6.942
MS.173         	13.307         	6.888
MS.174         	13.282         	6.92
MS.175         	13.255         	6.759
MS.176         	13.227         	6.874
MS.177         	13.202         	6.87
MS.178         	13.175         	6.828
MS.179         	13.15          	6.741
MS.180         	13.122         	6.797
MS.181         	13.097         	6.754
MS.182         	13.07          	6.805
MS.183         	13.045         	6.863
MS.184         	13.017         	6.791
MS.185         	12.992         	6.747
MS.186         	12.967         	6.651
MS.187         	12.94          	6.717
MS.188         	12.915         	6.716
MS.189         	12.89          	6.63
MS.190         	12.862         	6.617
MS.191         	12.837         	6.597
MS.192         	12.812         	6.624
MS.193         	12.785         	6.617
MS.194         	12.76          	6.69
MS.195         	12.735         	6.597
MS.196         	12.71          	6.617
MS.197         	12.685         	6.677
MS.198         	12.66          	6.502
MS.199         	12.632         	6.509
MS.200         	12.608         	6.453
MS.201         	12.582         	6.596
MS.202         	12.557         	6.552
MS.203         	12.532         	6.647
MS.204         	12.507         	6.443
MS.205         	12.483         	6.578
MS.206         	12.457         	6.633
MS.207         	12.432         	6.589
MS.208         	12.407         	6.509
MS.209         	12.382         	6.493
MS.210         	12.36          	6.422
MS.211         	12.335         	6.427
MS.212         	12.31          	6.426
MS.213         	12.285         	6.482
MS.214         	12.26          	6.498
MS.215         	12.235         	6.39
MS.216         	12.212         	6.556
MS.217         	12.188         	6.429
MS.218         	12.162         	6.387
MS.219         	12.137         	6.395
MS.220         	12.115         	6.577
MS.221         	12.09          	6.367
MS.222         	12.065         	6.303
MS.223         	12.042         	6.404
MS.224         	12.017         	6.347
MS.225         	11.992         	6.421
MS.226         	11.97          	6.329
MS.227         	11.945         	6.179
MS.228         	11.922         	6.332
MS.229         	11.898         	6.251
MS.230         	11.875         	6.342
MS.231         	11.85          	6.246
MS.232         	11.827         	6.238
MS.233         	11.802         	6.25
MS.234         	11.78          	6.206
MS.235         	11.755         	6.242
MS.236         	11.733         	6.187
MS.237         	11.71          	6.218
MS.238         	11.685         	6.262
MS.239         	11.662         	6.142
MS.240         	11.64          	6.241
MS.241         	11.615         	6.106
MS.242         	11.592         	6.033
MS.243         	11.57          	6.106
MS.244         	11.547         	6.273
MS.245         	11.523         	5.953
MS.246         	11.5           	6.01
MS.247         	11.477         	6.013
MS.248         	11.455         	5.988
MS.249         	11.432         	6.043
MS.250         	11.407         	5.946
MS.251         	11.385         	5.887
MS.252         	11.363         	6.014
MS.253         	11.34          	5.859
MS.254         	11.318         	5.952
MS.255         	11.295         	5.693
MS.256         	11.273         	5.77
MS.257         	11.25          	5.788
MS.258         	11.227         	5.757
MS.259         	11.205         	5.757
MS.260         	11.182         	5.812
MS.261         	11.16          	5.892
MS.262         	11.137         	5.734
MS.263         	11.115         	5.654
MS.264         	11.092         	5.72
MS.265         	11.073         	5.535
MS.266         	11.05          	5.494
MS.267         	11.028         	5.622
MS.268         	11.005         	5.501
MS.269         	10.983         	5.612
MS.270         	10.962         	5.408
MS.271         	10.94          	5.314
MS.272         	10.917         	5.347
MS.273         	10.895         	5.413
MS.274         	10.875         	5.282
MS.275         	10.852         	5.292
MS.276         	10.83          	5.303
MS.277         	10.81          	5.139
MS.278         	10.787         	5.221
MS.279         	10.765         	5.19
MS.280         	10.745         	5.173
MS.281         	10.722         	5.115
MS.282         	10.702         	4.949
MS.283         	10.68          	5.253
MS.284         	10.657         	4.919
MS.285         	10.637         	5.024
MS.286         	10.615         	5.032
MS.287         	10.595         	4.993
MS.288         	10.573         	4.813
MS.289         	10.552         	4.855
MS.290         	10.532         	4.597
MS.291         	10.51          	4.835
MS.292         	10.49          	4.827
MS.293         	10.467         	4.672
MS.294         	10.448         	4.705
MS.295         	10.427         	4.81
MS.296         	10.405         	4.566
MS.297         	10.385         	4.813
MS.298         	10.365         	4.587
MS.299         	10.342         	4.476
MS.300         	10.323         	4.549
MS.301         	10.302         	4.49
MS.302         	10.282         	4.526
MS.303         	10.26          	4.399
MS.304         	10.24          	4.374
MS.305         	10.22          	4.456
MS.306         	10.2           	4.429
MS.307         	10.18          	4.384
MS.308         	10.16          	4.318
MS.309         	10.14          	4.396
MS.310         	10.117         	4.232
MS.311         	10.097         	4.085
MS.312         	10.077         	4.019
MS.313         	10.057         	4.128
MS.314         	10.037         	3.975
MS.315         	10.017         	4.048
MS.316         	9.997          	3.965
MS.317         	9.977          	3.916
MS.318         	9.957          	4.006
MS.319         	9.938          	3.789
MS.320         	9.917          	3.742
MS.321         	9.898          	3.783
MS.322         	9.877          	3.809
MS.323         	9.86           	3.655
MS.324         	9.84           	3.832
MS.325         	9.82           	3.71
MS.326         	9.8            	3.728
MS.327         	9.78           	3.544
MS.328         	9.76           	3.563
MS.329         	9.74           	3.613
MS.330         	9.722          	3.589
MS.331         	9.702          	3.576
MS.332         	9.682          	3.473
MS.333         	9.662          	3.463
MS.334         	9.645          	3.535
MS.335         	9.625          	3.371
MS.336         	9.605          	3.4
MS.337         	9.587          	3.25
MS.338         	9.568          	3.305
MS.339         	9.547          	3.173
MS.340         	9.53           	3.297
MS.341         	9.51           	3.128
MS.342         	9.49           	3.087
MS.343         	9.472          	3.107
MS.344         	9.452          	2.833
MS.345         	9.435          	3.012
MS.346         	9.415          	2.997
MS.347         	9.398          	3.003
MS.348         	9.377          	2.982
MS.349         	9.36           	2.947
MS.350         	9.34           	2.861
MS.351         	9.323          	2.927
MS.352         	9.302          	2.947
MS.353         	9.285          	2.877
MS.354         	9.265          	2.82
MS.355         	9.247          	2.811
MS.356         	9.23           	2.626
MS.357         	9.21           	2.826
MS.358         	9.193          	2.784
MS.359         	9.175          	2.682
MS.360         	9.155          	2.603
MS.361         	9.137          	2.665
MS.362         	9.12           	2.681
MS.363         	9.1            	2.596
MS.364         	9.082          	2.59
MS.365         	9.065          	2.592
MS.366         	9.047          	2.447
MS.367         	9.028          	2.44
MS.368         	9.01           	2.428
MS.369         	8.992          	2.43
MS.370         	8.975          	2.424
MS.371         	8.957          	2.378
MS.372         	8.938          	2.413
MS.373         	8.92           	2.303
MS.374         	8.903          	2.359
MS.375         	8.885          	2.324
MS.376         	8.867          	2.192
MS.377         	8.85           	2.286
MS.378         	8.832          	2.202
MS.379         	8.815          	2.102
MS.380         	8.797          	1.997
MS.381         	8.78           	2.139
MS.382         	8.762          	2.076
MS.383         	8.745          	2.081
MS.384         	8.727          	1.992
MS.385         	8.71           	2.086
MS.386         	8.693          	1.927
MS.387         	8.675          	1.991
MS.388         	8.658          	1.958
MS.389         	8.64           	2.001
MS.390         	8.622          	1.942
MS.391         	8.605          	1.884
MS.392         	8.587          	1.834
MS.393         	8.57           	1.756
MS.394         	8.552          	1.83
MS.395         	8.537          	1.774
MS.396         	8.52           	1.698
MS.397         	8.502          	1.769
MS.398         	8.485          	1.687
MS.399         	8.467          	1.638
MS.400         	8.452          	1.693
MS.401         	8.435          	1.656
MS.402         	8.417          	1.622
MS.403         	8.4            	1.653
MS.404         	8.385          	1.671
MS.405         	8.367          	1.584
MS.406         	8.35           	1.559
MS.407         	8.335          	1.504
MS.408         	8.318          	1.322
MS.409         	8.3            	1.47
MS.410         	8.285          	1.402
MS.411         	8.267          	1.387
MS.412         	8.252          	1.293
MS.413         	8.235          	1.312
MS.414         	8.217          	1.323
MS.415         	8.202          	1.271
MS.416         	8.185          	1.353
MS.417         	8.17           	1.301
MS.418         	8.153          	1.208
MS.419         	8.137          	1.259
MS.420         	8.12           	1.14
MS.421         	8.105          	1.039
MS.422         	8.087          	1.11
MS.423         	8.073          	1.089
MS.424         	8.055          	1.188
MS.425         	8.04           	1.057
MS.426         	8.023          	1.11
MS.427         	8.007          	1.003
MS.428         	7.992          	1.024
MS.429         	7.975          	1.045
MS.430         	7.96           	1.02
MS.431         	7.942          	0.98
MS.432         	7.927          	0.945
MS.433         	7.912          	0.889
MS.434         	7.895          	0.894
MS.435         	7.88           	0.841
MS.436         	7.865          	0.891
MS.437         	7.85           	0.782
MS.438         	7.832          	0.879
MS.439         	7.817          	0.837
MS.440         	7.802          	0.732
MS.441         	7.787          	0.742
MS.442         	7.77           	0.8
MS.443         	7.755          	0.687
MS.444         	7.74           	0.706
MS.445         	7.725          	0.757
MS.446         	7.71           	0.722
MS.447         	7.692          	0.63
MS.448         	7.677          	0.627
MS.449         	7.662          	0.624
MS.450         	7.648          	0.641
MS.451         	7.632          	0.587
MS.452         	7.617          	0.583
MS.453         	7.602          	0.568
MS.454         	7.587          	0.522
MS.455         	7.572          	0.464
MS.456         	7.555          	0.601
MS.457         	7.54           	0.461
MS.458         	7.525          	0.497
MS.459         	7.51           	0.481
MS.460         	7.495          	0.469
MS.461         	7.48           	0.415
MS.462         	7.465          	0.421
MS.463         	7.45           	0.502
MS.464         	7.438          	0.431
MS.465         	7.422          	0.31
MS.466         	7.407          	0.381
MS.467         	7.392          	0.414
MS.468         	7.378          	0.362
MS.469         	7.362          	0.278
MS.470         	7.347          	0.322
MS.471         	7.332          	0.326
MS.472         	7.317          	0.314
MS.473         	7.302          	0.325
MS.474         	7.29           	0.229
MS.475         	7.275          	0.283
MS.476         	7.26           	0.237
MS.477         	7.245          	0.279
MS.478         	7.23           	0.203
MS.479         	7.217          	0.213
MS.480         	7.202          	0.215
MS.481         	7.188          	0.239
MS.482         	7.172          	0.18
MS.483         	7.16           	0.149
MS.484         	7.145          	0.186
MS.485         	7.13           	0.193
MS.486         	7.115          	0.084
MS.487         	7.102          	0.131
MS.488         	7.087          	0.099
MS.489         	7.072          	0.09
MS.490         	7.06           	0.075
MS.491         	7.045          	0.065
MS.492         	7.032          	0.104
MS.493         	7.017          	0.053
MS.494         	7.003          	0.051
MS.495         	6.99           	0.063
MS.496         	6.975          	0.052
MS.497         	6.962          	0.055
MS.498         	6.947          	0.018
MS.499         	6.932          	0.033
MS.500         	6.92           	0.052
MS.501         	6.905          	0.031
MS.502         	6.892          	0.015
MS.503         	6.878          	-0.013
