File:              	C:\Qtrac\Data\ME2C30707A.QZD
Name:              	 SO09N
Protocol:          	MSCAN-MV
Date:              	7/7/23
Date of birth:     	9/6/00
Age:               	23
Sex:               	M
Temperature:       	32
S/R sites:         	Knee CF-TA
NC/disease:        	NC
Operator:          	BY
Comments:
M-SCAN DATA (Repeat 1/3, 11.5-2.9m)
Scanpts: 12, 30, 624, 682
Stim. (mA)     	Amp. (mV)
MS.1           	13.5           	7.762
MS.2           	13.5           	7.748
MS.3           	13.5           	7.794
MS.4           	13.5           	7.743
MS.5           	13.5           	7.72
MS.6           	13.5           	7.75
MS.7           	13.5           	7.77
MS.8           	13.5           	7.722
MS.9           	13.5           	7.716
MS.10          	13.5           	7.697
MS.11          	13.5           	7.733
MS.12          	13.5           	7.725
MS.13          	13.5           	7.728
MS.14          	13.5           	7.697
MS.15          	13.5           	7.725
MS.16          	13.5           	7.7
MS.17          	13.5           	7.727
MS.18          	13.5           	7.74
MS.19          	13.5           	7.716
MS.20          	13.5           	7.707
MS.21          	13.5           	7.699
MS.22          	13.5           	7.75
MS.23          	13.5           	7.74
MS.24          	13.445         	7.729
MS.25          	13.42          	7.7
MS.26          	13.392         	7.711
MS.27          	13.365         	7.717
MS.28          	13.34          	7.705
MS.29          	13.312         	7.715
MS.30          	13.285         	7.725
MS.31          	13.26          	7.708
MS.32          	13.233         	7.72
MS.33          	13.205         	7.739
MS.34          	13.18          	7.654
MS.35          	13.153         	7.681
MS.36          	13.127         	7.69
MS.37          	13.1           	7.663
MS.38          	13.075         	7.668
MS.39          	13.047         	7.668
MS.40          	13.023         	7.612
MS.41          	12.997         	7.606
MS.42          	12.97          	7.653
MS.43          	12.945         	7.654
MS.44          	12.92          	7.606
MS.45          	12.892         	7.603
MS.46          	12.867         	7.644
MS.47          	12.842         	7.601
MS.48          	12.815         	7.648
MS.49          	12.79          	7.653
MS.50          	12.765         	7.632
MS.51          	12.74          	7.647
MS.52          	12.715         	7.676
MS.53          	12.688         	7.633
MS.54          	12.662         	7.672
MS.55          	12.637         	7.603
MS.56          	12.613         	7.584
MS.57          	12.587         	7.608
MS.58          	12.562         	7.602
MS.59          	12.537         	7.574
MS.60          	12.512         	7.611
MS.61          	12.488         	7.57
MS.62          	12.462         	7.581
MS.63          	12.438         	7.576
MS.64          	12.412         	7.606
MS.65          	12.387         	7.527
MS.66          	12.363         	7.57
MS.67          	12.337         	7.557
MS.68          	12.312         	7.604
MS.69          	12.29          	7.58
MS.70          	12.265         	7.595
MS.71          	12.24          	7.514
MS.72          	12.215         	7.567
MS.73          	12.19          	7.566
MS.74          	12.167         	7.557
MS.75          	12.142         	7.523
MS.76          	12.117         	7.556
MS.77          	12.092         	7.559
MS.78          	12.07          	7.51
MS.79          	12.045         	7.504
MS.80          	12.023         	7.493
MS.81          	11.997         	7.523
MS.82          	11.972         	7.505
MS.83          	11.95          	7.548
MS.84          	11.925         	7.522
MS.85          	11.903         	7.51
MS.86          	11.877         	7.521
MS.87          	11.855         	7.495
MS.88          	11.83          	7.507
MS.89          	11.807         	7.474
MS.90          	11.782         	7.498
MS.91          	11.76          	7.439
MS.92          	11.738         	7.468
MS.93          	11.712         	7.463
MS.94          	11.69          	7.454
MS.95          	11.665         	7.495
MS.96          	11.642         	7.443
MS.97          	11.62          	7.452
MS.98          	11.597         	7.446
MS.99          	11.572         	7.424
MS.100         	11.55          	7.433
MS.101         	11.528         	7.413
MS.102         	11.505         	7.458
MS.103         	11.48          	7.459
MS.104         	11.457         	7.438
MS.105         	11.435         	7.444
MS.106         	11.412         	7.435
MS.107         	11.39          	7.36
MS.108         	11.367         	7.392
MS.109         	11.345         	7.396
MS.110         	11.322         	7.415
MS.111         	11.297         	7.413
MS.112         	11.275         	7.407
MS.113         	11.252         	7.389
MS.114         	11.23          	7.387
MS.115         	11.207         	7.377
MS.116         	11.188         	7.381
MS.117         	11.165         	7.316
MS.118         	11.142         	7.34
MS.119         	11.12          	7.368
MS.120         	11.097         	7.354
MS.121         	11.075         	7.344
MS.122         	11.052         	7.395
MS.123         	11.03          	7.374
MS.124         	11.007         	7.267
MS.125         	10.988         	7.342
MS.126         	10.965         	7.285
MS.127         	10.943         	7.291
MS.128         	10.92          	7.178
MS.129         	10.9           	7.354
MS.130         	10.877         	7.266
MS.131         	10.855         	7.242
MS.132         	10.835         	7.26
MS.133         	10.812         	7.404
MS.134         	10.79          	7.302
MS.135         	10.77          	7.272
MS.136         	10.747         	7.187
MS.137         	10.725         	7.225
MS.138         	10.705         	7.311
MS.139         	10.682         	7.23
MS.140         	10.662         	7.176
MS.141         	10.64          	7.18
MS.142         	10.62          	7.195
MS.143         	10.597         	7.089
MS.144         	10.577         	7.199
MS.145         	10.555         	7.268
MS.146         	10.535         	7.235
MS.147         	10.515         	7.155
MS.148         	10.492         	7.22
MS.149         	10.472         	7.245
MS.150         	10.45          	7.153
MS.151         	10.43          	7.189
MS.152         	10.41          	7.089
MS.153         	10.387         	7.151
MS.154         	10.367         	7.191
MS.155         	10.347         	7.153
MS.156         	10.325         	7.095
MS.157         	10.305         	6.987
MS.158         	10.285         	7.112
MS.159         	10.265         	7.081
MS.160         	10.245         	7.093
MS.161         	10.222         	7.04
MS.162         	10.202         	6.971
MS.163         	10.182         	6.993
MS.164         	10.162         	6.894
MS.165         	10.142         	7.015
MS.166         	10.122         	7.068
MS.167         	10.102         	7.025
MS.168         	10.082         	6.983
MS.169         	10.06          	6.921
MS.170         	10.04          	6.857
MS.171         	10.02          	6.88
MS.172         	10             	7.023
MS.173         	9.98           	6.882
MS.174         	9.96           	6.79
MS.175         	9.94           	6.881
MS.176         	9.922          	6.905
MS.177         	9.903          	6.989
MS.178         	9.882          	6.751
MS.179         	9.863          	6.814
MS.180         	9.842          	6.783
MS.181         	9.823          	6.717
MS.182         	9.802          	6.843
MS.183         	9.782          	6.819
MS.184         	9.765          	6.606
MS.185         	9.745          	6.516
MS.186         	9.725          	6.62
MS.187         	9.705          	6.811
MS.188         	9.685          	6.589
MS.189         	9.667          	6.712
MS.190         	9.648          	6.465
MS.191         	9.627          	6.598
MS.192         	9.61           	6.455
MS.193         	9.59           	6.573
MS.194         	9.57           	6.561
MS.195         	9.552          	6.638
MS.196         	9.532          	6.564
MS.197         	9.512          	6.425
MS.198         	9.495          	6.61
MS.199         	9.475          	6.408
MS.200         	9.457          	6.62
MS.201         	9.438          	6.45
MS.202         	9.417          	6.436
MS.203         	9.4            	6.259
MS.204         	9.38           	5.991
MS.205         	9.363          	6.05
MS.206         	9.342          	6.208
MS.207         	9.325          	6.225
MS.208         	9.305          	6.046
MS.209         	9.287          	6.208
MS.210         	9.27           	6.389
MS.211         	9.25           	5.875
MS.212         	9.233          	6.163
MS.213         	9.212          	6.185
MS.214         	9.195          	5.914
MS.215         	9.177          	5.87
MS.216         	9.158          	5.804
MS.217         	9.14           	5.685
MS.218         	9.122          	5.892
MS.219         	9.102          	5.83
MS.220         	9.085          	5.857
MS.221         	9.068          	5.826
MS.222         	9.05           	5.832
MS.223         	9.03           	5.826
MS.224         	9.012          	5.781
MS.225         	8.995          	5.706
MS.226         	8.977          	5.95
MS.227         	8.96           	5.706
MS.228         	8.943          	5.889
MS.229         	8.922          	5.876
MS.230         	8.905          	5.759
MS.231         	8.887          	5.811
MS.232         	8.87           	5.693
MS.233         	8.852          	5.679
MS.234         	8.835          	5.825
MS.235         	8.818          	5.766
MS.236         	8.8            	5.728
MS.237         	8.783          	5.63
MS.238         	8.765          	5.591
MS.239         	8.747          	5.638
MS.240         	8.73           	5.765
MS.241         	8.712          	5.688
MS.242         	8.695          	5.727
MS.243         	8.677          	5.629
MS.244         	8.66           	5.324
MS.245         	8.642          	5.486
MS.246         	8.625          	5.593
MS.247         	8.608          	5.405
MS.248         	8.59           	5.468
MS.249         	8.573          	5.54
MS.250         	8.557          	5.272
MS.251         	8.54           	5.516
MS.252         	8.523          	5.408
MS.253         	8.505          	5.437
MS.254         	8.488          	5.172
MS.255         	8.472          	5.175
MS.256         	8.455          	5.137
MS.257         	8.438          	5.172
MS.258         	8.42           	5.264
MS.259         	8.405          	5.182
MS.260         	8.387          	5.043
MS.261         	8.37           	5.098
MS.262         	8.352          	4.917
MS.263         	8.337          	5.063
MS.264         	8.32           	4.887
MS.265         	8.302          	4.939
MS.266         	8.287          	4.917
MS.267         	8.27           	4.749
MS.268         	8.255          	4.954
MS.269         	8.238          	4.883
MS.270         	8.22           	4.771
MS.271         	8.205          	4.711
MS.272         	8.188          	4.734
MS.273         	8.172          	4.836
MS.274         	8.155          	4.542
MS.275         	8.14           	4.596
MS.276         	8.122          	4.553
MS.277         	8.108          	4.557
MS.278         	8.09           	4.4
MS.279         	8.075          	4.505
MS.280         	8.057          	4.526
MS.281         	8.042          	4.353
MS.282         	8.025          	4.426
MS.283         	8.01           	4.547
MS.284         	7.995          	4.388
MS.285         	7.977          	4.403
MS.286         	7.962          	4.391
MS.287         	7.945          	4.371
MS.288         	7.93           	4.192
MS.289         	7.915          	4.366
MS.290         	7.898          	4.276
MS.291         	7.882          	4.25
MS.292         	7.867          	4.179
MS.293         	7.852          	4.174
MS.294         	7.835          	4.103
MS.295         	7.82           	4.079
MS.296         	7.805          	4.095
MS.297         	7.79           	4.031
MS.298         	7.773          	4.103
MS.299         	7.757          	3.977
MS.300         	7.742          	4.043
MS.301         	7.727          	3.913
MS.302         	7.712          	4.082
MS.303         	7.695          	3.867
MS.304         	7.68           	3.892
MS.305         	7.665          	4.025
MS.306         	7.65           	3.839
MS.307         	7.635          	3.976
MS.308         	7.62           	3.932
MS.309         	7.605          	3.839
MS.310         	7.59           	3.798
MS.311         	7.572          	3.862
MS.312         	7.557          	3.828
MS.313         	7.543          	3.709
MS.314         	7.527          	3.708
MS.315         	7.512          	3.651
MS.316         	7.497          	3.583
MS.317         	7.482          	3.685
MS.318         	7.467          	3.533
MS.319         	7.452          	3.577
MS.320         	7.438          	3.659
MS.321         	7.425          	3.558
MS.322         	7.41           	3.474
MS.323         	7.395          	3.552
MS.324         	7.38           	3.535
MS.325         	7.365          	3.35
MS.326         	7.35           	3.507
MS.327         	7.335          	3.512
MS.328         	7.32           	3.489
MS.329         	7.305          	3.506
MS.330         	7.293          	3.318
MS.331         	7.277          	3.37
MS.332         	7.262          	3.441
MS.333         	7.247          	3.392
MS.334         	7.233          	3.325
MS.335         	7.22           	3.288
MS.336         	7.205          	3.265
MS.337         	7.19           	3.207
MS.338         	7.175          	3.074
MS.339         	7.162          	3.189
MS.340         	7.148          	3.185
MS.341         	7.132          	3.182
MS.342         	7.117          	3.145
MS.343         	7.105          	3.287
MS.344         	7.09           	3.116
MS.345         	7.075          	3.076
MS.346         	7.062          	3.074
MS.347         	7.047          	3.049
MS.348         	7.032          	2.908
MS.349         	7.02           	3.106
MS.350         	7.005          	2.924
MS.351         	6.992          	2.808
MS.352         	6.977          	2.847
MS.353         	6.962          	2.885
MS.354         	6.95           	2.821
MS.355         	6.935          	2.825
MS.356         	6.922          	2.746
MS.357         	6.907          	2.767
MS.358         	6.895          	2.656
MS.359         	6.88           	2.681
MS.360         	6.867          	2.682
MS.361         	6.852          	2.69
MS.362         	6.84           	2.578
MS.363         	6.825          	2.681
MS.364         	6.812          	2.551
MS.365         	6.797          	2.619
MS.366         	6.785          	2.533
MS.367         	6.773          	2.501
MS.368         	6.757          	2.495
MS.369         	6.745          	2.408
MS.370         	6.73           	2.291
MS.371         	6.717          	2.446
MS.372         	6.705          	2.375
MS.373         	6.69           	2.159
MS.374         	6.677          	2.258
MS.375         	6.665          	2.103
MS.376         	6.65           	2.226
MS.377         	6.637          	2.289
MS.378         	6.625          	2.186
MS.379         	6.61           	2.184
MS.380         	6.597          	2.103
MS.381         	6.585          	2.137
MS.382         	6.57           	2.014
MS.383         	6.557          	2.104
MS.384         	6.545          	1.849
MS.385         	6.532          	1.942
MS.386         	6.52           	1.945
MS.387         	6.505          	2.023
MS.388         	6.492          	1.888
MS.389         	6.48           	1.961
MS.390         	6.467          	1.921
MS.391         	6.455          	1.756
MS.392         	6.44           	1.824
MS.393         	6.427          	1.735
MS.394         	6.415          	1.769
MS.395         	6.402          	1.716
MS.396         	6.39           	1.546
MS.397         	6.378          	1.801
MS.398         	6.365          	1.677
MS.399         	6.352          	1.681
MS.400         	6.34           	1.586
MS.401         	6.325          	1.6
MS.402         	6.312          	1.497
MS.403         	6.3            	1.584
MS.404         	6.287          	1.548
MS.405         	6.275          	1.442
MS.406         	6.262          	1.48
MS.407         	6.25           	1.552
MS.408         	6.237          	1.38
MS.409         	6.225          	1.473
MS.410         	6.213          	1.467
MS.411         	6.2            	1.44
MS.412         	6.188          	1.395
MS.413         	6.175          	1.292
MS.414         	6.165          	1.279
MS.415         	6.152          	1.356
MS.416         	6.14           	1.196
MS.417         	6.128          	1.234
MS.418         	6.115          	1.243
MS.419         	6.102          	1.284
MS.420         	6.09           	1.206
MS.421         	6.077          	1.21
MS.422         	6.065          	1.155
MS.423         	6.055          	1.229
MS.424         	6.043          	1.158
MS.425         	6.03           	1.156
MS.426         	6.017          	1.192
MS.427         	6.005          	1.042
MS.428         	5.992          	1.011
MS.429         	5.983          	0.985
MS.430         	5.97           	1.059
MS.431         	5.957          	1.039
MS.432         	5.945          	1.015
MS.433         	5.935          	0.975
MS.434         	5.922          	0.985
MS.435         	5.91           	0.903
MS.436         	5.898          	0.856
MS.437         	5.887          	0.921
MS.438         	5.875          	0.876
MS.439         	5.862          	0.863
MS.440         	5.852          	0.928
MS.441         	5.84           	0.792
MS.442         	5.827          	0.789
MS.443         	5.817          	0.797
MS.444         	5.805          	0.683
MS.445         	5.793          	0.801
MS.446         	5.782          	0.78
MS.447         	5.77           	0.759
MS.448         	5.757          	0.726
MS.449         	5.747          	0.681
MS.450         	5.735          	0.674
MS.451         	5.725          	0.641
MS.452         	5.713          	0.599
MS.453         	5.702          	0.688
MS.454         	5.69           	0.643
MS.455         	5.677          	0.687
MS.456         	5.668          	0.526
MS.457         	5.655          	0.573
MS.458         	5.645          	0.596
MS.459         	5.632          	0.517
MS.460         	5.622          	0.56
MS.461         	5.61           	0.563
MS.462         	5.6            	0.493
MS.463         	5.588          	0.549
MS.464         	5.577          	0.481
MS.465         	5.565          	0.527
MS.466         	5.555          	0.461
MS.467         	5.545          	0.47
MS.468         	5.532          	0.471
MS.469         	5.523          	0.439
MS.470         	5.51           	0.395
MS.471         	5.5            	0.474
MS.472         	5.487          	0.441
MS.473         	5.477          	0.388
MS.474         	5.467          	0.426
MS.475         	5.455          	0.401
MS.476         	5.445          	0.413
MS.477         	5.435          	0.406
MS.478         	5.422          	0.39
MS.479         	5.412          	0.397
MS.480         	5.402          	0.359
MS.481         	5.39           	0.333
MS.482         	5.38           	0.345
MS.483         	5.37           	0.325
MS.484         	5.358          	0.339
MS.485         	5.347          	0.309
MS.486         	5.338          	0.332
MS.487         	5.327          	0.33
MS.488         	5.315          	0.341
MS.489         	5.305          	0.303
MS.490         	5.295          	0.284
MS.491         	5.285          	0.295
MS.492         	5.273          	0.269
MS.493         	5.262          	0.35
MS.494         	5.253          	0.287
MS.495         	5.242          	0.255
MS.496         	5.233          	0.273
MS.497         	5.22           	0.2
MS.498         	5.21           	0.209
MS.499         	5.2            	0.252
MS.500         	5.19           	0.253
MS.501         	5.18           	0.225
MS.502         	5.17           	0.203
MS.503         	5.157          	0.234
