File:              	C:\Qtrac\Data\ME2C30623B.QZD
Name:              	 JO31X
Protocol:          	MSCAN-MV
Date:              	23/6/23
Date of birth:     	31/10/91
Age:               	31
Sex:               	M
Temperature:       	33.5
S/R sites:         	Knee CF-TA
NC/disease:        	NC
Operator:          	BY
Comments:
M-SCAN DATA (Repeat 3/3, 27.8-18.9m)
Scanpts: 70, 103, 683, 713
Stim. (mA)     	Amp. (mV)
MS.1           	9              	6.097
MS.2           	9              	6.137
MS.3           	9              	6.097
MS.4           	9              	6.092
MS.5           	9              	6.082
MS.6           	9              	6.084
MS.7           	9              	6.085
MS.8           	9              	6.077
MS.9           	9              	6.096
MS.10          	9              	6.066
MS.11          	9              	6.088
MS.12          	9              	6.054
MS.13          	9              	6.1
MS.14          	9              	6.077
MS.15          	9              	6.066
MS.16          	9              	6.07
MS.17          	9              	6.075
MS.18          	9              	6.086
MS.19          	9              	6.077
MS.20          	9              	6.067
MS.21          	9              	6.082
MS.22          	9              	6.078
MS.23          	9              	6.06
MS.24          	8.983          	6.075
MS.25          	8.965          	6.069
MS.26          	8.945          	6.063
MS.27          	8.927          	6.075
MS.28          	8.91           	6.071
MS.29          	8.892          	6.062
MS.30          	8.875          	6.078
MS.31          	8.858          	6.062
MS.32          	8.84           	6.047
MS.33          	8.823          	6.078
MS.34          	8.805          	6.075
MS.35          	8.787          	6.088
MS.36          	8.77           	6.037
MS.37          	8.752          	6.155
MS.38          	8.735          	6.077
MS.39          	8.717          	6.075
MS.40          	8.7            	6.077
MS.41          	8.682          	6.042
MS.42          	8.665          	6.055
MS.43          	8.648          	6.173
MS.44          	8.63           	6.157
MS.45          	8.613          	6.128
MS.46          	8.595          	6.067
MS.47          	8.577          	6.071
MS.48          	8.56           	6.063
MS.49          	8.545          	6.053
MS.50          	8.528          	6.144
MS.51          	8.51           	6.177
MS.52          	8.492          	6.194
MS.53          	8.475          	6.064
MS.54          	8.46           	6.189
MS.55          	8.443          	6.204
MS.56          	8.425          	6.111
MS.57          	8.408          	6.198
MS.58          	8.392          	6.233
MS.59          	8.375          	6.19
MS.60          	8.358          	6.112
MS.61          	8.342          	6.214
MS.62          	8.325          	6.074
MS.63          	8.307          	6.07
MS.64          	8.292          	6.169
MS.65          	8.275          	6.049
MS.66          	8.257          	6.165
MS.67          	8.242          	6.086
MS.68          	8.225          	6.083
MS.69          	8.21           	6.123
MS.70          	8.193          	6.14
MS.71          	8.175          	6.107
MS.72          	8.16           	6.144
MS.73          	8.142          	6.132
MS.74          	8.127          	6.089
MS.75          	8.11           	6.129
MS.76          	8.095          	6.099
MS.77          	8.077          	6.113
MS.78          	8.062          	6.096
MS.79          	8.047          	6.147
MS.80          	8.03           	6.092
MS.81          	8.015          	6.182
MS.82          	7.997          	6.115
MS.83          	7.982          	6.066
MS.84          	7.967          	6.102
MS.85          	7.95           	6.179
MS.86          	7.935          	6.123
MS.87          	7.918          	6.116
MS.88          	7.902          	6.176
MS.89          	7.887          	6.162
MS.90          	7.872          	6.172
MS.91          	7.855          	6.07
MS.92          	7.84           	6.115
MS.93          	7.825          	6.064
MS.94          	7.807          	6.121
MS.95          	7.793          	6.077
MS.96          	7.777          	6.147
MS.97          	7.762          	6.138
MS.98          	7.747          	6.069
MS.99          	7.73           	6.088
MS.100         	7.715          	6.02
MS.101         	7.7            	6.147
MS.102         	7.685          	6.119
MS.103         	7.67           	6.083
MS.104         	7.655          	6.088
MS.105         	7.637          	6.064
MS.106         	7.622          	6.024
MS.107         	7.607          	6.024
MS.108         	7.592          	6.082
MS.109         	7.577          	6.067
MS.110         	7.562          	6.02
MS.111         	7.547          	6.053
MS.112         	7.532          	6.057
MS.113         	7.517          	6.143
MS.114         	7.503          	6.004
MS.115         	7.487          	6.163
MS.116         	7.472          	6.082
MS.117         	7.457          	6.042
MS.118         	7.442          	5.966
MS.119         	7.427          	5.96
MS.120         	7.412          	6.089
MS.121         	7.398          	5.875
MS.122         	7.382          	5.861
MS.123         	7.367          	5.864
MS.124         	7.355          	6.032
MS.125         	7.34           	6.031
MS.126         	7.325          	5.847
MS.127         	7.31           	6.03
MS.128         	7.295          	6.104
MS.129         	7.28           	6.129
MS.130         	7.265          	6.015
MS.131         	7.253          	6.047
MS.132         	7.237          	5.833
MS.133         	7.222          	6.032
MS.134         	7.207          	5.939
MS.135         	7.195          	5.97
MS.136         	7.18           	6.098
MS.137         	7.165          	6.072
MS.138         	7.15           	5.944
MS.139         	7.137          	5.864
MS.140         	7.122          	5.855
MS.141         	7.108          	5.797
MS.142         	7.095          	5.795
MS.143         	7.08           	6.072
MS.144         	7.065          	5.767
MS.145         	7.052          	5.823
MS.146         	7.037          	5.71
MS.147         	7.023          	5.865
MS.148         	7.01           	5.842
MS.149         	6.995          	5.987
MS.150         	6.98           	5.793
MS.151         	6.967          	5.965
MS.152         	6.952          	5.774
MS.153         	6.94           	5.755
MS.154         	6.925          	5.519
MS.155         	6.912          	5.704
MS.156         	6.898          	5.672
MS.157         	6.885          	5.684
MS.158         	6.87           	5.654
MS.159         	6.858          	5.538
MS.160         	6.842          	5.623
MS.161         	6.83           	5.676
MS.162         	6.815          	5.367
MS.163         	6.802          	5.446
MS.164         	6.787          	5.417
MS.165         	6.775          	5.511
MS.166         	6.762          	5.553
MS.167         	6.747          	5.488
MS.168         	6.735          	5.471
MS.169         	6.72           	5.491
MS.170         	6.707          	5.349
MS.171         	6.695          	5.289
MS.172         	6.68           	5.24
MS.173         	6.668          	5.246
MS.174         	6.655          	5.229
MS.175         	6.64           	5.128
MS.176         	6.628          	5.148
MS.177         	6.615          	5.182
MS.178         	6.6            	5.314
MS.179         	6.587          	5.12
MS.180         	6.575          	5.118
MS.181         	6.562          	5.067
MS.182         	6.547          	5.171
MS.183         	6.535          	5.031
MS.184         	6.523          	5.054
MS.185         	6.51           	5.026
MS.186         	6.495          	4.988
MS.187         	6.483          	4.88
MS.188         	6.47           	4.997
MS.189         	6.457          	4.974
MS.190         	6.445          	5.015
MS.191         	6.432          	4.973
MS.192         	6.42           	4.984
MS.193         	6.405          	4.816
MS.194         	6.392          	5.025
MS.195         	6.38           	4.798
MS.196         	6.367          	4.943
MS.197         	6.355          	4.871
MS.198         	6.342          	4.659
MS.199         	6.33           	4.78
MS.200         	6.317          	4.766
MS.201         	6.305          	4.686
MS.202         	6.293          	4.832
MS.203         	6.28           	4.614
MS.204         	6.267          	4.669
MS.205         	6.255          	4.689
MS.206         	6.242          	4.669
MS.207         	6.23           	4.512
MS.208         	6.217          	4.537
MS.209         	6.205          	4.438
MS.210         	6.192          	4.568
MS.211         	6.18           	4.429
MS.212         	6.168          	4.318
MS.213         	6.155          	4.342
MS.214         	6.142          	4.379
MS.215         	6.13           	4.258
MS.216         	6.117          	4.124
MS.217         	6.105          	4.305
MS.218         	6.092          	4.243
MS.219         	6.082          	4.045
MS.220         	6.07           	4.037
MS.221         	6.057          	4.024
MS.222         	6.045          	4.149
MS.223         	6.032          	4.08
MS.224         	6.02           	3.906
MS.225         	6.01           	3.876
MS.226         	5.997          	3.817
MS.227         	5.985          	3.905
MS.228         	5.972          	3.83
MS.229         	5.96           	3.884
MS.230         	5.95           	3.84
MS.231         	5.938          	3.693
MS.232         	5.925          	3.802
MS.233         	5.912          	3.615
MS.234         	5.902          	3.859
MS.235         	5.89           	3.643
MS.236         	5.878          	3.688
MS.237         	5.867          	3.605
MS.238         	5.855          	3.573
MS.239         	5.842          	3.594
MS.240         	5.83           	3.44
MS.241         	5.82           	3.547
MS.242         	5.807          	3.341
MS.243         	5.797          	3.434
MS.244         	5.785          	3.518
MS.245         	5.773          	3.475
MS.246         	5.762          	3.376
MS.247         	5.75           	3.302
MS.248         	5.737          	3.251
MS.249         	5.727          	3.311
MS.250         	5.715          	3.001
MS.251         	5.705          	3.29
MS.252         	5.692          	3.032
MS.253         	5.682          	3.036
MS.254         	5.67           	2.939
MS.255         	5.66           	3.016
MS.256         	5.648          	2.963
MS.257         	5.637          	3.084
MS.258         	5.625          	3.013
MS.259         	5.615          	2.748
MS.260         	5.602          	2.859
MS.261         	5.592          	2.95
MS.262         	5.58           	2.911
MS.263         	5.57           	2.755
MS.264         	5.557          	2.56
MS.265         	5.547          	2.729
MS.266         	5.535          	2.676
MS.267         	5.525          	2.634
MS.268         	5.512          	2.444
MS.269         	5.503          	2.542
MS.270         	5.492          	2.458
MS.271         	5.48           	2.35
MS.272         	5.47           	2.397
MS.273         	5.46           	2.436
MS.274         	5.447          	2.461
MS.275         	5.438          	2.253
MS.276         	5.425          	2.202
MS.277         	5.415          	2.291
MS.278         	5.405          	2.206
MS.279         	5.392          	2.157
MS.280         	5.382          	2.172
MS.281         	5.372          	2.214
MS.282         	5.362          	2.223
MS.283         	5.35           	2.065
MS.284         	5.34           	2.034
MS.285         	5.33           	2.002
MS.286         	5.318          	2.114
MS.287         	5.307          	1.998
MS.288         	5.297          	2.036
MS.289         	5.287          	2.045
MS.290         	5.277          	1.921
MS.291         	5.265          	1.925
MS.292         	5.255          	1.855
MS.293         	5.245          	1.901
MS.294         	5.235          	1.88
MS.295         	5.225          	1.887
MS.296         	5.213          	1.783
MS.297         	5.202          	1.768
MS.298         	5.193          	1.804
MS.299         	5.182          	1.829
MS.300         	5.172          	1.808
MS.301         	5.162          	1.782
MS.302         	5.15           	1.826
MS.303         	5.14           	1.702
MS.304         	5.13           	1.602
MS.305         	5.12           	1.658
MS.306         	5.11           	1.644
MS.307         	5.1            	1.62
MS.308         	5.09           	1.684
MS.309         	5.08           	1.642
MS.310         	5.07           	1.678
MS.311         	5.06           	1.614
MS.312         	5.05           	1.566
MS.313         	5.04           	1.606
MS.314         	5.03           	1.428
MS.315         	5.02           	1.575
MS.316         	5.01           	1.593
MS.317         	5              	1.47
MS.318         	4.99           	1.545
MS.319         	4.98           	1.45
MS.320         	4.97           	1.483
MS.321         	4.96           	1.467
MS.322         	4.95           	1.558
MS.323         	4.94           	1.332
MS.324         	4.93           	1.329
MS.325         	4.92           	1.312
MS.326         	4.91           	1.126
MS.327         	4.9            	1.22
MS.328         	4.89           	1.282
MS.329         	4.88           	1.353
MS.330         	4.87           	1.222
MS.331         	4.86           	1.1
MS.332         	4.85           	1.139
MS.333         	4.842          	1.241
MS.334         	4.832          	1.167
MS.335         	4.822          	1.058
MS.336         	4.812          	0.972
MS.337         	4.802          	0.867
MS.338         	4.793          	0.948
MS.339         	4.782          	0.917
MS.340         	4.775          	0.826
MS.341         	4.765          	0.809
MS.342         	4.755          	0.922
MS.343         	4.745          	0.75
MS.344         	4.735          	0.707
MS.345         	4.727          	0.844
MS.346         	4.717          	0.877
MS.347         	4.707          	0.811
MS.348         	4.697          	0.704
MS.349         	4.69           	0.733
MS.350         	4.68           	0.707
MS.351         	4.67           	0.705
MS.352         	4.66           	0.748
MS.353         	4.652          	0.648
MS.354         	4.642          	0.641
MS.355         	4.632          	0.63
MS.356         	4.625          	0.605
MS.357         	4.615          	0.641
MS.358         	4.605          	0.63
MS.359         	4.595          	0.56
MS.360         	4.588          	0.515
MS.361         	4.577          	0.559
MS.362         	4.568          	0.498
MS.363         	4.56           	0.469
MS.364         	4.55           	0.533
MS.365         	4.543          	0.476
MS.366         	4.532          	0.493
MS.367         	4.523          	0.404
MS.368         	4.515          	0.43
MS.369         	4.505          	0.438
MS.370         	4.495          	0.404
MS.371         	4.487          	0.39
MS.372         	4.477          	0.424
MS.373         	4.47           	0.413
MS.374         	4.46           	0.35
MS.375         	4.452          	0.391
MS.376         	4.443          	0.369
MS.377         	4.432          	0.385
MS.378         	4.425          	0.345
MS.379         	4.415          	0.392
MS.380         	4.407          	0.393
MS.381         	4.398          	0.337
MS.382         	4.39           	0.33
MS.383         	4.38           	0.328
MS.384         	4.372          	0.334
MS.385         	4.362          	0.372
MS.386         	4.355          	0.35
MS.387         	4.345          	0.327
MS.388         	4.338          	0.283
MS.389         	4.327          	0.36
MS.390         	4.32           	0.294
MS.391         	4.31           	0.267
MS.392         	4.302          	0.265
MS.393         	4.295          	0.253
MS.394         	4.285          	0.274
MS.395         	4.277          	0.287
MS.396         	4.267          	0.307
MS.397         	4.26           	0.245
MS.398         	4.253          	0.259
MS.399         	4.242          	0.225
MS.400         	4.235          	0.228
MS.401         	4.225          	0.229
MS.402         	4.217          	0.22
MS.403         	4.21           	0.209
MS.404         	4.2            	0.198
MS.405         	4.193          	0.212
MS.406         	4.185          	0.228
MS.407         	4.175          	0.198
MS.408         	4.168          	0.203
MS.409         	4.16           	0.209
MS.410         	4.15           	0.166
MS.411         	4.142          	0.198
MS.412         	4.135          	0.208
MS.413         	4.125          	0.174
MS.414         	4.117          	0.172
MS.415         	4.11           	0.162
MS.416         	4.1            	0.168
MS.417         	4.092          	0.187
MS.418         	4.085          	0.172
MS.419         	4.077          	0.164
MS.420         	4.068          	0.152
MS.421         	4.06           	0.159
MS.422         	4.052          	0.174
MS.423         	4.045          	0.154
MS.424         	4.035          	0.145
MS.425         	4.027          	0.151
MS.426         	4.02           	0.144
MS.427         	4.012          	0.131
MS.428         	4.003          	0.162
MS.429         	3.995          	0.15
MS.430         	3.987          	0.154
MS.431         	3.98           	0.137
MS.432         	3.972          	0.126
MS.433         	3.965          	0.128
MS.434         	3.955          	0.135
MS.435         	3.947          	0.115
MS.436         	3.94           	0.135
MS.437         	3.932          	0.137
MS.438         	3.925          	0.109
MS.439         	3.918          	0.142
MS.440         	3.91           	0.121
MS.441         	3.9            	0.109
MS.442         	3.892          	0.106
MS.443         	3.885          	0.11
MS.444         	3.877          	0.104
MS.445         	3.87           	0.108
MS.446         	3.862          	0.107
MS.447         	3.855          	0.109
MS.448         	3.847          	0.098
MS.449         	3.84           	0.125
MS.450         	3.832          	0.113
MS.451         	3.822          	0.098
MS.452         	3.815          	0.097
MS.453         	3.807          	0.107
MS.454         	3.8            	0.089
MS.455         	3.793          	0.111
MS.456         	3.785          	0.092
MS.457         	3.777          	0.086
MS.458         	3.77           	0.081
MS.459         	3.762          	0.087
MS.460         	3.755          	0.079
MS.461         	3.747          	0.104
MS.462         	3.74           	0.077
MS.463         	3.732          	0.083
MS.464         	3.725          	0.081
MS.465         	3.717          	0.068
MS.466         	3.71           	0.068
MS.467         	3.702          	0.065
MS.468         	3.695          	0.065
MS.469         	3.688          	0.065
MS.470         	3.68           	0.065
MS.471         	3.675          	0.074
MS.472         	3.668          	0.061
MS.473         	3.66           	0.07
MS.474         	3.652          	0.055
MS.475         	3.645          	0.059
MS.476         	3.637          	0.056
MS.477         	3.63           	0.061
MS.478         	3.622          	0.06
MS.479         	3.615          	0.053
MS.480         	3.607          	0.059
MS.481         	3.6            	0.056
MS.482         	3.595          	0.054
MS.483         	3.587          	0.06
MS.484         	3.58           	0.056
MS.485         	3.572          	0.057
MS.486         	3.565          	0.057
MS.487         	3.557          	0.054
MS.488         	3.55           	0.049
MS.489         	3.545          	0.051
MS.490         	3.537          	0.051
MS.491         	3.53           	0.052
MS.492         	3.523          	0.051
MS.493         	3.515          	0.057
MS.494         	3.507          	0.051
MS.495         	3.502          	0.049
MS.496         	3.495          	0.051
MS.497         	3.487          	0.043
MS.498         	3.48           	0.048
MS.499         	3.472          	0.049
MS.500         	3.467          	0.047
MS.501         	3.46           	0.049
MS.502         	3.452          	0.051
MS.503         	3.445          	0.049
