File:              	C:\Qtrac\Data\ME2C30705B.QZD
Name:              	 MI19Y
Protocol:          	MSCAN-MV
Date:              	5/7/23
Date of birth:     	19/10/99
Age:               	23
Sex:               	F
Temperature:       	30.2
S/R sites:         	Knee CF-TA
NC/disease:        	NC
Operator:          	BY
Comments:
M-SCAN DATA (Repeat 3/3, 36.5-27m)
Scanpts: 22, 37, 690, 754
Stim. (mA)     	Amp. (mV)
MS.1           	9.5            	5.995
MS.2           	9.5            	5.981
MS.3           	9.5            	6.068
MS.4           	9.5            	6.039
MS.5           	9.5            	6.037
MS.6           	9.5            	6.054
MS.7           	9.5            	5.959
MS.8           	9.5            	6.014
MS.9           	9.5            	6.11
MS.10          	9.5            	6.076
MS.11          	9.5            	6.047
MS.12          	9.5            	5.978
MS.13          	9.5            	5.999
MS.14          	9.5            	6.09
MS.15          	9.5            	6.143
MS.16          	9.5            	6.052
MS.17          	9.5            	6.132
MS.18          	9.5            	6.077
MS.19          	9.5            	6.057
MS.20          	9.5            	6.084
MS.21          	9.5            	6.143
MS.22          	9.5            	6.08
MS.23          	9.5            	6.021
MS.24          	9.48           	6.067
MS.25          	9.462          	6.047
MS.26          	9.443          	5.944
MS.27          	9.425          	6.071
MS.28          	9.405          	5.97
MS.29          	9.387          	6.053
MS.30          	9.367          	6.018
MS.31          	9.35           	6.041
MS.32          	9.33           	6.049
MS.33          	9.312          	6.06
MS.34          	9.292          	6.058
MS.35          	9.275          	6.06
MS.36          	9.255          	6.046
MS.37          	9.238          	6.078
MS.38          	9.22           	5.959
MS.39          	9.2            	6.035
MS.40          	9.182          	5.992
MS.41          	9.165          	5.994
MS.42          	9.145          	6.011
MS.43          	9.127          	5.997
MS.44          	9.11           	5.975
MS.45          	9.09           	6.003
MS.46          	9.073          	5.927
MS.47          	9.055          	5.989
MS.48          	9.037          	5.999
MS.49          	9.017          	5.994
MS.50          	9              	5.906
MS.51          	8.983          	5.941
MS.52          	8.965          	6.025
MS.53          	8.948          	6.011
MS.54          	8.93           	6.044
MS.55          	8.91           	5.959
MS.56          	8.892          	5.917
MS.57          	8.875          	5.867
MS.58          	8.858          	5.894
MS.59          	8.84           	5.941
MS.60          	8.823          	5.848
MS.61          	8.805          	5.886
MS.62          	8.787          	5.842
MS.63          	8.77           	5.831
MS.64          	8.752          	5.842
MS.65          	8.735          	5.851
MS.66          	8.717          	5.878
MS.67          	8.7            	5.76
MS.68          	8.682          	5.801
MS.69          	8.665          	5.815
MS.70          	8.648          	5.842
MS.71          	8.63           	5.757
MS.72          	8.613          	5.71
MS.73          	8.595          	5.72
MS.74          	8.58           	5.729
MS.75          	8.562          	5.717
MS.76          	8.545          	5.764
MS.77          	8.528          	5.788
MS.78          	8.51           	5.747
MS.79          	8.492          	5.728
MS.80          	8.477          	5.687
MS.81          	8.46           	5.699
MS.82          	8.443          	5.719
MS.83          	8.425          	5.724
MS.84          	8.41           	5.637
MS.85          	8.392          	5.651
MS.86          	8.375          	5.642
MS.87          	8.358          	5.635
MS.88          	8.342          	5.61
MS.89          	8.325          	5.549
MS.90          	8.307          	5.555
MS.91          	8.292          	5.643
MS.92          	8.275          	5.652
MS.93          	8.26           	5.56
MS.94          	8.242          	5.528
MS.95          	8.225          	5.519
MS.96          	8.21           	5.464
MS.97          	8.193          	5.607
MS.98          	8.177          	5.562
MS.99          	8.16           	5.485
MS.100         	8.145          	5.61
MS.101         	8.127          	5.585
MS.102         	8.113          	5.507
MS.103         	8.095          	5.568
MS.104         	8.08           	5.558
MS.105         	8.062          	5.47
MS.106         	8.047          	5.412
MS.107         	8.03           	5.528
MS.108         	8.015          	5.428
MS.109         	8              	5.468
MS.110         	7.982          	5.451
MS.111         	7.967          	5.466
MS.112         	7.95           	5.455
MS.113         	7.935          	5.413
MS.114         	7.92           	5.443
MS.115         	7.902          	5.466
MS.116         	7.887          	5.451
MS.117         	7.872          	5.373
MS.118         	7.855          	5.329
MS.119         	7.84           	5.441
MS.120         	7.825          	5.401
MS.121         	7.81           	5.409
MS.122         	7.793          	5.411
MS.123         	7.777          	5.454
MS.124         	7.762          	5.339
MS.125         	7.747          	5.384
MS.126         	7.732          	5.401
MS.127         	7.715          	5.359
MS.128         	7.7            	5.311
MS.129         	7.685          	5.381
MS.130         	7.67           	5.361
MS.131         	7.655          	5.335
MS.132         	7.64           	5.269
MS.133         	7.625          	5.28
MS.134         	7.607          	5.214
MS.135         	7.592          	5.236
MS.136         	7.577          	5.212
MS.137         	7.562          	5.193
MS.138         	7.547          	5.209
MS.139         	7.532          	5.226
MS.140         	7.517          	5.112
MS.141         	7.503          	5.181
MS.142         	7.487          	5.172
MS.143         	7.472          	5.233
MS.144         	7.457          	5.219
MS.145         	7.442          	5.17
MS.146         	7.427          	5.106
MS.147         	7.412          	5.12
MS.148         	7.398          	5.092
MS.149         	7.385          	5.148
MS.150         	7.37           	5.123
MS.151         	7.355          	5.104
MS.152         	7.34           	5.12
MS.153         	7.325          	4.935
MS.154         	7.31           	4.518
MS.155         	7.295          	4.461
MS.156         	7.28           	4.439
MS.157         	7.267          	4.476
MS.158         	7.253          	4.476
MS.159         	7.237          	4.441
MS.160         	7.222          	4.449
MS.161         	7.207          	4.429
MS.162         	7.195          	4.372
MS.163         	7.18           	4.351
MS.164         	7.165          	4.366
MS.165         	7.152          	4.33
MS.166         	7.137          	4.305
MS.167         	7.122          	4.297
MS.168         	7.108          	4.274
MS.169         	7.095          	4.352
MS.170         	7.08           	4.282
MS.171         	7.065          	4.315
MS.172         	7.052          	4.392
MS.173         	7.037          	4.241
MS.174         	7.023          	4.307
MS.175         	7.01           	4.397
MS.176         	6.995          	4.39
MS.177         	6.983          	4.393
MS.178         	6.967          	4.418
MS.179         	6.955          	4.333
MS.180         	6.94           	4.384
MS.181         	6.925          	4.426
MS.182         	6.912          	4.245
MS.183         	6.898          	4.427
MS.184         	6.885          	4.285
MS.185         	6.87           	4.312
MS.186         	6.858          	4.312
MS.187         	6.842          	4.323
MS.188         	6.83           	4.301
MS.189         	6.815          	4.243
MS.190         	6.802          	4.21
MS.191         	6.79           	4.224
MS.192         	6.775          	4.133
MS.193         	6.762          	4.213
MS.194         	6.747          	4.17
MS.195         	6.735          	4.136
MS.196         	6.722          	4.141
MS.197         	6.707          	4.171
MS.198         	6.695          	4.054
MS.199         	6.68           	4.066
MS.200         	6.668          	4.06
MS.201         	6.655          	4.045
MS.202         	6.64           	3.943
MS.203         	6.628          	4.048
MS.204         	6.615          	3.972
MS.205         	6.602          	3.888
MS.206         	6.587          	3.952
MS.207         	6.575          	3.901
MS.208         	6.562          	3.849
MS.209         	6.55           	3.911
MS.210         	6.535          	3.861
MS.211         	6.523          	3.82
MS.212         	6.51           	3.806
MS.213         	6.497          	3.834
MS.214         	6.483          	3.802
MS.215         	6.47           	3.858
MS.216         	6.457          	3.711
MS.217         	6.445          	3.635
MS.218         	6.432          	3.745
MS.219         	6.42           	3.679
MS.220         	6.407          	3.755
MS.221         	6.392          	3.647
MS.222         	6.38           	3.677
MS.223         	6.367          	3.6
MS.224         	6.355          	3.583
MS.225         	6.342          	3.632
MS.226         	6.33           	3.492
MS.227         	6.317          	3.541
MS.228         	6.305          	3.497
MS.229         	6.293          	3.527
MS.230         	6.28           	3.474
MS.231         	6.267          	3.439
MS.232         	6.255          	3.38
MS.233         	6.242          	3.439
MS.234         	6.23           	3.366
MS.235         	6.217          	3.315
MS.236         	6.205          	3.354
MS.237         	6.192          	3.363
MS.238         	6.18           	3.333
MS.239         	6.168          	3.276
MS.240         	6.155          	3.309
MS.241         	6.142          	3.326
MS.242         	6.13           	3.274
MS.243         	6.117          	3.195
MS.244         	6.105          	3.207
MS.245         	6.095          	3.182
MS.246         	6.082          	3.242
MS.247         	6.07           	3.107
MS.248         	6.057          	3.118
MS.249         	6.045          	3.068
MS.250         	6.032          	3.109
MS.251         	6.02           	3.143
MS.252         	6.01           	3.151
MS.253         	5.997          	2.999
MS.254         	5.985          	3.112
MS.255         	5.972          	2.959
MS.256         	5.963          	2.966
MS.257         	5.95           	3
MS.258         	5.938          	2.985
MS.259         	5.925          	2.964
MS.260         	5.915          	2.99
MS.261         	5.902          	2.854
MS.262         	5.89           	2.89
MS.263         	5.878          	2.869
MS.264         	5.867          	2.927
MS.265         	5.855          	2.817
MS.266         	5.842          	2.877
MS.267         	5.832          	2.818
MS.268         	5.82           	2.793
MS.269         	5.807          	2.764
MS.270         	5.797          	2.782
MS.271         	5.785          	2.816
MS.272         	5.773          	2.77
MS.273         	5.762          	2.823
MS.274         	5.75           	2.787
MS.275         	5.74           	2.698
MS.276         	5.727          	2.766
MS.277         	5.715          	2.763
MS.278         	5.705          	2.747
MS.279         	5.692          	2.74
MS.280         	5.682          	2.716
MS.281         	5.67           	2.758
MS.282         	5.66           	2.65
MS.283         	5.648          	2.656
MS.284         	5.637          	2.612
MS.285         	5.625          	2.598
MS.286         	5.615          	2.536
MS.287         	5.602          	2.556
MS.288         	5.592          	2.556
MS.289         	5.58           	2.574
MS.290         	5.57           	2.493
MS.291         	5.557          	2.526
MS.292         	5.547          	2.463
MS.293         	5.535          	2.521
MS.294         	5.525          	2.358
MS.295         	5.515          	2.363
MS.296         	5.503          	2.321
MS.297         	5.492          	2.341
MS.298         	5.48           	2.375
MS.299         	5.47           	2.362
MS.300         	5.46           	2.322
MS.301         	5.447          	2.361
MS.302         	5.438          	2.316
MS.303         	5.427          	2.364
MS.304         	5.415          	2.285
MS.305         	5.405          	2.261
MS.306         	5.395          	2.261
MS.307         	5.382          	2.283
MS.308         	5.372          	2.206
MS.309         	5.362          	2.205
MS.310         	5.35           	2.145
MS.311         	5.34           	2.268
MS.312         	5.33           	2.152
MS.313         	5.32           	2.116
MS.314         	5.307          	2.12
MS.315         	5.297          	2.123
MS.316         	5.287          	2.134
MS.317         	5.277          	2.117
MS.318         	5.265          	2.103
MS.319         	5.255          	2.13
MS.320         	5.245          	2.017
MS.321         	5.235          	2.111
MS.322         	5.225          	2.082
MS.323         	5.213          	2.05
MS.324         	5.202          	1.948
MS.325         	5.193          	1.983
MS.326         	5.182          	1.938
MS.327         	5.172          	2.014
MS.328         	5.162          	1.974
MS.329         	5.152          	1.921
MS.330         	5.14           	1.863
MS.331         	5.13           	1.908
MS.332         	5.12           	1.905
MS.333         	5.11           	1.891
MS.334         	5.1            	1.843
MS.335         	5.09           	1.787
MS.336         	5.08           	1.78
MS.337         	5.07           	1.787
MS.338         	5.06           	1.762
MS.339         	5.05           	1.749
MS.340         	5.04           	1.789
MS.341         	5.03           	1.716
MS.342         	5.02           	1.747
MS.343         	5.01           	1.724
MS.344         	5              	1.661
MS.345         	4.99           	1.716
MS.346         	4.98           	1.747
MS.347         	4.97           	1.644
MS.348         	4.96           	1.721
MS.349         	4.95           	1.575
MS.350         	4.94           	1.62
MS.351         	4.93           	1.633
MS.352         	4.92           	1.609
MS.353         	4.91           	1.589
MS.354         	4.9            	1.618
MS.355         	4.89           	1.583
MS.356         	4.88           	1.539
MS.357         	4.87           	1.559
MS.358         	4.86           	1.564
MS.359         	4.852          	1.526
MS.360         	4.842          	1.551
MS.361         	4.832          	1.48
MS.362         	4.822          	1.502
MS.363         	4.812          	1.448
MS.364         	4.802          	1.46
MS.365         	4.793          	1.447
MS.366         	4.785          	1.438
MS.367         	4.775          	1.508
MS.368         	4.765          	1.462
MS.369         	4.755          	1.392
MS.370         	4.745          	1.42
MS.371         	4.737          	1.35
MS.372         	4.727          	1.354
MS.373         	4.717          	1.282
MS.374         	4.707          	1.297
MS.375         	4.697          	1.31
MS.376         	4.69           	1.312
MS.377         	4.68           	1.258
MS.378         	4.67           	1.223
MS.379         	4.662          	1.223
MS.380         	4.652          	1.235
MS.381         	4.642          	1.248
MS.382         	4.632          	1.172
MS.383         	4.625          	1.225
MS.384         	4.615          	1.174
MS.385         	4.605          	1.163
MS.386         	4.597          	1.165
MS.387         	4.588          	1.183
MS.388         	4.577          	1.144
MS.389         	4.57           	1.157
MS.390         	4.56           	1.136
MS.391         	4.55           	1.115
MS.392         	4.543          	1.126
MS.393         	4.532          	1.068
MS.394         	4.523          	1.054
MS.395         	4.515          	1.077
MS.396         	4.505          	1.068
MS.397         	4.497          	1.035
MS.398         	4.487          	1.028
MS.399         	4.477          	1.003
MS.400         	4.47           	0.958
MS.401         	4.46           	0.992
MS.402         	4.452          	0.943
MS.403         	4.443          	1.033
MS.404         	4.435          	0.982
MS.405         	4.425          	0.952
MS.406         	4.418          	0.927
MS.407         	4.407          	0.956
MS.408         	4.398          	0.923
MS.409         	4.39           	0.923
MS.410         	4.38           	0.963
MS.411         	4.372          	0.865
MS.412         	4.362          	0.93
MS.413         	4.355          	0.829
MS.414         	4.345          	0.899
MS.415         	4.338          	0.828
MS.416         	4.33           	0.853
MS.417         	4.32           	0.865
MS.418         	4.312          	0.895
MS.419         	4.302          	0.855
MS.420         	4.295          	0.844
MS.421         	4.285          	0.88
MS.422         	4.277          	0.811
MS.423         	4.267          	0.818
MS.424         	4.26           	0.83
MS.425         	4.253          	0.801
MS.426         	4.242          	0.824
MS.427         	4.235          	0.821
MS.428         	4.225          	0.872
MS.429         	4.217          	0.853
MS.430         	4.21           	0.846
MS.431         	4.2            	0.792
MS.432         	4.193          	0.801
MS.433         	4.185          	0.768
MS.434         	4.175          	0.839
MS.435         	4.168          	0.761
MS.436         	4.16           	0.77
MS.437         	4.15           	0.726
MS.438         	4.142          	0.71
MS.439         	4.135          	0.745
MS.440         	4.125          	0.735
MS.441         	4.117          	0.798
MS.442         	4.11           	0.712
MS.443         	4.102          	0.73
MS.444         	4.092          	0.72
MS.445         	4.085          	0.697
MS.446         	4.077          	0.726
MS.447         	4.068          	0.714
MS.448         	4.06           	0.723
MS.449         	4.052          	0.699
MS.450         	4.045          	0.662
MS.451         	4.035          	0.663
MS.452         	4.027          	0.688
MS.453         	4.02           	0.629
MS.454         	4.012          	0.647
MS.455         	4.005          	0.651
MS.456         	3.995          	0.643
MS.457         	3.987          	0.626
MS.458         	3.98           	0.52
MS.459         	3.972          	0.587
MS.460         	3.965          	0.551
MS.461         	3.955          	0.571
MS.462         	3.947          	0.542
MS.463         	3.94           	0.505
MS.464         	3.932          	0.552
MS.465         	3.925          	0.507
MS.466         	3.918          	0.535
MS.467         	3.91           	0.455
MS.468         	3.9            	0.444
MS.469         	3.892          	0.482
MS.470         	3.885          	0.433
MS.471         	3.877          	0.486
MS.472         	3.87           	0.464
MS.473         	3.862          	0.466
MS.474         	3.855          	0.441
MS.475         	3.847          	0.458
MS.476         	3.84           	0.431
MS.477         	3.832          	0.413
MS.478         	3.825          	0.393
MS.479         	3.817          	0.468
MS.480         	3.807          	0.409
MS.481         	3.8            	0.413
MS.482         	3.793          	0.385
MS.483         	3.785          	0.387
MS.484         	3.777          	0.403
MS.485         	3.77           	0.375
MS.486         	3.762          	0.312
MS.487         	3.755          	0.401
MS.488         	3.747          	0.374
MS.489         	3.74           	0.33
MS.490         	3.732          	0.363
MS.491         	3.725          	0.347
MS.492         	3.717          	0.306
MS.493         	3.71           	0.322
MS.494         	3.702          	0.289
MS.495         	3.695          	0.345
MS.496         	3.69           	0.316
MS.497         	3.682          	0.313
MS.498         	3.675          	0.32
MS.499         	3.668          	0.315
MS.500         	3.66           	0.284
MS.501         	3.652          	0.242
MS.502         	3.645          	0.291
MS.503         	3.637          	0.319
