File:              	C:\Qtrac\Data\ME2C30627A.QZD
Name:              	 ME22I
Protocol:          	MSCAN-MV
Date:              	27/6/23
Date of birth:     	22/2/02
Age:               	21
Sex:               	M
Temperature:       	33.5
S/R sites:         	Knee CF-TA
NC/disease:        	NC
Operator:          	BY
Comments:
M-SCAN DATA (Repeat 2/4, 21.1-11.8m)
Scanpts: 2, 11, 681, 747
Stim. (mA)     	Amp. (mV)
MS.1           	13             	3.88
MS.2           	13             	3.865
MS.3           	13             	3.87
MS.4           	13             	3.871
MS.5           	13             	3.873
MS.6           	13             	3.876
MS.7           	13             	3.869
MS.8           	13             	3.853
MS.9           	13             	3.879
MS.10          	13             	3.872
MS.11          	13             	3.873
MS.12          	13             	3.857
MS.13          	13             	3.846
MS.14          	13             	3.862
MS.15          	13             	3.845
MS.16          	13             	3.853
MS.17          	13             	3.845
MS.18          	13             	3.847
MS.19          	13             	3.842
MS.20          	13             	3.841
MS.21          	13             	3.83
MS.22          	13             	3.845
MS.23          	13             	3.825
MS.24          	12.975         	3.812
MS.25          	12.947         	3.812
MS.26          	12.922         	3.821
MS.27          	12.898         	3.825
MS.28          	12.87          	3.823
MS.29          	12.845         	3.821
MS.30          	12.82          	3.831
MS.31          	12.792         	3.813
MS.32          	12.767         	3.814
MS.33          	12.742         	3.82
MS.34          	12.717         	3.807
MS.35          	12.693         	3.815
MS.36          	12.667         	3.803
MS.37          	12.64          	3.813
MS.38          	12.615         	3.802
MS.39          	12.59          	3.807
MS.40          	12.565         	3.823
MS.41          	12.54          	3.81
MS.42          	12.515         	3.808
MS.43          	12.49          	3.809
MS.44          	12.465         	3.803
MS.45          	12.44          	3.793
MS.46          	12.415         	3.785
MS.47          	12.39          	3.803
MS.48          	12.365         	3.783
MS.49          	12.342         	3.802
MS.50          	12.318         	3.779
MS.51          	12.292         	3.783
MS.52          	12.267         	3.79
MS.53          	12.242         	3.804
MS.54          	12.217         	3.795
MS.55          	12.195         	3.802
MS.56          	12.17          	3.796
MS.57          	12.145         	3.773
MS.58          	12.12          	3.782
MS.59          	12.097         	3.785
MS.60          	12.072         	3.778
MS.61          	12.047         	3.795
MS.62          	12.025         	3.787
MS.63          	12             	3.782
MS.64          	11.977         	3.799
MS.65          	11.952         	3.773
MS.66          	11.927         	3.771
MS.67          	11.905         	3.784
MS.68          	11.88          	3.777
MS.69          	11.858         	3.774
MS.70          	11.832         	3.771
MS.71          	11.81          	3.773
MS.72          	11.787         	3.776
MS.73          	11.762         	3.766
MS.74          	11.74          	3.762
MS.75          	11.715         	3.768
MS.76          	11.693         	3.762
MS.77          	11.67          	3.77
MS.78          	11.645         	3.763
MS.79          	11.622         	3.757
MS.80          	11.6           	3.759
MS.81          	11.575         	3.755
MS.82          	11.552         	3.735
MS.83          	11.53          	3.741
MS.84          	11.507         	3.759
MS.85          	11.485         	3.763
MS.86          	11.46          	3.77
MS.87          	11.438         	3.752
MS.88          	11.415         	3.748
MS.89          	11.392         	3.76
MS.90          	11.37          	3.742
MS.91          	11.347         	3.752
MS.92          	11.325         	3.759
MS.93          	11.302         	3.754
MS.94          	11.28          	3.758
MS.95          	11.257         	3.752
MS.96          	11.235         	3.754
MS.97          	11.212         	3.733
MS.98          	11.19          	3.741
MS.99          	11.167         	3.734
MS.100         	11.145         	3.742
MS.101         	11.122         	3.729
MS.102         	11.1           	3.733
MS.103         	11.077         	3.735
MS.104         	11.055         	3.71
MS.105         	11.032         	3.703
MS.106         	11.012         	3.71
MS.107         	10.99          	3.697
MS.108         	10.967         	3.727
MS.109         	10.945         	3.707
MS.110         	10.925         	3.707
MS.111         	10.903         	3.707
MS.112         	10.88          	3.696
MS.113         	10.858         	3.677
MS.114         	10.837         	3.685
MS.115         	10.815         	3.672
MS.116         	10.792         	3.676
MS.117         	10.773         	3.693
MS.118         	10.75          	3.659
MS.119         	10.73          	3.672
MS.120         	10.707         	3.697
MS.121         	10.685         	3.683
MS.122         	10.665         	3.671
MS.123         	10.642         	3.643
MS.124         	10.622         	3.648
MS.125         	10.6           	3.635
MS.126         	10.58          	3.64
MS.127         	10.557         	3.636
MS.128         	10.537         	3.665
MS.129         	10.517         	3.645
MS.130         	10.495         	3.626
MS.131         	10.475         	3.641
MS.132         	10.452         	3.659
MS.133         	10.432         	3.613
MS.134         	10.412         	3.636
MS.135         	10.39          	3.608
MS.136         	10.37          	3.638
MS.137         	10.35          	3.612
MS.138         	10.33          	3.595
MS.139         	10.307         	3.591
MS.140         	10.287         	3.593
MS.141         	10.267         	3.589
MS.142         	10.247         	3.575
MS.143         	10.225         	3.596
MS.144         	10.205         	3.571
MS.145         	10.185         	3.557
MS.146         	10.165         	3.563
MS.147         	10.145         	3.588
MS.148         	10.125         	3.579
MS.149         	10.105         	3.6
MS.150         	10.085         	3.539
MS.151         	10.065         	3.544
MS.152         	10.042         	3.525
MS.153         	10.023         	3.54
MS.154         	10.002         	3.54
MS.155         	9.983          	3.528
MS.156         	9.962          	3.519
MS.157         	9.945          	3.577
MS.158         	9.925          	3.524
MS.159         	9.905          	3.462
MS.160         	9.885          	3.481
MS.161         	9.865          	3.542
MS.162         	9.845          	3.442
MS.163         	9.825          	3.446
MS.164         	9.805          	3.468
MS.165         	9.785          	3.438
MS.166         	9.767          	3.447
MS.167         	9.747          	3.485
MS.168         	9.727          	3.511
MS.169         	9.707          	3.423
MS.170         	9.688          	3.456
MS.171         	9.67           	3.477
MS.172         	9.65           	3.401
MS.173         	9.63           	3.506
MS.174         	9.613          	3.392
MS.175         	9.592          	3.391
MS.176         	9.573          	3.441
MS.177         	9.555          	3.373
MS.178         	9.535          	3.377
MS.179         	9.515          	3.369
MS.180         	9.497          	3.35
MS.181         	9.477          	3.381
MS.182         	9.46           	3.359
MS.183         	9.44           	3.333
MS.184         	9.42           	3.299
MS.185         	9.403          	3.328
MS.186         	9.382          	3.325
MS.187         	9.365          	3.292
MS.188         	9.345          	3.33
MS.189         	9.327          	3.314
MS.190         	9.307          	3.279
MS.191         	9.29           	3.296
MS.192         	9.273          	3.281
MS.193         	9.252          	3.278
MS.194         	9.235          	3.264
MS.195         	9.215          	3.223
MS.196         	9.198          	3.244
MS.197         	9.18           	3.224
MS.198         	9.16           	3.238
MS.199         	9.142          	3.212
MS.200         	9.125          	3.219
MS.201         	9.105          	3.223
MS.202         	9.087          	3.195
MS.203         	9.07           	3.159
MS.204         	9.052          	3.16
MS.205         	9.033          	3.189
MS.206         	9.015          	3.085
MS.207         	8.997          	3.159
MS.208         	8.98           	3.145
MS.209         	8.962          	3.111
MS.210         	8.943          	3.151
MS.211         	8.925          	3.129
MS.212         	8.908          	3.123
MS.213         	8.89           	3.068
MS.214         	8.872          	3.121
MS.215         	8.855          	3.093
MS.216         	8.837          	3.055
MS.217         	8.82           	3.085
MS.218         	8.802          	3.089
MS.219         	8.785          	3.073
MS.220         	8.767          	3.06
MS.221         	8.75           	3.096
MS.222         	8.733          	3.003
MS.223         	8.715          	3.024
MS.224         	8.698          	3.053
MS.225         	8.68           	3.013
MS.226         	8.662          	3.026
MS.227         	8.645          	3.029
MS.228         	8.627          	2.979
MS.229         	8.61           	2.953
MS.230         	8.592          	3.035
MS.231         	8.575          	2.887
MS.232         	8.557          	2.941
MS.233         	8.542          	2.98
MS.234         	8.525          	2.979
MS.235         	8.507          	2.93
MS.236         	8.49           	2.919
MS.237         	8.472          	2.918
MS.238         	8.457          	2.932
MS.239         	8.44           	2.943
MS.240         	8.422          	2.937
MS.241         	8.405          	2.957
MS.242         	8.39           	2.899
MS.243         	8.372          	2.896
MS.244         	8.355          	2.939
MS.245         	8.34           	2.944
MS.246         	8.323          	2.9
MS.247         	8.305          	2.865
MS.248         	8.29           	2.883
MS.249         	8.273          	2.883
MS.250         	8.255          	2.836
MS.251         	8.24           	2.899
MS.252         	8.222          	2.883
MS.253         	8.207          	2.837
MS.254         	8.19           	2.805
MS.255         	8.175          	2.855
MS.256         	8.158          	2.875
MS.257         	8.142          	2.853
MS.258         	8.125          	2.746
MS.259         	8.11           	2.817
MS.260         	8.092          	2.841
MS.261         	8.077          	2.855
MS.262         	8.06           	2.781
MS.263         	8.045          	2.905
MS.264         	8.028          	2.797
MS.265         	8.012          	2.777
MS.266         	7.995          	2.781
MS.267         	7.98           	2.833
MS.268         	7.965          	2.833
MS.269         	7.947          	2.773
MS.270         	7.932          	2.78
MS.271         	7.918          	2.748
MS.272         	7.9            	2.756
MS.273         	7.885          	2.762
MS.274         	7.87           	2.714
MS.275         	7.852          	2.73
MS.276         	7.837          	2.701
MS.277         	7.822          	2.709
MS.278         	7.807          	2.707
MS.279         	7.79           	2.74
MS.280         	7.775          	2.774
MS.281         	7.76           	2.642
MS.282         	7.745          	2.704
MS.283         	7.73           	2.646
MS.284         	7.712          	2.678
MS.285         	7.697          	2.695
MS.286         	7.682          	2.646
MS.287         	7.668          	2.642
MS.288         	7.652          	2.607
MS.289         	7.637          	2.614
MS.290         	7.622          	2.582
MS.291         	7.605          	2.587
MS.292         	7.59           	2.526
MS.293         	7.575          	2.609
MS.294         	7.56           	2.53
MS.295         	7.545          	2.672
MS.296         	7.53           	2.493
MS.297         	7.515          	2.415
MS.298         	7.5            	2.446
MS.299         	7.485          	2.571
MS.300         	7.47           	2.551
MS.301         	7.455          	2.457
MS.302         	7.44           	2.6
MS.303         	7.425          	2.343
MS.304         	7.41           	2.487
MS.305         	7.395          	2.49
MS.306         	7.382          	2.527
MS.307         	7.367          	2.443
MS.308         	7.352          	2.386
MS.309         	7.337          	2.432
MS.310         	7.322          	2.434
MS.311         	7.307          	2.386
MS.312         	7.293          	2.388
MS.313         	7.277          	2.353
MS.314         	7.265          	2.446
MS.315         	7.25           	2.397
MS.316         	7.235          	2.274
MS.317         	7.22           	2.288
MS.318         	7.207          	2.208
MS.319         	7.192          	2.269
MS.320         	7.177          	2.199
MS.321         	7.162          	2.23
MS.322         	7.15           	2.192
MS.323         	7.135          	2.089
MS.324         	7.12           	2.239
MS.325         	7.105          	2.086
MS.326         	7.092          	2.189
MS.327         	7.077          	2.048
MS.328         	7.062          	2.146
MS.329         	7.05           	2.041
MS.330         	7.035          	2.012
MS.331         	7.023          	2.097
MS.332         	7.007          	1.97
MS.333         	6.992          	2.096
MS.334         	6.98           	2.012
MS.335         	6.965          	1.948
MS.336         	6.952          	2.034
MS.337         	6.938          	1.913
MS.338         	6.922          	1.83
MS.339         	6.91           	1.975
MS.340         	6.895          	1.926
MS.341         	6.882          	1.795
MS.342         	6.867          	2.039
MS.343         	6.855          	1.818
MS.344         	6.84           	2.016
MS.345         	6.827          	1.719
MS.346         	6.815          	1.805
MS.347         	6.8            	1.719
MS.348         	6.787          	1.788
MS.349         	6.773          	1.724
MS.350         	6.76           	1.72
MS.351         	6.745          	1.599
MS.352         	6.733          	1.694
MS.353         	6.72           	1.815
MS.354         	6.705          	1.698
MS.355         	6.692          	1.693
MS.356         	6.68           	1.616
MS.357         	6.665          	1.663
MS.358         	6.652          	1.566
MS.359         	6.64           	1.437
MS.360         	6.625          	1.678
MS.361         	6.612          	1.815
MS.362         	6.6            	1.676
MS.363         	6.585          	1.681
MS.364         	6.572          	1.585
MS.365         	6.56           	1.633
MS.366         	6.547          	1.476
MS.367         	6.532          	1.506
MS.368         	6.52           	1.52
MS.369         	6.507          	1.547
MS.370         	6.495          	1.562
MS.371         	6.483          	1.483
MS.372         	6.467          	1.518
MS.373         	6.455          	1.535
MS.374         	6.442          	1.411
MS.375         	6.43           	1.419
MS.376         	6.418          	1.439
MS.377         	6.405          	1.363
MS.378         	6.392          	1.343
MS.379         	6.378          	1.366
MS.380         	6.365          	1.29
MS.381         	6.352          	1.355
MS.382         	6.34           	1.225
MS.383         	6.327          	1.41
MS.384         	6.315          	1.169
MS.385         	6.302          	1.182
MS.386         	6.29           	1.294
MS.387         	6.277          	1.196
MS.388         	6.265          	1.313
MS.389         	6.253          	1.219
MS.390         	6.24           	1.182
MS.391         	6.227          	1.104
MS.392         	6.215          	1.177
MS.393         	6.202          	1.141
MS.394         	6.19           	1.141
MS.395         	6.177          	1.12
MS.396         	6.165          	1.146
MS.397         	6.152          	1.052
MS.398         	6.14           	1.053
MS.399         	6.128          	0.972
MS.400         	6.117          	1.143
MS.401         	6.105          	1.012
MS.402         	6.092          	0.997
MS.403         	6.08           	0.966
MS.404         	6.067          	0.955
MS.405         	6.055          	0.912
MS.406         	6.043          	0.899
MS.407         	6.03           	0.978
MS.408         	6.02           	0.809
MS.409         	6.007          	0.916
MS.410         	5.995          	0.862
MS.411         	5.983          	0.856
MS.412         	5.97           	0.901
MS.413         	5.96           	0.919
MS.414         	5.947          	0.888
MS.415         	5.935          	0.815
MS.416         	5.922          	0.872
MS.417         	5.912          	0.739
MS.418         	5.9            	0.804
MS.419         	5.887          	0.824
MS.420         	5.878          	0.82
MS.421         	5.865          	0.857
MS.422         	5.852          	0.859
MS.423         	5.842          	0.787
MS.424         	5.83           	0.686
MS.425         	5.817          	0.784
MS.426         	5.807          	0.783
MS.427         	5.795          	0.8
MS.428         	5.782          	0.66
MS.429         	5.773          	0.745
MS.430         	5.76           	0.634
MS.431         	5.747          	0.651
MS.432         	5.737          	0.806
MS.433         	5.725          	0.673
MS.434         	5.715          	0.692
MS.435         	5.702          	0.67
MS.436         	5.692          	0.654
MS.437         	5.68           	0.638
MS.438         	5.668          	0.526
MS.439         	5.657          	0.596
MS.440         	5.645          	0.599
MS.441         	5.635          	0.533
MS.442         	5.622          	0.601
MS.443         	5.612          	0.749
MS.444         	5.6            	0.571
MS.445         	5.59           	0.583
MS.446         	5.577          	0.538
MS.447         	5.567          	0.571
MS.448         	5.557          	0.568
MS.449         	5.545          	0.529
MS.450         	5.535          	0.54
MS.451         	5.523          	0.529
MS.452         	5.512          	0.507
MS.453         	5.5            	0.562
MS.454         	5.49           	0.505
MS.455         	5.48           	0.549
MS.456         	5.467          	0.516
MS.457         	5.457          	0.494
MS.458         	5.447          	0.524
MS.459         	5.435          	0.538
MS.460         	5.425          	0.493
MS.461         	5.415          	0.457
MS.462         	5.402          	0.515
MS.463         	5.392          	0.494
MS.464         	5.382          	0.501
MS.465         	5.37           	0.416
MS.466         	5.36           	0.4
MS.467         	5.35           	0.404
MS.468         	5.338          	0.389
MS.469         	5.327          	0.449
MS.470         	5.318          	0.449
MS.471         	5.307          	0.366
MS.472         	5.295          	0.417
MS.473         	5.285          	0.452
MS.474         	5.275          	0.427
MS.475         	5.265          	0.346
MS.476         	5.255          	0.391
MS.477         	5.242          	0.306
MS.478         	5.233          	0.341
MS.479         	5.222          	0.344
MS.480         	5.213          	0.343
MS.481         	5.202          	0.275
MS.482         	5.19           	0.398
MS.483         	5.18           	0.258
MS.484         	5.17           	0.35
MS.485         	5.16           	0.367
MS.486         	5.15           	0.305
MS.487         	5.14           	0.243
MS.488         	5.13           	0.263
MS.489         	5.12           	0.203
MS.490         	5.108          	0.291
MS.491         	5.097          	0.278
MS.492         	5.088          	0.223
MS.493         	5.077          	0.22
MS.494         	5.068          	0.199
MS.495         	5.057          	0.18
MS.496         	5.047          	0.192
MS.497         	5.037          	0.182
MS.498         	5.027          	0.179
MS.499         	5.017          	0.204
MS.500         	5.007          	0.173
MS.501         	4.997          	0.163
MS.502         	4.987          	0.134
MS.503         	4.977          	0.17
