File:              	C:\Qtrac\Data\ME2C30710B.QZD
Name:              	 ST14N
Protocol:          	MSCAN-MV
Date:              	10/7/23
Date of birth:     	14/4/00
Age:               	23
Sex:               	M
Temperature:       	31.3
S/R sites:         	Knee CF-TA
NC/disease:        	NC
Operator:          	BY
Comments:
M-SCAN DATA (Repeat 1/3, 10.7-3.6m)
Scanpts: 11, 23, 543, 578
Stim. (mA)     	Amp. (mV)
MS.1           	20.5           	5.911
MS.2           	20.5           	5.898
MS.3           	20.5           	5.899
MS.4           	20.5           	5.864
MS.5           	20.5           	5.886
MS.6           	20.5           	5.874
MS.7           	20.5           	5.878
MS.8           	20.5           	5.822
MS.9           	20.5           	5.884
MS.10          	20.5           	5.873
MS.11          	20.5           	5.891
MS.12          	20.5           	5.883
MS.13          	20.5           	5.889
MS.14          	20.5           	5.88
MS.15          	20.5           	5.877
MS.16          	20.5           	5.886
MS.17          	20.5           	5.878
MS.18          	20.5           	5.897
MS.19          	20.5           	5.889
MS.20          	20.5           	5.899
MS.21          	20.5           	5.889
MS.22          	20.5           	5.892
MS.23          	20.5           	5.887
MS.24          	20.417         	5.886
MS.25          	20.377         	5.88
MS.26          	20.337         	5.884
MS.27          	20.295         	5.803
MS.28          	20.255         	5.876
MS.29          	20.215         	5.807
MS.30          	20.175         	5.905
MS.31          	20.135         	5.83
MS.32          	20.095         	5.88
MS.33          	20.055         	5.811
MS.34          	20.015         	5.896
MS.35          	19.975         	5.817
MS.36          	19.935         	5.804
MS.37          	19.895         	5.815
MS.38          	19.855         	5.81
MS.39          	19.815         	5.803
MS.40          	19.775         	5.81
MS.41          	19.735         	5.819
MS.42          	19.695         	5.82
MS.43          	19.657         	5.829
MS.44          	19.618         	5.796
MS.45          	19.577         	5.79
MS.46          	19.54          	5.738
MS.47          	19.5           	5.799
MS.48          	19.46          	5.809
MS.49          	19.422         	5.783
MS.50          	19.382         	5.756
MS.51          	19.345         	5.766
MS.52          	19.305         	5.781
MS.53          	19.267         	5.771
MS.54          	19.23          	5.755
MS.55          	19.19          	5.798
MS.56          	19.153         	5.736
MS.57          	19.115         	5.79
MS.58          	19.075         	5.801
MS.59          	19.038         	5.734
MS.60          	19             	5.761
MS.61          	18.962         	5.748
MS.62          	18.925         	5.814
MS.63          	18.885         	5.737
MS.64          	18.847         	5.777
MS.65          	18.81          	5.823
MS.66          	18.772         	5.736
MS.67          	18.735         	5.77
MS.68          	18.698         	5.745
MS.69          	18.66          	5.757
MS.70          	18.622         	5.763
MS.71          	18.585         	5.756
MS.72          	18.55          	5.748
MS.73          	18.512         	5.772
MS.74          	18.475         	5.753
MS.75          	18.438         	5.707
MS.76          	18.403         	5.74
MS.77          	18.365         	5.759
MS.78          	18.327         	5.768
MS.79          	18.29          	5.739
MS.80          	18.255         	5.756
MS.81          	18.217         	5.699
MS.82          	18.182         	5.752
MS.83          	18.145         	5.722
MS.84          	18.11          	5.792
MS.85          	18.073         	5.71
MS.86          	18.038         	5.703
MS.87          	18             	5.729
MS.88          	17.965         	5.688
MS.89          	17.93          	5.706
MS.90          	17.892         	5.698
MS.91          	17.858         	5.677
MS.92          	17.823         	5.681
MS.93          	17.785         	5.682
MS.94          	17.75          	5.647
MS.95          	17.715         	5.657
MS.96          	17.68          	5.696
MS.97          	17.645         	5.661
MS.98          	17.61          	5.599
MS.99          	17.575         	5.665
MS.100         	17.54          	5.656
MS.101         	17.505         	5.665
MS.102         	17.47          	5.652
MS.103         	17.435         	5.634
MS.104         	17.4           	5.635
MS.105         	17.365         	5.615
MS.106         	17.33          	5.641
MS.107         	17.295         	5.672
MS.108         	17.26          	5.607
MS.109         	17.225         	5.551
MS.110         	17.192         	5.607
MS.111         	17.157         	5.618
MS.112         	17.122         	5.617
MS.113         	17.09          	5.648
MS.114         	17.055         	5.574
MS.115         	17.02          	5.55
MS.116         	16.987         	5.57
MS.117         	16.952         	5.496
MS.118         	16.917         	5.551
MS.119         	16.885         	5.632
MS.120         	16.85          	5.544
MS.121         	16.817         	5.486
MS.122         	16.785         	5.538
MS.123         	16.75          	5.424
MS.124         	16.717         	5.516
MS.125         	16.682         	5.462
MS.126         	16.65          	5.464
MS.127         	16.618         	5.47
MS.128         	16.583         	5.378
MS.129         	16.55          	5.505
MS.130         	16.517         	5.362
MS.131         	16.485         	5.43
MS.132         	16.452         	5.429
MS.133         	16.417         	5.289
MS.134         	16.385         	5.379
MS.135         	16.352         	5.347
MS.136         	16.32          	5.24
MS.137         	16.288         	5.279
MS.138         	16.255         	5.261
MS.139         	16.222         	5.306
MS.140         	16.19          	5.276
MS.141         	16.157         	5.245
MS.142         	16.125         	5.306
MS.143         	16.092         	5.158
MS.144         	16.062         	5.316
MS.145         	16.03          	5.229
MS.146         	15.997         	5.19
MS.147         	15.965         	5.181
MS.148         	15.932         	5.201
MS.149         	15.902         	5.21
MS.150         	15.87          	5.143
MS.151         	15.837         	5.049
MS.152         	15.807         	5.169
MS.153         	15.775         	5.154
MS.154         	15.742         	5.115
MS.155         	15.712         	5.035
MS.156         	15.68          	5
MS.157         	15.65          	5.096
MS.158         	15.617         	5.088
MS.159         	15.587         	5.111
MS.160         	15.555         	4.913
MS.161         	15.525         	5.082
MS.162         	15.492         	4.991
MS.163         	15.462         	4.899
MS.164         	15.432         	5.007
MS.165         	15.4           	4.958
MS.166         	15.37          	4.937
MS.167         	15.34          	4.949
MS.168         	15.307         	4.831
MS.169         	15.277         	4.797
MS.170         	15.247         	4.725
MS.171         	15.217         	4.886
MS.172         	15.188         	4.785
MS.173         	15.157         	4.731
MS.174         	15.125         	4.734
MS.175         	15.095         	4.713
MS.176         	15.065         	4.598
MS.177         	15.035         	4.698
MS.178         	15.005         	4.635
MS.179         	14.975         	4.621
MS.180         	14.945         	4.662
MS.181         	14.915         	4.522
MS.182         	14.885         	4.545
MS.183         	14.858         	4.478
MS.184         	14.827         	4.631
MS.185         	14.797         	4.504
MS.186         	14.767         	4.54
MS.187         	14.737         	4.552
MS.188         	14.707         	4.431
MS.189         	14.68          	4.364
MS.190         	14.65          	4.371
MS.191         	14.62          	4.377
MS.192         	14.59          	4.364
MS.193         	14.562         	4.478
MS.194         	14.532         	4.307
MS.195         	14.505         	4.442
MS.196         	14.475         	4.313
MS.197         	14.445         	4.467
MS.198         	14.417         	4.301
MS.199         	14.387         	4.299
MS.200         	14.36          	4.326
MS.201         	14.33          	4.213
MS.202         	14.302         	4.254
MS.203         	14.273         	4.206
MS.204         	14.245         	4.3
MS.205         	14.217         	4.164
MS.206         	14.188         	4.108
MS.207         	14.16          	4.05
MS.208         	14.132         	4.14
MS.209         	14.102         	4.225
MS.210         	14.075         	4.099
MS.211         	14.047         	4.079
MS.212         	14.02          	3.992
MS.213         	13.99          	4.048
MS.214         	13.962         	3.98
MS.215         	13.935         	4.06
MS.216         	13.907         	3.9
MS.217         	13.88          	3.925
MS.218         	13.852         	3.961
MS.219         	13.825         	3.947
MS.220         	13.797         	3.97
MS.221         	13.77          	3.948
MS.222         	13.742         	3.909
MS.223         	13.715         	3.887
MS.224         	13.688         	3.9
MS.225         	13.66          	3.862
MS.226         	13.632         	3.855
MS.227         	13.605         	3.886
MS.228         	13.577         	3.759
MS.229         	13.55          	3.73
MS.230         	13.523         	3.73
MS.231         	13.497         	3.738
MS.232         	13.47          	3.729
MS.233         	13.443         	3.763
MS.234         	13.415         	3.62
MS.235         	13.39          	3.649
MS.236         	13.362         	3.69
MS.237         	13.335         	3.669
MS.238         	13.307         	3.606
MS.239         	13.282         	3.563
MS.240         	13.255         	3.646
MS.241         	13.23          	3.549
MS.242         	13.202         	3.483
MS.243         	13.177         	3.497
MS.244         	13.15          	3.494
MS.245         	13.122         	3.375
MS.246         	13.097         	3.315
MS.247         	13.072         	3.364
MS.248         	13.045         	3.385
MS.249         	13.02          	3.304
MS.250         	12.992         	3.298
MS.251         	12.967         	3.301
MS.252         	12.943         	3.276
MS.253         	12.915         	3.198
MS.254         	12.89          	3.176
MS.255         	12.865         	3.126
MS.256         	12.837         	3.148
MS.257         	12.812         	3.027
MS.258         	12.787         	3.082
MS.259         	12.762         	2.992
MS.260         	12.735         	3.068
MS.261         	12.71          	2.877
MS.262         	12.685         	2.905
MS.263         	12.66          	2.787
MS.264         	12.635         	2.836
MS.265         	12.61          	2.961
MS.266         	12.585         	2.763
MS.267         	12.56          	2.756
MS.268         	12.532         	2.698
MS.269         	12.507         	2.737
MS.270         	12.483         	2.585
MS.271         	12.457         	2.586
MS.272         	12.435         	2.645
MS.273         	12.41          	2.546
MS.274         	12.385         	2.554
MS.275         	12.36          	2.493
MS.276         	12.335         	2.526
MS.277         	12.31          	2.327
MS.278         	12.285         	2.299
MS.279         	12.26          	2.383
MS.280         	12.238         	2.307
MS.281         	12.212         	2.309
MS.282         	12.188         	2.287
MS.283         	12.162         	2.211
MS.284         	12.14          	2.217
MS.285         	12.115         	2.247
MS.286         	12.09          	2.171
MS.287         	12.068         	2.233
MS.288         	12.042         	2.181
MS.289         	12.017         	2.127
MS.290         	11.995         	2.197
MS.291         	11.97          	2.091
MS.292         	11.947         	2.144
MS.293         	11.922         	2.095
MS.294         	11.898         	2.131
MS.295         	11.875         	1.988
MS.296         	11.85          	1.981
MS.297         	11.827         	2.026
MS.298         	11.805         	2.002
MS.299         	11.78          	1.982
MS.300         	11.757         	1.856
MS.301         	11.733         	1.967
MS.302         	11.71          	1.915
MS.303         	11.688         	1.764
MS.304         	11.662         	1.811
MS.305         	11.64          	1.835
MS.306         	11.617         	1.75
MS.307         	11.592         	1.78
MS.308         	11.57          	1.714
MS.309         	11.547         	1.736
MS.310         	11.525         	1.78
MS.311         	11.5           	1.675
MS.312         	11.477         	1.654
MS.313         	11.455         	1.574
MS.314         	11.432         	1.605
MS.315         	11.41          	1.617
MS.316         	11.387         	1.564
MS.317         	11.363         	1.588
MS.318         	11.34          	1.493
MS.319         	11.318         	1.571
MS.320         	11.295         	1.472
MS.321         	11.273         	1.488
MS.322         	11.25          	1.44
MS.323         	11.227         	1.381
MS.324         	11.205         	1.379
MS.325         	11.182         	1.381
MS.326         	11.16          	1.375
MS.327         	11.137         	1.464
MS.328         	11.117         	1.341
MS.329         	11.095         	1.335
MS.330         	11.073         	1.387
MS.331         	11.05          	1.278
MS.332         	11.028         	1.338
MS.333         	11.005         	1.275
MS.334         	10.985         	1.235
MS.335         	10.962         	1.26
MS.336         	10.94          	1.239
MS.337         	10.917         	1.174
MS.338         	10.898         	1.105
MS.339         	10.875         	1.208
MS.340         	10.852         	1.131
MS.341         	10.83          	1.08
MS.342         	10.81          	1.12
MS.343         	10.787         	1.096
MS.344         	10.767         	1.111
MS.345         	10.745         	1.08
MS.346         	10.722         	1.05
MS.347         	10.702         	1.083
MS.348         	10.68          	0.992
MS.349         	10.66          	1.037
MS.350         	10.637         	0.984
MS.351         	10.617         	0.97
MS.352         	10.595         	1.026
MS.353         	10.575         	0.952
MS.354         	10.552         	0.979
MS.355         	10.532         	0.947
MS.356         	10.51          	0.936
MS.357         	10.49          	0.839
MS.358         	10.47          	0.88
MS.359         	10.448         	0.854
MS.360         	10.427         	0.897
MS.361         	10.407         	0.901
MS.362         	10.385         	0.894
MS.363         	10.365         	0.818
MS.364         	10.345         	0.856
MS.365         	10.323         	0.728
MS.366         	10.302         	0.801
MS.367         	10.282         	0.765
MS.368         	10.262         	0.795
MS.369         	10.24          	0.811
MS.370         	10.22          	0.782
MS.371         	10.2           	0.547
MS.372         	10.18          	0.555
MS.373         	10.16          	0.648
MS.374         	10.14          	0.609
MS.375         	10.12          	0.761
MS.376         	10.1           	0.564
MS.377         	10.077         	0.603
MS.378         	10.057         	0.608
MS.379         	10.037         	0.577
MS.380         	10.017         	0.613
MS.381         	9.997          	0.627
MS.382         	9.977          	0.506
MS.383         	9.957          	0.472
MS.384         	9.938          	0.519
MS.385         	9.917          	0.487
MS.386         	9.9            	0.444
MS.387         	9.88           	0.397
MS.388         	9.86           	0.408
MS.389         	9.84           	0.377
MS.390         	9.82           	0.398
MS.391         	9.8            	0.497
MS.392         	9.78           	0.363
MS.393         	9.762          	0.344
MS.394         	9.742          	0.341
MS.395         	9.722          	0.364
MS.396         	9.702          	0.311
MS.397         	9.682          	0.31
MS.398         	9.665          	0.285
MS.399         	9.645          	0.319
MS.400         	9.625          	0.284
MS.401         	9.608          	0.292
MS.402         	9.587          	0.29
MS.403         	9.568          	0.247
MS.404         	9.55           	0.259
MS.405         	9.53           	0.233
MS.406         	9.51           	0.242
MS.407         	9.492          	0.229
MS.408         	9.472          	0.208
MS.409         	9.455          	0.179
MS.410         	9.435          	0.215
MS.411         	9.415          	0.182
MS.412         	9.398          	0.207
MS.413         	9.377          	0.191
MS.414         	9.36           	0.201
MS.415         	9.34           	0.189
MS.416         	9.323          	0.161
MS.417         	9.305          	0.172
MS.418         	9.285          	0.158
MS.419         	9.267          	0.163
MS.420         	9.247          	0.162
MS.421         	9.23           	0.138
MS.422         	9.21           	0.154
MS.423         	9.193          	0.118
MS.424         	9.175          	0.117
MS.425         	9.155          	0.124
MS.426         	9.137          	0.109
MS.427         	9.12           	0.093
MS.428         	9.102          	0.132
MS.429         	9.082          	0.098
MS.430         	9.065          	0.078
MS.431         	9.047          	0.095
MS.432         	9.03           	0.081
MS.433         	9.01           	0.092
MS.434         	8.992          	0.089
MS.435         	8.975          	0.068
MS.436         	8.957          	0.079
MS.437         	8.94           	0.085
MS.438         	8.92           	0.081
MS.439         	8.903          	0.059
MS.440         	8.885          	0.061
MS.441         	8.867          	0.057
MS.442         	8.85           	0.06
MS.443         	8.832          	0.068
MS.444         	8.815          	0.085
MS.445         	8.797          	0.05
MS.446         	8.78           	0.055
MS.447         	8.762          	0.059
MS.448         	8.745          	0.052
MS.449         	8.727          	0.051
MS.450         	8.71           	0.044
MS.451         	8.693          	0.035
MS.452         	8.675          	0.035
MS.453         	8.658          	0.042
MS.454         	8.64           	0.046
MS.455         	8.622          	0.037
MS.456         	8.605          	0.037
MS.457         	8.587          	0.041
MS.458         	8.573          	0.041
MS.459         	8.555          	0.052
MS.460         	8.537          	0.035
MS.461         	8.52           	0.038
MS.462         	8.502          	0.043
MS.463         	8.485          	0.045
MS.464         	8.47           	0.045
MS.465         	8.452          	0.037
MS.466         	8.435          	0.033
MS.467         	8.417          	0.005
MS.468         	8.403          	0.034
MS.469         	8.385          	0.042
MS.470         	8.367          	0.034
MS.471         	8.352          	0.044
MS.472         	8.335          	0.031
MS.473         	8.318          	0.032
MS.474         	8.302          	0.035
MS.475         	8.285          	0.036
MS.476         	8.267          	0.038
MS.477         	8.252          	0.001
MS.478         	8.235          	0.035
MS.479         	8.22           	0.027
MS.480         	8.202          	-0.001
MS.481         	8.185          	0.004
MS.482         	8.17           	0.03
MS.483         	8.153          	0.001
MS.484         	8.137          	0.000
MS.485         	8.12           	0.024
MS.486         	8.105          	-0.005
MS.487         	8.087          	0.004
MS.488         	8.073          	0.002
MS.489         	8.055          	0.001
MS.490         	8.04           	0.002
MS.491         	8.025          	0.003
MS.492         	8.007          	-0.003
MS.493         	7.992          	-0.002
MS.494         	7.975          	0.005
MS.495         	7.96           	-0.007
MS.496         	7.945          	0.032
MS.497         	7.927          	-0.003
MS.498         	7.912          	-0.006
MS.499         	7.898          	-0.003
MS.500         	7.88           	-0.004
MS.501         	7.865          	0.003
MS.502         	7.85           	0.027
MS.503         	7.832          	-0.009
