File:              	.QZD
Name:              	 LL19N
Protocol:          	MSCAN-MV
Date:              	4/7/23
Date of birth:     	19/1/96
Age:               	27
Sex:               	M
Temperature:       	30.5
S/R sites:         	Knee CF-TA
NC/disease:        	NC
Operator:          	BY
Comments:
M-SCAN DATA (Repeat 1/3, 9.8-1.7m)
Scanpts: 152, 167, 621, 656
Stim. (mA)     	Amp. (mV)
MS.1           	12.5           	6.998
MS.2           	12.5           	7.067
MS.3           	12.5           	7.026
MS.4           	12.5           	7.106
MS.5           	12.5           	7.07
MS.6           	12.5           	7.11
MS.7           	12.5           	7.118
MS.8           	12.5           	7.003
MS.9           	12.5           	7.012
MS.10          	12.5           	6.987
MS.11          	12.5           	7.135
MS.12          	12.5           	7.036
MS.13          	12.5           	7.067
MS.14          	12.5           	7.04
MS.15          	12.5           	7.078
MS.16          	12.5           	7.171
MS.17          	12.5           	7.09
MS.18          	12.5           	7.112
MS.19          	12.5           	7.095
MS.20          	12.5           	6.998
MS.21          	12.5           	7.117
MS.22          	12.5           	7.103
MS.23          	12.5           	7.092
MS.24          	12.45          	7.109
MS.25          	12.425         	7.063
MS.26          	12.4           	7.152
MS.27          	12.375         	7.258
MS.28          	12.35          	7.028
MS.29          	12.325         	7.09
MS.30          	12.302         	7.061
MS.31          	12.278         	7.107
MS.32          	12.252         	7.146
MS.33          	12.227         	7.102
MS.34          	12.202         	7.21
MS.35          	12.18          	7.12
MS.36          	12.155         	7.135
MS.37          	12.13          	7.134
MS.38          	12.108         	7.04
MS.39          	12.082         	7.135
MS.40          	12.057         	7.13
MS.41          	12.035         	7.144
MS.42          	12.01          	7.072
MS.43          	11.985         	7.075
MS.44          	11.962         	7.095
MS.45          	11.938         	7.148
MS.46          	11.915         	7.028
MS.47          	11.89          	7.098
MS.48          	11.867         	7.09
MS.49          	11.842         	7.078
MS.50          	11.82          	7.042
MS.51          	11.795         	7.079
MS.52          	11.773         	7.042
MS.53          	11.747         	7.067
MS.54          	11.725         	7.068
MS.55          	11.702         	7.076
MS.56          	11.677         	7.037
MS.57          	11.655         	7.118
MS.58          	11.632         	7.123
MS.59          	11.608         	7.011
MS.60          	11.585         	7.037
MS.61          	11.562         	7.15
MS.62          	11.54          	7.2
MS.63          	11.515         	7.1
MS.64          	11.492         	7.107
MS.65          	11.47          	7.206
MS.66          	11.447         	7.091
MS.67          	11.425         	7.117
MS.68          	11.403         	7.152
MS.69          	11.377         	7.1
MS.70          	11.355         	7.093
MS.71          	11.332         	7.166
MS.72          	11.31          	7.155
MS.73          	11.287         	7.084
MS.74          	11.265         	7.148
MS.75          	11.242         	7.179
MS.76          	11.22          	7.143
MS.77          	11.197         	7.119
MS.78          	11.175         	7.135
MS.79          	11.153         	7.144
MS.80          	11.13          	7.133
MS.81          	11.108         	7.088
MS.82          	11.087         	7.147
MS.83          	11.065         	7.116
MS.84          	11.042         	7.041
MS.85          	11.02          	7.159
MS.86          	10.997         	7.151
MS.87          	10.975         	7.136
MS.88          	10.955         	7.156
MS.89          	10.932         	7.111
MS.90          	10.91          	7.184
MS.91          	10.887         	7.107
MS.92          	10.867         	7.158
MS.93          	10.845         	7.089
MS.94          	10.823         	7.134
MS.95          	10.802         	7.128
MS.96          	10.78          	7.139
MS.97          	10.76          	7.155
MS.98          	10.738         	7.104
MS.99          	10.715         	7.156
MS.100         	10.695         	7.219
MS.101         	10.672         	7.115
MS.102         	10.653         	7.156
MS.103         	10.63          	7.119
MS.104         	10.61          	7.089
MS.105         	10.587         	7.216
MS.106         	10.568         	7.197
MS.107         	10.545         	7.109
MS.108         	10.525         	7.143
MS.109         	10.502         	7.185
MS.110         	10.483         	7.159
MS.111         	10.462         	7.139
MS.112         	10.44          	7.126
MS.113         	10.42          	7.159
MS.114         	10.4           	7.192
MS.115         	10.377         	7.119
MS.116         	10.358         	7.1
MS.117         	10.337         	7.126
MS.118         	10.318         	7.083
MS.119         	10.295         	7.151
MS.120         	10.275         	7.259
MS.121         	10.255         	7.167
MS.122         	10.235         	7.175
MS.123         	10.212         	7.123
MS.124         	10.193         	7.244
MS.125         	10.172         	7.202
MS.126         	10.153         	7.139
MS.127         	10.132         	7.139
MS.128         	10.113         	7.176
MS.129         	10.092         	7.17
MS.130         	10.073         	7.153
MS.131         	10.052         	7.172
MS.132         	10.032         	7.141
MS.133         	10.012         	7.127
MS.134         	9.992          	7.144
MS.135         	9.972          	7.129
MS.136         	9.952          	7.135
MS.137         	9.932          	7.162
MS.138         	9.912          	7.172
MS.139         	9.892          	7.173
MS.140         	9.872          	7.145
MS.141         	9.852          	7.144
MS.142         	9.832          	7.103
MS.143         	9.812          	7.208
MS.144         	9.792          	7.199
MS.145         	9.775          	7.095
MS.146         	9.755          	7.245
MS.147         	9.735          	7.125
MS.148         	9.715          	7.25
MS.149         	9.695          	7.145
MS.150         	9.677          	7.198
MS.151         	9.657          	7.237
MS.152         	9.637          	7.173
MS.153         	9.62           	7.126
MS.154         	9.6            	7.131
MS.155         	9.58           	7.211
MS.156         	9.562          	7.216
MS.157         	9.542          	7.164
MS.158         	9.523          	7.184
MS.159         	9.505          	7.271
MS.160         	9.485          	7.168
MS.161         	9.465          	7.189
MS.162         	9.448          	7.188
MS.163         	9.427          	7.171
MS.164         	9.41           	7.119
MS.165         	9.39           	7.255
MS.166         	9.372          	7.162
MS.167         	9.352          	7.213
MS.168         	9.335          	7.187
MS.169         	9.315          	7.164
MS.170         	9.297          	7.202
MS.171         	9.278          	7.282
MS.172         	9.26           	7.314
MS.173         	9.242          	7.267
MS.174         	9.222          	7.377
MS.175         	9.205          	7.216
MS.176         	9.188          	7.278
MS.177         	9.167          	7.215
MS.178         	9.15           	7.321
MS.179         	9.132          	7.338
MS.180         	9.113          	7.351
MS.181         	9.095          	7.207
MS.182         	9.077          	7.336
MS.183         	9.057          	7.206
MS.184         	9.04           	7.29
MS.185         	9.023          	7.253
MS.186         	9.005          	7.167
MS.187         	8.988          	7.363
MS.188         	8.967          	7.216
MS.189         	8.95           	7.151
MS.190         	8.932          	7.126
MS.191         	8.915          	7.292
MS.192         	8.898          	7.216
MS.193         	8.88           	7.139
MS.194         	8.863          	7.109
MS.195         	8.845          	7.16
MS.196         	8.825          	7.143
MS.197         	8.807          	7.238
MS.198         	8.79           	7.173
MS.199         	8.773          	7.111
MS.200         	8.755          	7.103
MS.201         	8.738          	7.142
MS.202         	8.72           	7.086
MS.203         	8.702          	6.995
MS.204         	8.685          	7.215
MS.205         	8.67           	7.102
MS.206         	8.653          	7.083
MS.207         	8.635          	7.047
MS.208         	8.617          	7.067
MS.209         	8.6            	7.147
MS.210         	8.582          	7.115
MS.211         	8.565          	6.99
MS.212         	8.547          	7.095
MS.213         	8.53           	7.071
MS.214         	8.515          	7.045
MS.215         	8.497          	7.073
MS.216         	8.48           	6.987
MS.217         	8.462          	6.933
MS.218         	8.448          	6.979
MS.219         	8.43           	6.989
MS.220         	8.412          	6.873
MS.221         	8.395          	6.978
MS.222         	8.38           	6.912
MS.223         	8.363          	6.993
MS.224         	8.345          	6.948
MS.225         	8.33           	6.798
MS.226         	8.312          	6.906
MS.227         	8.295          	6.941
MS.228         	8.28           	6.931
MS.229         	8.262          	6.799
MS.230         	8.245          	6.779
MS.231         	8.23           	6.87
MS.232         	8.212          	6.74
MS.233         	8.198          	6.951
MS.234         	8.18           	6.933
MS.235         	8.165          	6.866
MS.236         	8.148          	6.724
MS.237         	8.132          	6.774
MS.238         	8.115          	6.853
MS.239         	8.1            	6.518
MS.240         	8.082          	6.656
MS.241         	8.068          	6.708
MS.242         	8.05           	6.718
MS.243         	8.035          	6.612
MS.244         	8.017          	6.667
MS.245         	8.002          	6.517
MS.246         	7.987          	6.56
MS.247         	7.97           	6.682
MS.248         	7.955          	6.31
MS.249         	7.938          	6.395
MS.250         	7.922          	6.48
MS.251         	7.907          	6.472
MS.252         	7.89           	6.497
MS.253         	7.875          	6.235
MS.254         	7.86           	6.428
MS.255         	7.845          	6.557
MS.256         	7.827          	6.472
MS.257         	7.812          	6.282
MS.258         	7.797          	5.894
MS.259         	7.782          	6.36
MS.260         	7.765          	6.312
MS.261         	7.75           	6.042
MS.262         	7.735          	5.985
MS.263         	7.72           	6.035
MS.264         	7.705          	6.263
MS.265         	7.688          	5.916
MS.266         	7.672          	5.889
MS.267         	7.657          	5.621
MS.268         	7.642          	5.795
MS.269         	7.628          	5.674
MS.270         	7.612          	5.887
MS.271         	7.597          	5.668
MS.272         	7.582          	5.842
MS.273         	7.567          	5.513
MS.274         	7.552          	5.516
MS.275         	7.535          	5.347
MS.276         	7.52           	5.615
MS.277         	7.505          	5.493
MS.278         	7.49           	5.527
MS.279         	7.475          	5.308
MS.280         	7.462          	5.274
MS.281         	7.447          	5.153
MS.282         	7.432          	5.257
MS.283         	7.418          	5.239
MS.284         	7.402          	5.313
MS.285         	7.387          	5.24
MS.286         	7.372          	5.388
MS.287         	7.357          	5.345
MS.288         	7.342          	5.214
MS.289         	7.327          	4.861
MS.290         	7.312          	5.109
MS.291         	7.3            	4.964
MS.292         	7.285          	4.789
MS.293         	7.27           	4.791
MS.294         	7.255          	4.963
MS.295         	7.24           	4.875
MS.296         	7.227          	4.911
MS.297         	7.212          	4.919
MS.298         	7.197          	4.584
MS.299         	7.182          	4.732
MS.300         	7.168          	4.618
MS.301         	7.155          	4.51
MS.302         	7.14           	4.622
MS.303         	7.125          	4.892
MS.304         	7.112          	4.442
MS.305         	7.097          	4.5
MS.306         	7.082          	4.564
MS.307         	7.07           	4.401
MS.308         	7.055          	4.526
MS.309         	7.04           	4.596
MS.310         	7.027          	4.2
MS.311         	7.012          	4.623
MS.312         	6.997          	4.265
MS.313         	6.985          	4.099
MS.314         	6.97           	4.191
MS.315         	6.957          	3.995
MS.316         	6.942          	4.335
MS.317         	6.93           	3.998
MS.318         	6.915          	4.156
MS.319         	6.902          	4.168
MS.320         	6.887          	4.231
MS.321         	6.875          	4.05
MS.322         	6.86           	4.042
MS.323         	6.847          	4.135
MS.324         	6.832          	3.847
MS.325         	6.82           	3.937
MS.326         	6.805          	3.926
MS.327         	6.793          	3.87
MS.328         	6.777          	3.81
MS.329         	6.765          	3.766
MS.330         	6.75           	3.538
MS.331         	6.737          	3.625
MS.332         	6.725          	3.666
MS.333         	6.71           	3.378
MS.334         	6.697          	3.489
MS.335         	6.685          	3.085
MS.336         	6.67           	3.439
MS.337         	6.657          	3.452
MS.338         	6.645          	3.328
MS.339         	6.63           	3.102
MS.340         	6.617          	3.155
MS.341         	6.605          	3.147
MS.342         	6.59           	3.174
MS.343         	6.577          	2.849
MS.344         	6.565          	2.93
MS.345         	6.552          	2.939
MS.346         	6.537          	2.796
MS.347         	6.525          	2.816
MS.348         	6.512          	2.853
MS.349         	6.5            	2.574
MS.350         	6.487          	2.722
MS.351         	6.472          	2.606
MS.352         	6.46           	2.676
MS.353         	6.447          	2.612
MS.354         	6.435          	2.676
MS.355         	6.422          	2.923
MS.356         	6.41           	2.412
MS.357         	6.398          	2.528
MS.358         	6.382          	2.557
MS.359         	6.37           	2.549
MS.360         	6.358          	2.548
MS.361         	6.345          	2.492
MS.362         	6.332          	2.348
MS.363         	6.32           	2.308
MS.364         	6.307          	2.488
MS.365         	6.295          	2.334
MS.366         	6.282          	2.399
MS.367         	6.27           	2.443
MS.368         	6.257          	2.39
MS.369         	6.245          	2.26
MS.370         	6.233          	2.152
MS.371         	6.22           	2.188
MS.372         	6.207          	2.186
MS.373         	6.195          	2.242
MS.374         	6.182          	2.204
MS.375         	6.17           	2.249
MS.376         	6.157          	1.953
MS.377         	6.145          	1.884
MS.378         	6.132          	2.018
MS.379         	6.12           	2.03
MS.380         	6.11           	1.875
MS.381         	6.097          	1.964
MS.382         	6.085          	1.905
MS.383         	6.072          	1.993
MS.384         	6.06           	1.929
MS.385         	6.047          	1.718
MS.386         	6.035          	1.82
MS.387         	6.025          	1.89
MS.388         	6.012          	1.807
MS.389         	6              	1.723
MS.390         	5.987          	1.737
MS.391         	5.975          	1.663
MS.392         	5.965          	1.675
MS.393         	5.952          	1.73
MS.394         	5.94           	1.664
MS.395         	5.927          	1.58
MS.396         	5.918          	1.631
MS.397         	5.905          	1.519
MS.398         	5.892          	1.567
MS.399         	5.88           	1.663
MS.400         	5.87           	1.517
MS.401         	5.858          	1.512
MS.402         	5.845          	1.423
MS.403         	5.835          	1.428
MS.404         	5.822          	1.509
MS.405         	5.81           	1.352
MS.406         	5.8            	1.503
MS.407         	5.787          	1.347
MS.408         	5.775          	1.367
MS.409         	5.765          	1.378
MS.410         	5.753          	1.368
MS.411         	5.742          	1.204
MS.412         	5.73           	1.327
MS.413         	5.717          	1.282
MS.414         	5.707          	1.135
MS.415         	5.695          	1.259
MS.416         	5.685          	1.237
MS.417         	5.672          	1.171
MS.418         	5.662          	1.113
MS.419         	5.65           	1.159
MS.420         	5.64           	1.238
MS.421         	5.628          	1.086
MS.422         	5.617          	1.132
MS.423         	5.605          	1.149
MS.424         	5.595          	1.118
MS.425         	5.582          	1.046
MS.426         	5.572          	1.176
MS.427         	5.56           	0.886
MS.428         	5.55           	1.056
MS.429         	5.537          	0.919
MS.430         	5.527          	0.908
MS.431         	5.517          	1.047
MS.432         	5.505          	0.947
MS.433         	5.495          	0.88
MS.434         	5.483          	0.847
MS.435         	5.472          	0.917
MS.436         	5.463          	0.871
MS.437         	5.45           	0.88
MS.438         	5.44           	0.821
MS.439         	5.43           	0.769
MS.440         	5.418          	0.744
MS.441         	5.407          	0.739
MS.442         	5.398          	0.674
MS.443         	5.385          	0.809
MS.444         	5.375          	0.745
MS.445         	5.365          	0.764
MS.446         	5.352          	0.767
MS.447         	5.342          	0.713
MS.448         	5.332          	0.633
MS.449         	5.322          	0.672
MS.450         	5.31           	0.676
MS.451         	5.3            	0.619
MS.452         	5.29           	0.567
MS.453         	5.28           	0.593
MS.454         	5.267          	0.621
MS.455         	5.257          	0.596
MS.456         	5.247          	0.571
MS.457         	5.237          	0.552
MS.458         	5.227          	0.61
MS.459         	5.215          	0.527
MS.460         	5.205          	0.534
MS.461         	5.195          	0.536
MS.462         	5.185          	0.505
MS.463         	5.175          	0.489
MS.464         	5.165          	0.52
MS.465         	5.155          	0.442
MS.466         	5.142          	0.448
MS.467         	5.132          	0.427
MS.468         	5.122          	0.536
MS.469         	5.112          	0.413
MS.470         	5.102          	0.41
MS.471         	5.092          	0.372
MS.472         	5.082          	0.392
MS.473         	5.072          	0.431
MS.474         	5.062          	0.366
MS.475         	5.052          	0.339
MS.476         	5.043          	0.355
MS.477         	5.032          	0.323
MS.478         	5.023          	0.37
MS.479         	5.012          	0.31
MS.480         	5.003          	0.296
MS.481         	4.992          	0.37
MS.482         	4.983          	0.338
MS.483         	4.972          	0.371
MS.484         	4.963          	0.286
MS.485         	4.952          	0.303
MS.486         	4.943          	0.302
MS.487         	4.932          	0.275
MS.488         	4.922          	0.335
MS.489         	4.912          	0.283
MS.490         	4.902          	0.275
MS.491         	4.892          	0.299
MS.492         	4.882          	0.275
MS.493         	4.872          	0.27
MS.494         	4.862          	0.276
MS.495         	4.852          	0.248
MS.496         	4.845          	0.213
MS.497         	4.835          	0.207
MS.498         	4.825          	0.228
MS.499         	4.815          	0.182
MS.500         	4.805          	0.212
MS.501         	4.795          	0.222
MS.502         	4.785          	0.205
MS.503         	4.777          	0.211
MS.504         	4.767          	0.201
