File:              	C:\Qtrac\Data\ME2C30620B.QZD
Name:              	 CD18O
Protocol:          	MSCAN-MV
Date:              	20/6/23
Date of birth:     	18/5/84
Age:               	39
Sex:               	M
Temperature:       	32.3
S/R sites:         	Knee CF-TA
NC/disease:        	NC
Operator:          	BY
Comments:
M-SCAN DATA (Repeat 3/3, 34.9-28.3m)
Scanpts: 1, 20, 517, 540
Stim. (mA)     	Amp. (mV)
MS.1           	9              	5.045
MS.2           	9              	5.021
MS.3           	9              	5.047
MS.4           	9              	4.993
MS.5           	9              	5.001
MS.6           	9              	5.006
MS.7           	9              	5.031
MS.8           	9              	4.98
MS.9           	9              	4.971
MS.10          	9              	4.984
MS.11          	9              	5.023
MS.12          	9              	5.031
MS.13          	9              	5.046
MS.14          	9              	4.98
MS.15          	9              	4.988
MS.16          	9              	5.005
MS.17          	9              	5.024
MS.18          	9              	5.054
MS.19          	9              	4.985
MS.20          	9              	5.037
MS.21          	9              	4.976
MS.22          	9              	4.965
MS.23          	9              	4.957
MS.24          	8.983          	5.028
MS.25          	8.965          	5.001
MS.26          	8.945          	4.996
MS.27          	8.927          	4.927
MS.28          	8.91           	4.982
MS.29          	8.892          	4.956
MS.30          	8.875          	4.997
MS.31          	8.858          	4.994
MS.32          	8.84           	5.002
MS.33          	8.823          	5.067
MS.34          	8.805          	4.975
MS.35          	8.787          	4.958
MS.36          	8.77           	4.935
MS.37          	8.752          	4.951
MS.38          	8.735          	4.952
MS.39          	8.717          	4.937
MS.40          	8.7            	4.941
MS.41          	8.682          	4.962
MS.42          	8.665          	4.963
MS.43          	8.648          	4.933
MS.44          	8.63           	4.91
MS.45          	8.613          	4.962
MS.46          	8.595          	5.016
MS.47          	8.577          	4.934
MS.48          	8.56           	4.922
MS.49          	8.545          	4.976
MS.50          	8.528          	4.96
MS.51          	8.51           	4.926
MS.52          	8.492          	4.843
MS.53          	8.475          	4.896
MS.54          	8.46           	4.833
MS.55          	8.443          	4.925
MS.56          	8.425          	4.866
MS.57          	8.408          	4.918
MS.58          	8.392          	4.85
MS.59          	8.375          	4.846
MS.60          	8.358          	4.895
MS.61          	8.342          	4.869
MS.62          	8.325          	4.799
MS.63          	8.307          	4.897
MS.64          	8.292          	4.821
MS.65          	8.275          	4.915
MS.66          	8.257          	4.85
MS.67          	8.242          	4.871
MS.68          	8.225          	4.824
MS.69          	8.21           	4.783
MS.70          	8.193          	4.846
MS.71          	8.175          	4.801
MS.72          	8.16           	4.862
MS.73          	8.142          	4.786
MS.74          	8.127          	4.868
MS.75          	8.11           	4.878
MS.76          	8.095          	4.822
MS.77          	8.077          	4.689
MS.78          	8.062          	4.868
MS.79          	8.047          	4.756
MS.80          	8.03           	4.744
MS.81          	8.015          	4.641
MS.82          	7.997          	4.646
MS.83          	7.982          	4.747
MS.84          	7.967          	4.721
MS.85          	7.95           	4.622
MS.86          	7.935          	4.662
MS.87          	7.918          	4.61
MS.88          	7.902          	4.783
MS.89          	7.887          	4.644
MS.90          	7.872          	4.62
MS.91          	7.855          	4.736
MS.92          	7.84           	4.53
MS.93          	7.825          	4.459
MS.94          	7.807          	4.656
MS.95          	7.793          	4.515
MS.96          	7.777          	4.623
MS.97          	7.762          	4.492
MS.98          	7.747          	4.462
MS.99          	7.73           	4.506
MS.100         	7.715          	4.51
MS.101         	7.7            	4.481
MS.102         	7.685          	4.304
MS.103         	7.67           	4.415
MS.104         	7.655          	4.451
MS.105         	7.637          	4.43
MS.106         	7.622          	4.215
MS.107         	7.607          	4.387
MS.108         	7.592          	4.356
MS.109         	7.577          	4.296
MS.110         	7.562          	4.232
MS.111         	7.547          	4.241
MS.112         	7.532          	4.181
MS.113         	7.517          	4.417
MS.114         	7.503          	4.223
MS.115         	7.487          	4.245
MS.116         	7.472          	4.285
MS.117         	7.457          	4.199
MS.118         	7.442          	4.102
MS.119         	7.427          	4.097
MS.120         	7.412          	4.073
MS.121         	7.398          	4.017
MS.122         	7.382          	4.151
MS.123         	7.367          	3.932
MS.124         	7.355          	3.86
MS.125         	7.34           	4.069
MS.126         	7.325          	4.119
MS.127         	7.31           	3.916
MS.128         	7.295          	4.07
MS.129         	7.28           	3.89
MS.130         	7.265          	3.898
MS.131         	7.253          	4
MS.132         	7.237          	3.886
MS.133         	7.222          	3.813
MS.134         	7.207          	3.872
MS.135         	7.195          	3.81
MS.136         	7.18           	3.826
MS.137         	7.165          	3.857
MS.138         	7.15           	3.907
MS.139         	7.137          	3.892
MS.140         	7.122          	3.777
MS.141         	7.108          	3.807
MS.142         	7.095          	3.875
MS.143         	7.08           	3.938
MS.144         	7.065          	3.909
MS.145         	7.052          	3.884
MS.146         	7.037          	3.767
MS.147         	7.023          	3.928
MS.148         	7.01           	3.688
MS.149         	6.995          	3.764
MS.150         	6.98           	3.768
MS.151         	6.967          	3.774
MS.152         	6.952          	3.831
MS.153         	6.94           	3.69
MS.154         	6.925          	3.826
MS.155         	6.912          	3.743
MS.156         	6.898          	3.776
MS.157         	6.885          	3.849
MS.158         	6.87           	3.752
MS.159         	6.858          	3.712
MS.160         	6.842          	3.765
MS.161         	6.83           	3.892
MS.162         	6.815          	3.722
MS.163         	6.802          	3.719
MS.164         	6.787          	3.713
MS.165         	6.775          	3.795
MS.166         	6.762          	3.766
MS.167         	6.747          	3.497
MS.168         	6.735          	3.606
MS.169         	6.72           	3.585
MS.170         	6.707          	3.684
MS.171         	6.695          	3.53
MS.172         	6.68           	3.572
MS.173         	6.668          	3.651
MS.174         	6.655          	3.6
MS.175         	6.64           	3.627
MS.176         	6.628          	3.521
MS.177         	6.615          	3.517
MS.178         	6.6            	3.557
MS.179         	6.587          	3.619
MS.180         	6.575          	3.596
MS.181         	6.562          	3.552
MS.182         	6.547          	3.666
MS.183         	6.535          	3.556
MS.184         	6.523          	3.472
MS.185         	6.51           	3.638
MS.186         	6.495          	3.613
MS.187         	6.483          	3.555
MS.188         	6.47           	3.499
MS.189         	6.457          	3.495
MS.190         	6.445          	3.649
MS.191         	6.432          	3.49
MS.192         	6.42           	3.47
MS.193         	6.405          	3.51
MS.194         	6.392          	3.589
MS.195         	6.38           	3.455
MS.196         	6.367          	3.494
MS.197         	6.355          	3.509
MS.198         	6.342          	3.304
MS.199         	6.33           	3.43
MS.200         	6.317          	3.518
MS.201         	6.305          	3.607
MS.202         	6.293          	3.622
MS.203         	6.28           	3.469
MS.204         	6.267          	3.397
MS.205         	6.255          	3.392
MS.206         	6.242          	3.467
MS.207         	6.23           	3.309
MS.208         	6.217          	3.395
MS.209         	6.205          	3.359
MS.210         	6.192          	3.407
MS.211         	6.18           	3.362
MS.212         	6.168          	3.335
MS.213         	6.155          	3.392
MS.214         	6.142          	3.339
MS.215         	6.13           	3.412
MS.216         	6.117          	3.26
MS.217         	6.105          	3.353
MS.218         	6.092          	3.243
MS.219         	6.082          	3.307
MS.220         	6.07           	3.464
MS.221         	6.057          	3.277
MS.222         	6.045          	3.29
MS.223         	6.032          	3.328
MS.224         	6.02           	3.398
MS.225         	6.01           	3.282
MS.226         	5.997          	3.215
MS.227         	5.985          	3.281
MS.228         	5.972          	3.08
MS.229         	5.96           	3.185
MS.230         	5.95           	3.165
MS.231         	5.938          	2.996
MS.232         	5.925          	3.071
MS.233         	5.912          	3.018
MS.234         	5.902          	3.085
MS.235         	5.89           	3.059
MS.236         	5.878          	3.076
MS.237         	5.867          	2.954
MS.238         	5.855          	2.912
MS.239         	5.842          	2.875
MS.240         	5.83           	2.87
MS.241         	5.82           	2.983
MS.242         	5.807          	2.819
MS.243         	5.797          	2.803
MS.244         	5.785          	2.825
MS.245         	5.773          	2.873
MS.246         	5.762          	2.818
MS.247         	5.75           	2.811
MS.248         	5.737          	2.637
MS.249         	5.727          	2.726
MS.250         	5.715          	2.877
MS.251         	5.705          	2.679
MS.252         	5.692          	2.669
MS.253         	5.682          	2.666
MS.254         	5.67           	2.629
MS.255         	5.66           	2.728
MS.256         	5.648          	2.775
MS.257         	5.637          	2.657
MS.258         	5.625          	2.644
MS.259         	5.615          	2.65
MS.260         	5.602          	2.629
MS.261         	5.592          	2.663
MS.262         	5.58           	2.612
MS.263         	5.57           	2.613
MS.264         	5.557          	2.573
MS.265         	5.547          	2.515
MS.266         	5.535          	2.568
MS.267         	5.525          	2.512
MS.268         	5.512          	2.545
MS.269         	5.503          	2.577
MS.270         	5.492          	2.495
MS.271         	5.48           	2.543
MS.272         	5.47           	2.368
MS.273         	5.46           	2.344
MS.274         	5.447          	2.495
MS.275         	5.438          	2.319
MS.276         	5.425          	2.372
MS.277         	5.415          	2.319
MS.278         	5.405          	2.363
MS.279         	5.392          	2.249
MS.280         	5.382          	2.152
MS.281         	5.372          	2.315
MS.282         	5.362          	2.157
MS.283         	5.35           	2.09
MS.284         	5.34           	2.186
MS.285         	5.33           	2.062
MS.286         	5.318          	2.061
MS.287         	5.307          	1.998
MS.288         	5.297          	2.197
MS.289         	5.287          	2.051
MS.290         	5.277          	1.981
MS.291         	5.265          	1.992
MS.292         	5.255          	1.876
MS.293         	5.245          	1.913
MS.294         	5.235          	1.909
MS.295         	5.225          	1.766
MS.296         	5.213          	1.768
MS.297         	5.202          	1.783
MS.298         	5.193          	1.553
MS.299         	5.182          	1.548
MS.300         	5.172          	1.736
MS.301         	5.162          	1.725
MS.302         	5.15           	1.729
MS.303         	5.14           	1.526
MS.304         	5.13           	1.624
MS.305         	5.12           	1.6
MS.306         	5.11           	1.458
MS.307         	5.1            	1.399
MS.308         	5.09           	1.344
MS.309         	5.08           	1.456
MS.310         	5.07           	1.326
MS.311         	5.06           	1.44
MS.312         	5.05           	1.375
MS.313         	5.04           	1.38
MS.314         	5.03           	1.372
MS.315         	5.02           	1.326
MS.316         	5.01           	1.26
MS.317         	5              	1.302
MS.318         	4.99           	1.271
MS.319         	4.98           	1.231
MS.320         	4.97           	1.238
MS.321         	4.96           	1.185
MS.322         	4.95           	1.265
MS.323         	4.94           	1.183
MS.324         	4.93           	1.17
MS.325         	4.92           	1.18
MS.326         	4.91           	1.236
MS.327         	4.9            	1.112
MS.328         	4.89           	1.104
MS.329         	4.88           	1.147
MS.330         	4.87           	1.085
MS.331         	4.86           	0.977
MS.332         	4.85           	1.13
MS.333         	4.842          	1.146
MS.334         	4.832          	1.026
MS.335         	4.822          	0.933
MS.336         	4.812          	0.87
MS.337         	4.802          	1.039
MS.338         	4.793          	0.958
MS.339         	4.782          	0.892
MS.340         	4.775          	0.975
MS.341         	4.765          	0.95
MS.342         	4.755          	0.889
MS.343         	4.745          	0.937
MS.344         	4.735          	0.835
MS.345         	4.727          	0.859
MS.346         	4.717          	0.787
MS.347         	4.707          	0.799
MS.348         	4.697          	0.754
MS.349         	4.69           	0.828
MS.350         	4.68           	0.757
MS.351         	4.67           	0.714
MS.352         	4.66           	0.731
MS.353         	4.652          	0.748
MS.354         	4.642          	0.577
MS.355         	4.632          	0.636
MS.356         	4.625          	0.641
MS.357         	4.615          	0.671
MS.358         	4.605          	0.598
MS.359         	4.595          	0.583
MS.360         	4.588          	0.494
MS.361         	4.577          	0.536
MS.362         	4.568          	0.513
MS.363         	4.56           	0.538
MS.364         	4.55           	0.541
MS.365         	4.543          	0.532
MS.366         	4.532          	0.453
MS.367         	4.523          	0.444
MS.368         	4.515          	0.519
MS.369         	4.505          	0.491
MS.370         	4.495          	0.299
MS.371         	4.487          	0.438
MS.372         	4.477          	0.311
MS.373         	4.47           	0.335
MS.374         	4.46           	0.357
MS.375         	4.452          	0.38
MS.376         	4.443          	0.409
MS.377         	4.432          	0.292
MS.378         	4.425          	0.316
MS.379         	4.415          	0.309
MS.380         	4.407          	0.292
MS.381         	4.398          	0.261
MS.382         	4.39           	0.287
MS.383         	4.38           	0.165
MS.384         	4.372          	0.182
MS.385         	4.362          	0.21
MS.386         	4.355          	0.211
MS.387         	4.345          	0.189
MS.388         	4.338          	0.15
MS.389         	4.327          	0.221
MS.390         	4.32           	0.142
MS.391         	4.31           	0.121
MS.392         	4.302          	0.091
MS.393         	4.295          	0.101
MS.394         	4.285          	0.117
MS.395         	4.277          	0.14
MS.396         	4.267          	0.104
MS.397         	4.26           	0.111
MS.398         	4.253          	0.04
MS.399         	4.242          	0.039
MS.400         	4.235          	-0.003
MS.401         	4.225          	0.057
MS.402         	4.217          	0.045
MS.403         	4.21           	0.018
MS.404         	4.2            	-0.04
MS.405         	4.193          	0.06
MS.406         	4.185          	0.023
MS.407         	4.175          	-0.046
MS.408         	4.168          	0.013
MS.409         	4.16           	0.003
MS.410         	4.15           	-0.04
MS.411         	4.142          	-0.002
MS.412         	4.135          	-0.056
MS.413         	4.125          	-0.062
MS.414         	4.117          	-0.089
MS.415         	4.11           	-0.054
MS.416         	4.1            	-0.148
MS.417         	4.092          	-0.075
MS.418         	4.085          	-0.068
MS.419         	4.077          	-0.1
MS.420         	4.068          	-0.149
MS.421         	4.06           	-0.19
MS.422         	4.052          	-0.113
MS.423         	4.045          	-0.135
MS.424         	4.035          	-0.149
MS.425         	4.027          	-0.195
MS.426         	4.02           	-0.144
MS.427         	4.012          	-0.208
MS.428         	4.003          	-0.154
MS.429         	3.995          	-0.203
MS.430         	3.987          	-0.197
MS.431         	3.98           	-0.258
MS.432         	3.972          	-0.237
MS.433         	3.965          	-0.186
MS.434         	3.955          	-0.294
MS.435         	3.947          	-0.24
MS.436         	3.94           	-0.26
MS.437         	3.932          	-0.229
MS.438         	3.925          	-0.29
MS.439         	3.918          	-0.321
MS.440         	3.91           	-0.253
MS.441         	3.9            	-0.314
MS.442         	3.892          	-0.276
MS.443         	3.885          	-0.359
MS.444         	3.877          	-0.296
MS.445         	3.87           	-0.359
MS.446         	3.862          	-0.346
MS.447         	3.855          	-0.297
MS.448         	3.847          	-0.331
MS.449         	3.84           	-0.351
MS.450         	3.832          	-0.292
MS.451         	3.822          	-0.381
MS.452         	3.815          	-0.352
MS.453         	3.807          	-0.394
MS.454         	3.8            	-0.402
MS.455         	3.793          	-0.403
MS.456         	3.785          	-0.38
MS.457         	3.777          	-0.406
MS.458         	3.77           	-0.396
MS.459         	3.762          	-0.395
MS.460         	3.755          	-0.374
MS.461         	3.747          	-0.398
MS.462         	3.74           	-0.442
MS.463         	3.732          	-0.407
MS.464         	3.725          	-0.422
MS.465         	3.717          	-0.415
MS.466         	3.71           	-0.423
MS.467         	3.702          	-0.408
MS.468         	3.695          	-0.458
MS.469         	3.688          	-0.449
MS.470         	3.68           	-0.446
MS.471         	3.675          	-0.431
MS.472         	3.668          	-0.463
MS.473         	3.66           	-0.478
MS.474         	3.652          	-0.443
MS.475         	3.645          	-0.476
MS.476         	3.637          	-0.441
MS.477         	3.63           	-0.429
MS.478         	3.622          	-0.436
MS.479         	3.615          	-0.451
MS.480         	3.607          	-0.468
MS.481         	3.6            	-0.459
MS.482         	3.595          	-0.441
MS.483         	3.587          	-0.457
MS.484         	3.58           	-0.497
MS.485         	3.572          	-0.464
MS.486         	3.565          	-0.461
MS.487         	3.557          	-0.482
MS.488         	3.55           	-0.492
MS.489         	3.545          	-0.479
MS.490         	3.537          	-0.497
MS.491         	3.53           	-0.481
MS.492         	3.523          	-0.471
MS.493         	3.515          	-0.52
MS.494         	3.507          	-0.488
MS.495         	3.502          	-0.468
MS.496         	3.495          	-0.502
MS.497         	3.487          	-0.475
MS.498         	3.48           	-0.513
MS.499         	3.472          	-0.507
MS.500         	3.467          	-0.485
MS.501         	3.46           	-0.466
