File:              	C:\Qtrac\Data\ME2C30627B.QZD
Name:              	 CD18O
Protocol:          	MSCAN-MV
Date:              	27/6/23
Date of birth:     	18/5/84
Age:               	39
Sex:               	M
Temperature:       	34.2
S/R sites:         	Knee CF-TA
NC/disease:        	NC
Operator:          	BY
Comments:
M-SCAN DATA (Repeat 1/3, 13.4-2.8m)
Scanpts: 4, 53, 770, 800
Stim. (mA)     	Amp. (mV)
MS.1           	8              	7.794
MS.2           	8              	7.796
MS.3           	7.967          	7.829
MS.4           	7.952          	7.792
MS.5           	7.935          	7.756
MS.6           	7.92           	7.773
MS.7           	7.905          	7.793
MS.8           	7.887          	7.805
MS.9           	7.872          	7.794
MS.10          	7.857          	7.8
MS.11          	7.842          	7.758
MS.12          	7.825          	7.776
MS.13          	7.81           	7.767
MS.14          	7.795          	7.777
MS.15          	7.78           	7.783
MS.16          	7.762          	7.814
MS.17          	7.747          	7.764
MS.18          	7.732          	7.776
MS.19          	7.717          	7.814
MS.20          	7.702          	7.828
MS.21          	7.688          	7.78
MS.22          	7.67           	7.771
MS.23          	7.655          	7.808
MS.24          	7.64           	7.701
MS.25          	7.625          	7.793
MS.26          	7.61           	7.747
MS.27          	7.595          	7.759
MS.28          	7.58           	7.778
MS.29          	7.565          	7.789
MS.30          	7.55           	7.792
MS.31          	7.535          	7.752
MS.32          	7.52           	7.785
MS.33          	7.505          	7.833
MS.34          	7.49           	7.794
MS.35          	7.475          	7.783
MS.36          	7.46           	7.804
MS.37          	7.445          	7.772
MS.38          	7.43           	7.76
MS.39          	7.415          	7.767
MS.40          	7.4            	7.77
MS.41          	7.385          	7.72
MS.42          	7.37           	7.729
MS.43          	7.355          	7.744
MS.44          	7.34           	7.777
MS.45          	7.325          	7.768
MS.46          	7.312          	7.739
MS.47          	7.297          	7.729
MS.48          	7.282          	7.743
MS.49          	7.267          	7.748
MS.50          	7.253          	7.77
MS.51          	7.237          	7.736
MS.52          	7.225          	7.721
MS.53          	7.21           	7.786
MS.54          	7.195          	7.798
MS.55          	7.18           	7.72
MS.56          	7.168          	7.77
MS.57          	7.152          	7.759
MS.58          	7.137          	7.781
MS.59          	7.125          	7.766
MS.60          	7.11           	7.788
MS.61          	7.095          	7.744
MS.62          	7.08           	7.695
MS.63          	7.067          	7.745
MS.64          	7.052          	7.759
MS.65          	7.04           	7.759
MS.66          	7.025          	7.781
MS.67          	7.01           	7.776
MS.68          	6.997          	7.689
MS.69          	6.983          	7.819
MS.70          	6.97           	7.811
MS.71          	6.955          	7.739
MS.72          	6.94           	7.855
MS.73          	6.927          	7.766
MS.74          	6.912          	7.75
MS.75          	6.9            	7.717
MS.76          	6.885          	7.727
MS.77          	6.872          	7.626
MS.78          	6.858          	7.676
MS.79          	6.845          	7.562
MS.80          	6.83           	7.639
MS.81          	6.817          	7.526
MS.82          	6.802          	7.598
MS.83          	6.79           	7.682
MS.84          	6.777          	7.571
MS.85          	6.762          	7.629
MS.86          	6.75           	7.5
MS.87          	6.735          	7.629
MS.88          	6.722          	7.554
MS.89          	6.71           	7.576
MS.90          	6.695          	7.55
MS.91          	6.682          	7.615
MS.92          	6.67           	7.593
MS.93          	6.655          	7.546
MS.94          	6.642          	7.497
MS.95          	6.63           	7.563
MS.96          	6.615          	7.581
MS.97          	6.602          	7.48
MS.98          	6.59           	7.519
MS.99          	6.575          	7.46
MS.100         	6.562          	7.446
MS.101         	6.55           	7.476
MS.102         	6.537          	7.437
MS.103         	6.523          	7.445
MS.104         	6.51           	7.421
MS.105         	6.497          	7.51
MS.106         	6.485          	7.428
MS.107         	6.472          	7.372
MS.108         	6.46           	7.341
MS.109         	6.445          	7.39
MS.110         	6.432          	7.308
MS.111         	6.42           	7.326
MS.112         	6.407          	7.28
MS.113         	6.395          	7.383
MS.114         	6.382          	7.427
MS.115         	6.37           	7.191
MS.116         	6.355          	7.363
MS.117         	6.342          	7.408
MS.118         	6.33           	7.274
MS.119         	6.317          	7.272
MS.120         	6.305          	7.227
MS.121         	6.293          	7.328
MS.122         	6.28           	7.359
MS.123         	6.267          	7.252
MS.124         	6.255          	7.251
MS.125         	6.242          	7.151
MS.126         	6.23           	7.254
MS.127         	6.217          	7.249
MS.128         	6.205          	7.297
MS.129         	6.192          	7.316
MS.130         	6.18           	7.239
MS.131         	6.168          	7.115
MS.132         	6.155          	7.177
MS.133         	6.145          	7.158
MS.134         	6.132          	7.178
MS.135         	6.12           	7.156
MS.136         	6.108          	7.148
MS.137         	6.095          	7.219
MS.138         	6.082          	7.188
MS.139         	6.07           	7.154
MS.140         	6.057          	7.258
MS.141         	6.045          	6.918
MS.142         	6.035          	6.305
MS.143         	6.023          	6.844
MS.144         	6.01           	6.937
MS.145         	5.997          	7.078
MS.146         	5.985          	7.277
MS.147         	5.975          	7.281
MS.148         	5.963          	7.358
MS.149         	5.95           	7.263
MS.150         	5.938          	7.33
MS.151         	5.927          	7.38
MS.152         	5.915          	7.238
MS.153         	5.902          	7.267
MS.154         	5.89           	7.174
MS.155         	5.88           	7.278
MS.156         	5.867          	7.155
MS.157         	5.855          	7.217
MS.158         	5.845          	7.224
MS.159         	5.832          	7.17
MS.160         	5.82           	7.23
MS.161         	5.81           	7.301
MS.162         	5.797          	7.296
MS.163         	5.785          	7.197
MS.164         	5.775          	7.134
MS.165         	5.762          	7.285
MS.166         	5.753          	7.142
MS.167         	5.74           	7.211
MS.168         	5.727          	7.177
MS.169         	5.717          	7.151
MS.170         	5.705          	7.176
MS.171         	5.695          	7.106
MS.172         	5.682          	7.114
MS.173         	5.672          	7.131
MS.174         	5.66           	6.968
MS.175         	5.65           	6.884
MS.176         	5.637          	6.884
MS.177         	5.625          	6.958
MS.178         	5.615          	6.957
MS.179         	5.605          	6.943
MS.180         	5.592          	6.975
MS.181         	5.582          	6.905
MS.182         	5.57           	6.999
MS.183         	5.56           	6.774
MS.184         	5.547          	6.858
MS.185         	5.537          	6.803
MS.186         	5.525          	6.707
MS.187         	5.515          	6.697
MS.188         	5.505          	6.608
MS.189         	5.492          	6.606
MS.190         	5.483          	6.568
MS.191         	5.47           	6.66
MS.192         	5.46           	6.62
MS.193         	5.45           	6.409
MS.194         	5.438          	6.564
MS.195         	5.427          	6.677
MS.196         	5.418          	6.666
MS.197         	5.405          	6.492
MS.198         	5.395          	6.52
MS.199         	5.385          	6.594
MS.200         	5.372          	6.531
MS.201         	5.362          	6.271
MS.202         	5.352          	6.411
MS.203         	5.34           	6.378
MS.204         	5.33           	6.226
MS.205         	5.32           	6.289
MS.206         	5.31           	6.343
MS.207         	5.297          	6.411
MS.208         	5.287          	6.151
MS.209         	5.277          	5.935
MS.210         	5.267          	6.083
MS.211         	5.257          	5.981
MS.212         	5.245          	6.149
MS.213         	5.235          	6.355
MS.214         	5.225          	6.159
MS.215         	5.215          	6.111
MS.216         	5.205          	6.119
MS.217         	5.193          	6.021
MS.218         	5.182          	6.1
MS.219         	5.172          	6.046
MS.220         	5.162          	5.82
MS.221         	5.152          	5.92
MS.222         	5.142          	5.776
MS.223         	5.132          	5.813
MS.224         	5.122          	5.87
MS.225         	5.11           	5.975
MS.226         	5.1            	5.792
MS.227         	5.09           	5.746
MS.228         	5.08           	5.725
MS.229         	5.07           	5.598
MS.230         	5.06           	5.718
MS.231         	5.05           	5.692
MS.232         	5.04           	5.59
MS.233         	5.03           	5.321
MS.234         	5.02           	5.298
MS.235         	5.01           	5.267
MS.236         	5              	5.435
MS.237         	4.99           	5.334
MS.238         	4.98           	5.295
MS.239         	4.97           	5.292
MS.240         	4.96           	5.236
MS.241         	4.95           	5.314
MS.242         	4.94           	5.196
MS.243         	4.93           	5.272
MS.244         	4.92           	5.514
MS.245         	4.91           	5.157
MS.246         	4.9            	5.168
MS.247         	4.89           	5.231
MS.248         	4.882          	5.153
MS.249         	4.872          	5.099
MS.250         	4.862          	5.243
MS.251         	4.852          	5.134
MS.252         	4.842          	5.132
MS.253         	4.832          	5.098
MS.254         	4.822          	5.06
MS.255         	4.812          	5.129
MS.256         	4.805          	5.153
MS.257         	4.795          	4.946
MS.258         	4.785          	5.043
MS.259         	4.775          	4.937
MS.260         	4.765          	4.954
MS.261         	4.755          	4.98
MS.262         	4.747          	4.971
MS.263         	4.737          	4.986
MS.264         	4.727          	5.007
MS.265         	4.717          	4.948
MS.266         	4.71           	4.908
MS.267         	4.7            	4.958
MS.268         	4.69           	4.779
MS.269         	4.68           	4.876
MS.270         	4.673          	4.829
MS.271         	4.662          	4.826
MS.272         	4.652          	4.614
MS.273         	4.642          	4.66
MS.274         	4.635          	4.564
MS.275         	4.625          	4.654
MS.276         	4.615          	4.578
MS.277         	4.608          	4.447
MS.278         	4.597          	4.517
MS.279         	4.588          	4.547
MS.280         	4.58           	4.514
MS.281         	4.57           	4.45
MS.282         	4.56           	4.363
MS.283         	4.552          	4.556
MS.284         	4.543          	4.401
MS.285         	4.532          	4.448
MS.286         	4.525          	4.454
MS.287         	4.515          	4.483
MS.288         	4.505          	4.409
MS.289         	4.497          	4.385
MS.290         	4.487          	4.419
MS.291         	4.48           	4.343
MS.292         	4.47           	4.437
MS.293         	4.463          	4.261
MS.294         	4.452          	4.191
MS.295         	4.443          	4.396
MS.296         	4.435          	4.247
MS.297         	4.425          	4.251
MS.298         	4.418          	4.244
MS.299         	4.407          	4.29
MS.300         	4.4            	4.22
MS.301         	4.39           	4.238
MS.302         	4.382          	4.205
MS.303         	4.372          	4.22
MS.304         	4.365          	4.238
MS.305         	4.355          	4.22
MS.306         	4.347          	4.225
MS.307         	4.338          	4.025
MS.308         	4.33           	4.009
MS.309         	4.32           	3.977
MS.310         	4.312          	4.09
MS.311         	4.302          	3.979
MS.312         	4.295          	3.918
MS.313         	4.287          	3.854
MS.314         	4.277          	3.885
MS.315         	4.27           	3.857
MS.316         	4.26           	3.748
MS.317         	4.253          	3.864
MS.318         	4.242          	3.81
MS.319         	4.235          	3.835
MS.320         	4.227          	3.805
MS.321         	4.217          	3.808
MS.322         	4.21           	3.886
MS.323         	4.202          	3.755
MS.324         	4.193          	3.677
MS.325         	4.185          	3.677
MS.326         	4.177          	3.787
MS.327         	4.168          	3.741
MS.328         	4.16           	3.586
MS.329         	4.152          	3.695
MS.330         	4.142          	3.593
MS.331         	4.135          	3.592
MS.332         	4.128          	3.66
MS.333         	4.117          	3.658
MS.334         	4.11           	3.608
MS.335         	4.102          	3.604
MS.336         	4.092          	3.599
MS.337         	4.085          	3.501
MS.338         	4.077          	3.541
MS.339         	4.07           	3.513
MS.340         	4.06           	3.481
MS.341         	4.052          	3.48
MS.342         	4.045          	3.545
MS.343         	4.037          	3.477
MS.344         	4.027          	3.567
MS.345         	4.02           	3.432
MS.346         	4.012          	3.401
MS.347         	4.005          	3.416
MS.348         	3.997          	3.461
MS.349         	3.987          	3.387
MS.350         	3.98           	3.461
MS.351         	3.972          	3.455
MS.352         	3.965          	3.389
MS.353         	3.957          	3.387
MS.354         	3.95           	3.455
MS.355         	3.94           	3.342
MS.356         	3.932          	3.415
MS.357         	3.925          	3.376
MS.358         	3.918          	3.231
MS.359         	3.91           	3.386
MS.360         	3.902          	3.342
MS.361         	3.895          	3.348
MS.362         	3.885          	3.314
MS.363         	3.877          	3.341
MS.364         	3.87           	3.38
MS.365         	3.862          	3.253
MS.366         	3.855          	3.38
MS.367         	3.847          	3.289
MS.368         	3.84           	3.268
MS.369         	3.832          	3.228
MS.370         	3.825          	3.242
MS.371         	3.817          	3.199
MS.372         	3.81           	3.224
MS.373         	3.803          	3.178
MS.374         	3.795          	3.181
MS.375         	3.787          	3.137
MS.376         	3.78           	3.187
MS.377         	3.772          	3.162
MS.378         	3.765          	3.161
MS.379         	3.757          	3.152
MS.380         	3.75           	3.156
MS.381         	3.742          	3.12
MS.382         	3.735          	3.065
MS.383         	3.727          	3.123
MS.384         	3.72           	3.052
MS.385         	3.712          	3.069
MS.386         	3.705          	3.096
MS.387         	3.697          	3.094
MS.388         	3.69           	3.093
MS.389         	3.682          	3.026
MS.390         	3.675          	3.044
MS.391         	3.668          	2.97
MS.392         	3.66           	2.969
MS.393         	3.652          	2.95
MS.394         	3.645          	2.967
MS.395         	3.637          	2.963
MS.396         	3.63           	2.92
MS.397         	3.622          	2.946
MS.398         	3.615          	2.896
MS.399         	3.61           	2.996
MS.400         	3.602          	2.909
MS.401         	3.595          	2.931
MS.402         	3.587          	2.886
MS.403         	3.58           	2.888
MS.404         	3.572          	2.972
MS.405         	3.565          	2.831
MS.406         	3.56           	2.787
MS.407         	3.553          	2.858
MS.408         	3.545          	2.818
MS.409         	3.537          	2.789
MS.410         	3.53           	2.751
MS.411         	3.523          	2.756
MS.412         	3.517          	2.784
MS.413         	3.51           	2.733
MS.414         	3.502          	2.698
MS.415         	3.495          	2.641
MS.416         	3.487          	2.72
MS.417         	3.482          	2.609
MS.418         	3.475          	2.573
MS.419         	3.467          	2.612
MS.420         	3.46           	2.638
MS.421         	3.452          	2.565
MS.422         	3.447          	2.479
MS.423         	3.44           	2.579
MS.424         	3.432          	2.537
MS.425         	3.425          	2.466
MS.426         	3.42           	2.481
MS.427         	3.412          	2.434
MS.428         	3.405          	2.441
MS.429         	3.4            	2.423
MS.430         	3.392          	2.498
MS.431         	3.385          	2.359
MS.432         	3.377          	2.461
MS.433         	3.372          	2.424
MS.434         	3.365          	2.374
MS.435         	3.357          	2.418
MS.436         	3.352          	2.371
MS.437         	3.345          	2.341
MS.438         	3.337          	2.401
MS.439         	3.332          	2.36
MS.440         	3.325          	2.365
MS.441         	3.317          	2.331
MS.442         	3.312          	2.292
MS.443         	3.305          	2.354
MS.444         	3.297          	2.267
MS.445         	3.293          	2.194
MS.446         	3.285          	2.264
MS.447         	3.277          	2.228
MS.448         	3.273          	2.237
MS.449         	3.265          	2.198
MS.450         	3.26           	2.242
MS.451         	3.252          	2.197
MS.452         	3.245          	2.212
MS.453         	3.24           	2.177
MS.454         	3.232          	2.161
MS.455         	3.227          	2.237
MS.456         	3.22           	2.121
MS.457         	3.212          	2.084
MS.458         	3.207          	2.125
MS.459         	3.2            	2.054
MS.460         	3.195          	2.071
MS.461         	3.188          	2.053
MS.462         	3.182          	2.081
MS.463         	3.175          	2.052
MS.464         	3.17           	1.961
MS.465         	3.162          	2.076
MS.466         	3.158          	1.992
MS.467         	3.15           	1.943
MS.468         	3.145          	1.979
MS.469         	3.138          	1.862
MS.470         	3.132          	1.91
MS.471         	3.125          	1.896
MS.472         	3.12           	1.871
MS.473         	3.112          	1.82
MS.474         	3.107          	1.865
MS.475         	3.1            	1.899
MS.476         	3.095          	1.834
MS.477         	3.087          	1.811
MS.478         	3.082          	1.778
MS.479         	3.075          	1.849
MS.480         	3.07           	1.716
MS.481         	3.062          	1.683
MS.482         	3.057          	1.689
MS.483         	3.05           	1.635
MS.484         	3.045          	1.65
MS.485         	3.037          	1.629
MS.486         	3.033          	1.637
MS.487         	3.027          	1.619
MS.488         	3.02           	1.545
MS.489         	3.015          	1.595
MS.490         	3.007          	1.495
MS.491         	3.002          	1.444
MS.492         	2.997          	1.513
MS.493         	2.99           	1.513
MS.494         	2.985          	1.518
MS.495         	2.977          	1.519
MS.496         	2.972          	1.509
MS.497         	2.967          	1.429
MS.498         	2.96           	1.464
MS.499         	2.955          	1.451
MS.500         	2.95           	1.424
MS.501         	2.942          	1.409
MS.502         	2.938          	1.372
MS.503         	2.932          	1.368
