File:              	C:\Qtrac\Data\ME2C30630B.QZD
Name:              	 ME27D
Protocol:          	MSCAN-MV
Date:              	30/6/23
Date of birth:     	27/11/02
Age:               	20
Sex:               	M
Temperature:       	30.5
S/R sites:         	Knee CF-TA
NC/disease:        	NC
Operator:          	BY
Comments:
M-SCAN DATA (Repeat 1/4, 15.7-4m)
Scanpts: 85, 129, 825, 919
Stim. (mA)     	Amp. (mV)
MS.1           	12             	7.122
MS.2           	12             	7.126
MS.3           	12             	7.111
MS.4           	12             	7.139
MS.5           	12             	7.13
MS.6           	12             	7.135
MS.7           	12             	7.141
MS.8           	12             	7.148
MS.9           	12             	7.148
MS.10          	12             	7.134
MS.11          	12             	7.133
MS.12          	12             	7.139
MS.13          	12             	7.141
MS.14          	12             	7.136
MS.15          	12             	7.132
MS.16          	12             	7.145
MS.17          	12             	7.134
MS.18          	12             	7.14
MS.19          	12             	7.139
MS.20          	12             	7.139
MS.21          	12             	7.135
MS.22          	12             	7.128
MS.23          	12             	7.115
MS.24          	11.952         	7.126
MS.25          	11.927         	7.101
MS.26          	11.905         	7.118
MS.27          	11.88          	7.115
MS.28          	11.858         	7.117
MS.29          	11.832         	7.126
MS.30          	11.81          	7.109
MS.31          	11.785         	7.117
MS.32          	11.762         	7.118
MS.33          	11.74          	7.114
MS.34          	11.715         	7.119
MS.35          	11.693         	7.115
MS.36          	11.667         	7.114
MS.37          	11.645         	7.111
MS.38          	11.622         	7.108
MS.39          	11.6           	7.112
MS.40          	11.575         	7.107
MS.41          	11.552         	7.111
MS.42          	11.53          	7.108
MS.43          	11.507         	7.062
MS.44          	11.483         	7.11
MS.45          	11.46          	7.114
MS.46          	11.438         	7.117
MS.47          	11.415         	7.124
MS.48          	11.392         	7.133
MS.49          	11.37          	7.126
MS.50          	11.347         	7.125
MS.51          	11.325         	7.109
MS.52          	11.3           	7.12
MS.53          	11.278         	7.117
MS.54          	11.255         	7.129
MS.55          	11.233         	7.128
MS.56          	11.21          	7.136
MS.57          	11.188         	7.133
MS.58          	11.167         	7.118
MS.59          	11.145         	7.131
MS.60          	11.122         	7.104
MS.61          	11.1           	7.13
MS.62          	11.077         	7.122
MS.63          	11.055         	7.113
MS.64          	11.032         	7.114
MS.65          	11.01          	7.123
MS.66          	10.99          	7.112
MS.67          	10.967         	7.133
MS.68          	10.945         	7.144
MS.69          	10.922         	7.144
MS.70          	10.903         	7.145
MS.71          	10.88          	7.122
MS.72          	10.858         	7.125
MS.73          	10.837         	7.121
MS.74          	10.815         	7.141
MS.75          	10.792         	7.137
MS.76          	10.773         	7.15
MS.77          	10.75          	7.114
MS.78          	10.727         	7.145
MS.79          	10.707         	7.124
MS.80          	10.685         	7.121
MS.81          	10.665         	7.108
MS.82          	10.642         	7.103
MS.83          	10.622         	7.112
MS.84          	10.6           	7.103
MS.85          	10.58          	7.101
MS.86          	10.557         	7.111
MS.87          	10.537         	7.106
MS.88          	10.515         	7.117
MS.89          	10.495         	7.12
MS.90          	10.475         	7.121
MS.91          	10.452         	7.124
MS.92          	10.432         	7.12
MS.93          	10.412         	7.125
MS.94          	10.39          	7.112
MS.95          	10.37          	7.11
MS.96          	10.35          	7.117
MS.97          	10.327         	7.124
MS.98          	10.307         	7.13
MS.99          	10.287         	7.124
MS.100         	10.267         	7.128
MS.101         	10.245         	7.106
MS.102         	10.225         	7.129
MS.103         	10.205         	7.136
MS.104         	10.185         	7.116
MS.105         	10.165         	7.119
MS.106         	10.145         	7.12
MS.107         	10.125         	7.117
MS.108         	10.102         	7.117
MS.109         	10.082         	7.125
MS.110         	10.062         	7.116
MS.111         	10.042         	7.119
MS.112         	10.023         	7.114
MS.113         	10.002         	7.109
MS.114         	9.983          	7.096
MS.115         	9.962          	7.109
MS.116         	9.943          	7.115
MS.117         	9.922          	7.108
MS.118         	9.903          	7.101
MS.119         	9.885          	7.12
MS.120         	9.865          	7.118
MS.121         	9.845          	7.12
MS.122         	9.825          	7.117
MS.123         	9.805          	7.121
MS.124         	9.785          	7.115
MS.125         	9.765          	7.115
MS.126         	9.747          	7.119
MS.127         	9.727          	7.123
MS.128         	9.707          	7.112
MS.129         	9.688          	7.115
MS.130         	9.67           	7.119
MS.131         	9.65           	7.108
MS.132         	9.63           	7.111
MS.133         	9.61           	7.093
MS.134         	9.592          	7.123
MS.135         	9.573          	7.106
MS.136         	9.552          	7.1
MS.137         	9.535          	7.104
MS.138         	9.515          	7.095
MS.139         	9.497          	7.113
MS.140         	9.477          	7.1
MS.141         	9.457          	7.121
MS.142         	9.44           	7.103
MS.143         	9.42           	7.105
MS.144         	9.403          	7.106
MS.145         	9.382          	7.114
MS.146         	9.365          	7.111
MS.147         	9.345          	7.106
MS.148         	9.327          	7.099
MS.149         	9.307          	7.096
MS.150         	9.29           	7.083
MS.151         	9.27           	7.108
MS.152         	9.252          	7.089
MS.153         	9.235          	7.09
MS.154         	9.215          	7.114
MS.155         	9.198          	7.092
MS.156         	9.18           	7.101
MS.157         	9.16           	7.109
MS.158         	9.142          	7.123
MS.159         	9.125          	7.119
MS.160         	9.105          	7.104
MS.161         	9.087          	7.117
MS.162         	9.07           	7.11
MS.163         	9.052          	7.116
MS.164         	9.033          	7.115
MS.165         	9.015          	7.125
MS.166         	8.997          	7.097
MS.167         	8.98           	7.125
MS.168         	8.96           	7.124
MS.169         	8.943          	7.115
MS.170         	8.925          	7.107
MS.171         	8.908          	7.1
MS.172         	8.89           	7.119
MS.173         	8.872          	7.087
MS.174         	8.855          	7.115
MS.175         	8.837          	7.1
MS.176         	8.82           	7.103
MS.177         	8.802          	7.104
MS.178         	8.783          	7.118
MS.179         	8.765          	7.12
MS.180         	8.747          	7.112
MS.181         	8.73           	7.115
MS.182         	8.715          	7.114
MS.183         	8.698          	7.115
MS.184         	8.68           	7.117
MS.185         	8.662          	7.12
MS.186         	8.645          	7.11
MS.187         	8.627          	7.155
MS.188         	8.61           	7.123
MS.189         	8.592          	7.114
MS.190         	8.575          	7.116
MS.191         	8.557          	7.122
MS.192         	8.54           	7.114
MS.193         	8.525          	7.125
MS.194         	8.507          	7.125
MS.195         	8.49           	7.109
MS.196         	8.472          	7.114
MS.197         	8.455          	7.098
MS.198         	8.44           	7.123
MS.199         	8.422          	7.112
MS.200         	8.405          	7.115
MS.201         	8.39           	7.118
MS.202         	8.372          	7.108
MS.203         	8.355          	7.123
MS.204         	8.337          	7.105
MS.205         	8.323          	7.106
MS.206         	8.305          	7.11
MS.207         	8.29           	7.122
MS.208         	8.273          	7.089
MS.209         	8.255          	7.12
MS.210         	8.24           	7.119
MS.211         	8.222          	7.111
MS.212         	8.207          	7.123
MS.213         	8.19           	7.123
MS.214         	8.172          	7.12
MS.215         	8.158          	7.114
MS.216         	8.14           	7.108
MS.217         	8.125          	7.142
MS.218         	8.108          	7.111
MS.219         	8.092          	7.11
MS.220         	8.075          	7.099
MS.221         	8.06           	7.117
MS.222         	8.045          	7.115
MS.223         	8.028          	7.13
MS.224         	8.012          	7.128
MS.225         	7.995          	7.108
MS.226         	7.98           	7.112
MS.227         	7.965          	7.127
MS.228         	7.947          	7.104
MS.229         	7.932          	7.109
MS.230         	7.915          	7.12
MS.231         	7.9            	7.094
MS.232         	7.885          	7.109
MS.233         	7.87           	7.085
MS.234         	7.852          	7.081
MS.235         	7.837          	7.092
MS.236         	7.822          	7.12
MS.237         	7.805          	7.1
MS.238         	7.79           	7.128
MS.239         	7.775          	7.117
MS.240         	7.76           	7.089
MS.241         	7.745          	7.087
MS.242         	7.727          	7.114
MS.243         	7.712          	7.119
MS.244         	7.697          	7.108
MS.245         	7.682          	7.125
MS.246         	7.668          	7.106
MS.247         	7.652          	7.114
MS.248         	7.635          	7.106
MS.249         	7.62           	7.106
MS.250         	7.605          	7.126
MS.251         	7.59           	7.123
MS.252         	7.575          	7.122
MS.253         	7.56           	7.125
MS.254         	7.545          	7.128
MS.255         	7.53           	7.114
MS.256         	7.515          	7.108
MS.257         	7.5            	7.068
MS.258         	7.485          	7.119
MS.259         	7.47           	7.142
MS.260         	7.455          	7.111
MS.261         	7.44           	7.065
MS.262         	7.425          	7.086
MS.263         	7.41           	7.114
MS.264         	7.395          	7.089
MS.265         	7.38           	7.12
MS.266         	7.365          	7.104
MS.267         	7.352          	7.116
MS.268         	7.337          	7.112
MS.269         	7.322          	7.078
MS.270         	7.307          	7.034
MS.271         	7.293          	7.095
MS.272         	7.277          	7.122
MS.273         	7.265          	7.035
MS.274         	7.25           	7.111
MS.275         	7.235          	7.056
MS.276         	7.22           	7.108
MS.277         	7.205          	7.078
MS.278         	7.192          	7.044
MS.279         	7.177          	7.09
MS.280         	7.162          	7.057
MS.281         	7.148          	7.028
MS.282         	7.135          	7.032
MS.283         	7.12           	7.078
MS.284         	7.105          	7.085
MS.285         	7.092          	7.052
MS.286         	7.077          	7.057
MS.287         	7.062          	7.054
MS.288         	7.05           	7.079
MS.289         	7.035          	7.086
MS.290         	7.02           	7.063
MS.291         	7.007          	7.04
MS.292         	6.992          	7.045
MS.293         	6.98           	7.077
MS.294         	6.965          	7.056
MS.295         	6.95           	7.015
MS.296         	6.938          	7.006
MS.297         	6.922          	7.037
MS.298         	6.91           	7.051
MS.299         	6.895          	7.022
MS.300         	6.882          	7.043
MS.301         	6.867          	7.018
MS.302         	6.855          	7.009
MS.303         	6.84           	7.07
MS.304         	6.827          	6.97
MS.305         	6.812          	7.057
MS.306         	6.8            	7.047
MS.307         	6.787          	7.011
MS.308         	6.773          	7.031
MS.309         	6.76           	7.02
MS.310         	6.745          	7.029
MS.311         	6.733          	7.029
MS.312         	6.72           	7.021
MS.313         	6.705          	7.026
MS.314         	6.692          	6.936
MS.315         	6.677          	6.873
MS.316         	6.665          	6.957
MS.317         	6.652          	6.841
MS.318         	6.637          	6.86
MS.319         	6.625          	6.86
MS.320         	6.612          	6.928
MS.321         	6.6            	6.869
MS.322         	6.585          	6.868
MS.323         	6.572          	6.866
MS.324         	6.56           	6.877
MS.325         	6.547          	6.966
MS.326         	6.532          	6.893
MS.327         	6.52           	6.693
MS.328         	6.507          	6.67
MS.329         	6.495          	6.704
MS.330         	6.48           	6.843
MS.331         	6.467          	6.877
MS.332         	6.455          	6.669
MS.333         	6.442          	6.685
MS.334         	6.43           	6.645
MS.335         	6.418          	6.757
MS.336         	6.405          	6.715
MS.337         	6.39           	6.674
MS.338         	6.378          	6.697
MS.339         	6.365          	6.608
MS.340         	6.352          	6.678
MS.341         	6.34           	6.55
MS.342         	6.327          	6.691
MS.343         	6.315          	6.587
MS.344         	6.302          	6.606
MS.345         	6.29           	6.539
MS.346         	6.277          	6.611
MS.347         	6.265          	6.573
MS.348         	6.253          	6.542
MS.349         	6.24           	6.523
MS.350         	6.227          	6.547
MS.351         	6.215          	6.536
MS.352         	6.202          	6.533
MS.353         	6.19           	6.49
MS.354         	6.177          	6.578
MS.355         	6.165          	6.577
MS.356         	6.152          	6.564
MS.357         	6.14           	6.456
MS.358         	6.128          	6.578
MS.359         	6.115          	6.397
MS.360         	6.102          	6.331
MS.361         	6.092          	6.489
MS.362         	6.08           	6.454
MS.363         	6.067          	6.456
MS.364         	6.055          	6.482
MS.365         	6.043          	6.484
MS.366         	6.03           	6.377
MS.367         	6.02           	6.441
MS.368         	6.007          	6.369
MS.369         	5.995          	6.302
MS.370         	5.983          	6.391
MS.371         	5.97           	6.259
MS.372         	5.96           	6.199
MS.373         	5.947          	6.196
MS.374         	5.935          	6.277
MS.375         	5.922          	6.212
MS.376         	5.912          	6.279
MS.377         	5.9            	6.14
MS.378         	5.887          	6.241
MS.379         	5.875          	6.246
MS.380         	5.865          	6.191
MS.381         	5.852          	6.176
MS.382         	5.84           	6.086
MS.383         	5.83           	6.197
MS.384         	5.817          	6.301
MS.385         	5.805          	6.134
MS.386         	5.795          	5.919
MS.387         	5.782          	6.038
MS.388         	5.773          	6.033
MS.389         	5.76           	5.936
MS.390         	5.747          	6.087
MS.391         	5.737          	5.884
MS.392         	5.725          	5.893
MS.393         	5.715          	5.932
MS.394         	5.702          	5.936
MS.395         	5.69           	5.942
MS.396         	5.68           	6.048
MS.397         	5.668          	5.901
MS.398         	5.657          	5.854
MS.399         	5.645          	5.694
MS.400         	5.635          	5.932
MS.401         	5.622          	5.877
MS.402         	5.612          	5.808
MS.403         	5.6            	5.737
MS.404         	5.59           	5.749
MS.405         	5.577          	5.679
MS.406         	5.567          	5.767
MS.407         	5.555          	5.665
MS.408         	5.545          	5.674
MS.409         	5.535          	5.656
MS.410         	5.523          	5.701
MS.411         	5.512          	5.827
MS.412         	5.5            	5.629
MS.413         	5.49           	5.678
MS.414         	5.48           	5.731
MS.415         	5.467          	5.493
MS.416         	5.457          	5.559
MS.417         	5.445          	5.546
MS.418         	5.435          	5.519
MS.419         	5.425          	5.6
MS.420         	5.412          	5.524
MS.421         	5.402          	5.583
MS.422         	5.392          	5.444
MS.423         	5.38           	5.28
MS.424         	5.37           	5.513
MS.425         	5.36           	5.198
MS.426         	5.35           	5.526
MS.427         	5.338          	5.367
MS.428         	5.327          	5.352
MS.429         	5.318          	5.458
MS.430         	5.307          	5.34
MS.431         	5.295          	5.355
MS.432         	5.285          	5.291
MS.433         	5.275          	5.374
MS.434         	5.265          	5.263
MS.435         	5.253          	5.197
MS.436         	5.242          	5.332
MS.437         	5.233          	5.094
MS.438         	5.222          	5.288
MS.439         	5.213          	5.029
MS.440         	5.202          	5.027
MS.441         	5.19           	4.904
MS.442         	5.18           	4.988
MS.443         	5.17           	5.045
MS.444         	5.16           	4.999
MS.445         	5.15           	4.924
MS.446         	5.14           	4.965
MS.447         	5.13           	4.949
MS.448         	5.117          	4.907
MS.449         	5.108          	5.057
MS.450         	5.097          	4.941
MS.451         	5.088          	4.832
MS.452         	5.077          	4.808
MS.453         	5.068          	4.737
MS.454         	5.057          	4.725
MS.455         	5.047          	4.666
MS.456         	5.037          	4.596
MS.457         	5.027          	4.772
MS.458         	5.017          	4.605
MS.459         	5.007          	4.801
MS.460         	4.997          	4.54
MS.461         	4.987          	4.497
MS.462         	4.977          	4.465
MS.463         	4.967          	4.474
MS.464         	4.957          	4.454
MS.465         	4.947          	4.491
MS.466         	4.938          	4.394
MS.467         	4.927          	4.346
MS.468         	4.918          	4.264
MS.469         	4.907          	4.433
MS.470         	4.898          	4.238
MS.471         	4.887          	4.268
MS.472         	4.88           	4.223
MS.473         	4.87           	4.141
MS.474         	4.86           	4.233
MS.475         	4.85           	4.056
MS.476         	4.84           	4.053
MS.477         	4.83           	4.005
MS.478         	4.82           	4.022
MS.479         	4.81           	4.035
MS.480         	4.802          	3.734
MS.481         	4.793          	3.833
MS.482         	4.782          	3.988
MS.483         	4.773          	3.812
MS.484         	4.762          	3.713
MS.485         	4.753          	3.716
MS.486         	4.745          	3.737
MS.487         	4.735          	3.615
MS.488         	4.725          	3.463
MS.489         	4.715          	3.531
MS.490         	4.707          	3.505
MS.491         	4.697          	3.423
MS.492         	4.688          	3.549
MS.493         	4.677          	3.244
MS.494         	4.67           	3.314
MS.495         	4.66           	3.305
MS.496         	4.65           	3.199
MS.497         	4.64           	3.169
MS.498         	4.632          	3.244
MS.499         	4.622          	3.144
MS.500         	4.612          	3.282
MS.501         	4.605          	3.162
MS.502         	4.595          	3.142
MS.503         	4.585          	3.096
