File:              	C:\Qtrac\Data\ME2C30707B.QZD
Name:              	 HA08E
Protocol:          	MSCAN-MV
Date:              	7/7/23
Date of birth:     	8/7/04
Age:               	18
Sex:               	F
Temperature:       	32.6
S/R sites:         	Knee CF-TA
NC/disease:        	NC
Operator:          	BY
Comments:
M-SCAN DATA (Repeat 2/3, 26.1-15.6m)
Scanpts: 40, 63, 767, 832
Stim. (mA)     	Amp. (mV)
MS.1           	29             	6.69
MS.2           	29             	6.683
MS.3           	29             	6.691
MS.4           	29             	6.674
MS.5           	29             	6.669
MS.6           	29             	6.677
MS.7           	29             	6.666
MS.8           	29             	6.679
MS.9           	29             	6.682
MS.10          	29             	6.694
MS.11          	29             	6.686
MS.12          	29             	6.699
MS.13          	29             	6.669
MS.14          	29             	6.68
MS.15          	29             	6.678
MS.16          	29             	6.685
MS.17          	29             	6.68
MS.18          	29             	6.722
MS.19          	29             	6.712
MS.20          	29             	6.696
MS.21          	29             	6.723
MS.22          	29             	6.71
MS.23          	29             	6.713
MS.24          	28.942         	6.727
MS.25          	28.885         	6.715
MS.26          	28.827         	6.716
MS.27          	28.77          	6.732
MS.28          	28.712         	6.721
MS.29          	28.655         	6.707
MS.30          	28.597         	6.705
MS.31          	28.54          	6.716
MS.32          	28.483         	6.722
MS.33          	28.425         	6.753
MS.34          	28.37          	6.72
MS.35          	28.312         	6.76
MS.36          	28.255         	6.716
MS.37          	28.2           	6.718
MS.38          	28.142         	6.705
MS.39          	28.087         	6.697
MS.40          	28.03          	6.71
MS.41          	27.975         	6.718
MS.42          	27.917         	6.716
MS.43          	27.862         	6.717
MS.44          	27.807         	6.71
MS.45          	27.752         	6.713
MS.46          	27.695         	6.726
MS.47          	27.64          	6.697
MS.48          	27.585         	6.706
MS.49          	27.53          	6.707
MS.50          	27.475         	6.701
MS.51          	27.42          	6.703
MS.52          	27.365         	6.71
MS.53          	27.31          	6.666
MS.54          	27.257         	6.717
MS.55          	27.202         	6.714
MS.56          	27.147         	6.708
MS.57          	27.092         	6.705
MS.58          	27.04          	6.709
MS.59          	26.985         	6.699
MS.60          	26.932         	6.722
MS.61          	26.877         	6.721
MS.62          	26.825         	6.712
MS.63          	26.77          	6.713
MS.64          	26.717         	6.692
MS.65          	26.662         	6.677
MS.66          	26.61          	6.719
MS.67          	26.557         	6.693
MS.68          	26.505         	6.69
MS.69          	26.45          	6.68
MS.70          	26.397         	6.692
MS.71          	26.345         	6.675
MS.72          	26.292         	6.653
MS.73          	26.24          	6.719
MS.74          	26.188         	6.693
MS.75          	26.135         	6.659
MS.76          	26.082         	6.632
MS.77          	26.03          	6.657
MS.78          	25.98          	6.678
MS.79          	25.927         	6.667
MS.80          	25.875         	6.693
MS.81          	25.825         	6.716
MS.82          	25.772         	6.657
MS.83          	25.72          	6.622
MS.84          	25.67          	6.702
MS.85          	25.618         	6.642
MS.86          	25.567         	6.672
MS.87          	25.515         	6.673
MS.88          	25.465         	6.699
MS.89          	25.415         	6.655
MS.90          	25.362         	6.632
MS.91          	25.312         	6.64
MS.92          	25.262         	6.627
MS.93          	25.212         	6.622
MS.94          	25.16          	6.616
MS.95          	25.11          	6.595
MS.96          	25.06          	6.619
MS.97          	25.01          	6.602
MS.98          	24.96          	6.596
MS.99          	24.91          	6.613
MS.100         	24.86          	6.599
MS.101         	24.81          	6.591
MS.102         	24.762         	6.625
MS.103         	24.712         	6.581
MS.104         	24.663         	6.584
MS.105         	24.612         	6.625
MS.106         	24.565         	6.616
MS.107         	24.515         	6.564
MS.108         	24.467         	6.617
MS.109         	24.417         	6.581
MS.110         	24.368         	6.57
MS.111         	24.32          	6.609
MS.112         	24.272         	6.548
MS.113         	24.222         	6.605
MS.114         	24.175         	6.595
MS.115         	24.125         	6.577
MS.116         	24.077         	6.589
MS.117         	24.03          	6.558
MS.118         	23.983         	6.577
MS.119         	23.935         	6.535
MS.120         	23.885         	6.488
MS.121         	23.837         	6.554
MS.122         	23.79          	6.522
MS.123         	23.743         	6.547
MS.124         	23.695         	6.483
MS.125         	23.647         	6.501
MS.126         	23.6           	6.544
MS.127         	23.555         	6.467
MS.128         	23.507         	6.516
MS.129         	23.46          	6.532
MS.130         	23.413         	6.481
MS.131         	23.368         	6.495
MS.132         	23.32          	6.465
MS.133         	23.272         	6.472
MS.134         	23.227         	6.548
MS.135         	23.18          	6.563
MS.136         	23.135         	6.436
MS.137         	23.087         	6.493
MS.138         	23.042         	6.486
MS.139         	22.995         	6.466
MS.140         	22.95          	6.504
MS.141         	22.903         	6.465
MS.142         	22.858         	6.456
MS.143         	22.812         	6.467
MS.144         	22.767         	6.451
MS.145         	22.72          	6.447
MS.146         	22.675         	6.386
MS.147         	22.63          	6.506
MS.148         	22.585         	6.401
MS.149         	22.54          	6.409
MS.150         	22.495         	6.508
MS.151         	22.45          	6.478
MS.152         	22.405         	6.484
MS.153         	22.36          	6.429
MS.154         	22.315         	6.441
MS.155         	22.27          	6.42
MS.156         	22.227         	6.348
MS.157         	22.182         	6.411
MS.158         	22.137         	6.441
MS.159         	22.095         	6.396
MS.160         	22.05          	6.406
MS.161         	22.005         	6.42
MS.162         	21.962         	6.363
MS.163         	21.917         	6.348
MS.164         	21.875         	6.402
MS.165         	21.83          	6.363
MS.166         	21.788         	6.367
MS.167         	21.743         	6.364
MS.168         	21.7           	6.351
MS.169         	21.657         	6.354
MS.170         	21.612         	6.306
MS.171         	21.57          	6.368
MS.172         	21.528         	6.274
MS.173         	21.483         	6.249
MS.174         	21.44          	6.301
MS.175         	21.397         	6.349
MS.176         	21.355         	6.251
MS.177         	21.312         	6.207
MS.178         	21.27          	6.316
MS.179         	21.227         	6.26
MS.180         	21.185         	6.257
MS.181         	21.142         	6.199
MS.182         	21.1           	6.16
MS.183         	21.057         	6.266
MS.184         	21.017         	6.191
MS.185         	20.975         	6.178
MS.186         	20.932         	6.138
MS.187         	20.89          	6.127
MS.188         	20.85          	6.152
MS.189         	20.807         	6.119
MS.190         	20.765         	6.119
MS.191         	20.725         	6.127
MS.192         	20.682         	6.13
MS.193         	20.642         	6.158
MS.194         	20.6           	6.11
MS.195         	20.56          	6.144
MS.196         	20.517         	6.082
MS.197         	20.477         	6.151
MS.198         	20.435         	6.041
MS.199         	20.395         	6.149
MS.200         	20.355         	6.075
MS.201         	20.312         	6.083
MS.202         	20.272         	6.194
MS.203         	20.233         	5.995
MS.204         	20.192         	6.047
MS.205         	20.153         	6.05
MS.206         	20.112         	6.072
MS.207         	20.073         	5.95
MS.208         	20.032         	6.078
MS.209         	19.993         	6.031
MS.210         	19.952         	5.956
MS.211         	19.913         	5.957
MS.212         	19.872         	5.887
MS.213         	19.833         	6.083
MS.214         	19.792         	5.952
MS.215         	19.752         	5.986
MS.216         	19.712         	5.981
MS.217         	19.675         	5.954
MS.218         	19.635         	5.931
MS.219         	19.595         	5.891
MS.220         	19.557         	5.847
MS.221         	19.517         	5.949
MS.222         	19.477         	5.828
MS.223         	19.44          	5.901
MS.224         	19.4           	5.83
MS.225         	19.362         	5.864
MS.226         	19.323         	5.942
MS.227         	19.285         	5.891
MS.228         	19.245         	5.948
MS.229         	19.208         	5.944
MS.230         	19.17          	5.925
MS.231         	19.13          	5.895
MS.232         	19.092         	5.878
MS.233         	19.055         	5.858
MS.234         	19.017         	5.876
MS.235         	18.977         	5.784
MS.236         	18.94          	5.849
MS.237         	18.903         	5.673
MS.238         	18.865         	5.827
MS.239         	18.827         	5.78
MS.240         	18.79          	5.637
MS.241         	18.753         	5.67
MS.242         	18.715         	5.624
MS.243         	18.677         	5.622
MS.244         	18.64          	5.622
MS.245         	18.602         	5.544
MS.246         	18.565         	5.527
MS.247         	18.528         	5.555
MS.248         	18.49          	5.644
MS.249         	18.455         	5.453
MS.250         	18.417         	5.38
MS.251         	18.38          	5.479
MS.252         	18.345         	5.51
MS.253         	18.307         	5.369
MS.254         	18.27          	5.353
MS.255         	18.235         	5.558
MS.256         	18.198         	5.594
MS.257         	18.163         	5.41
MS.258         	18.125         	5.478
MS.259         	18.09          	5.331
MS.260         	18.052         	5.084
MS.261         	18.017         	5.328
MS.262         	17.98          	5.331
MS.263         	17.945         	5.206
MS.264         	17.91          	5.184
MS.265         	17.872         	5.026
MS.266         	17.837         	5.036
MS.267         	17.802         	5.123
MS.268         	17.765         	5.206
MS.269         	17.73          	5.202
MS.270         	17.695         	5.184
MS.271         	17.66          	5.032
MS.272         	17.625         	4.957
MS.273         	17.59          	5.054
MS.274         	17.555         	5.03
MS.275         	17.52          	5.177
MS.276         	17.485         	4.949
MS.277         	17.45          	4.951
MS.278         	17.415         	4.83
MS.279         	17.38          	4.87
MS.280         	17.345         	4.871
MS.281         	17.31          	4.899
MS.282         	17.275         	4.744
MS.283         	17.24          	4.814
MS.284         	17.208         	4.891
MS.285         	17.172         	4.73
MS.286         	17.137         	4.816
MS.287         	17.102         	4.746
MS.288         	17.07          	4.659
MS.289         	17.035         	4.719
MS.290         	17.003         	4.628
MS.291         	16.967         	4.573
MS.292         	16.932         	4.714
MS.293         	16.9           	4.47
MS.294         	16.865         	4.622
MS.295         	16.833         	4.398
MS.296         	16.797         	4.458
MS.297         	16.765         	4.293
MS.298         	16.733         	4.364
MS.299         	16.698         	4.326
MS.300         	16.665         	4.495
MS.301         	16.632         	4.468
MS.302         	16.597         	4.225
MS.303         	16.565         	4.36
MS.304         	16.532         	4.224
MS.305         	16.5           	4.246
MS.306         	16.465         	4.243
MS.307         	16.432         	4.392
MS.308         	16.4           	4.099
MS.309         	16.368         	4.306
MS.310         	16.335         	4.293
MS.311         	16.302         	4.187
MS.312         	16.27          	4.011
MS.313         	16.237         	3.967
MS.314         	16.205         	3.889
MS.315         	16.172         	3.898
MS.316         	16.14          	4.062
MS.317         	16.108         	3.998
MS.318         	16.075         	3.986
MS.319         	16.042         	3.931
MS.320         	16.012         	3.841
MS.321         	15.98          	3.853
MS.322         	15.947         	3.919
MS.323         	15.915         	3.71
MS.324         	15.882         	3.745
MS.325         	15.852         	3.729
MS.326         	15.82          	3.565
MS.327         	15.787         	3.657
MS.328         	15.757         	3.579
MS.329         	15.725         	3.612
MS.330         	15.695         	3.612
MS.331         	15.662         	3.555
MS.332         	15.632         	3.667
MS.333         	15.6           	3.644
MS.334         	15.57          	3.486
MS.335         	15.537         	3.548
MS.336         	15.507         	3.446
MS.337         	15.475         	3.488
MS.338         	15.445         	3.414
MS.339         	15.415         	3.337
MS.340         	15.382         	3.417
MS.341         	15.352         	3.336
MS.342         	15.322         	3.253
MS.343         	15.292         	3.262
MS.344         	15.26          	3.182
MS.345         	15.23          	3.187
MS.346         	15.2           	2.916
MS.347         	15.17          	3.021
MS.348         	15.14          	3.029
MS.349         	15.11          	3.024
MS.350         	15.08          	3.055
MS.351         	15.05          	3.082
MS.352         	15.017         	3.076
MS.353         	14.987         	2.95
MS.354         	14.957         	2.972
MS.355         	14.93          	2.925
MS.356         	14.9           	2.825
MS.357         	14.87          	2.743
MS.358         	14.84          	2.838
MS.359         	14.81          	2.904
MS.360         	14.78          	2.808
MS.361         	14.75          	2.761
MS.362         	14.722         	2.73
MS.363         	14.693         	2.734
MS.364         	14.662         	2.662
MS.365         	14.632         	2.656
MS.366         	14.605         	2.64
MS.367         	14.575         	2.625
MS.368         	14.545         	2.709
MS.369         	14.517         	2.503
MS.370         	14.487         	2.518
MS.371         	14.457         	2.411
MS.372         	14.43          	2.527
MS.373         	14.4           	2.496
MS.374         	14.372         	2.413
MS.375         	14.342         	2.385
MS.376         	14.315         	2.304
MS.377         	14.285         	2.36
MS.378         	14.257         	2.286
MS.379         	14.23          	2.348
MS.380         	14.2           	2.298
MS.381         	14.172         	2.166
MS.382         	14.145         	2.306
MS.383         	14.115         	2.078
MS.384         	14.087         	2.225
MS.385         	14.06          	2.108
MS.386         	14.032         	2.007
MS.387         	14.002         	2.16
MS.388         	13.975         	1.972
MS.389         	13.947         	1.932
MS.390         	13.92          	1.904
MS.391         	13.892         	1.915
MS.392         	13.865         	1.935
MS.393         	13.837         	1.931
MS.394         	13.807         	1.782
MS.395         	13.78          	1.907
MS.396         	13.752         	1.85
MS.397         	13.725         	1.868
MS.398         	13.697         	1.719
MS.399         	13.672         	1.71
MS.400         	13.645         	1.589
MS.401         	13.617         	1.61
MS.402         	13.59          	1.711
MS.403         	13.562         	1.635
MS.404         	13.535         	1.608
MS.405         	13.507         	1.655
MS.406         	13.48          	1.666
MS.407         	13.455         	1.562
MS.408         	13.427         	1.623
MS.409         	13.4           	1.473
MS.410         	13.375         	1.436
MS.411         	13.347         	1.534
MS.412         	13.32          	1.53
MS.413         	13.295         	1.461
MS.414         	13.267         	1.431
MS.415         	13.24          	1.394
MS.416         	13.215         	1.337
MS.417         	13.188         	1.29
MS.418         	13.162         	1.241
MS.419         	13.135         	1.271
MS.420         	13.11          	1.277
MS.421         	13.082         	1.241
MS.422         	13.057         	1.24
MS.423         	13.03          	1.191
MS.424         	13.005         	1.105
MS.425         	12.977         	1.121
MS.426         	12.952         	1.095
MS.427         	12.927         	1.072
MS.428         	12.9           	1.145
MS.429         	12.875         	1.085
MS.430         	12.85          	1.022
MS.431         	12.822         	1.109
MS.432         	12.797         	1.079
MS.433         	12.773         	0.984
MS.434         	12.747         	0.933
MS.435         	12.722         	1.014
MS.436         	12.695         	0.956
MS.437         	12.67          	1.095
MS.438         	12.645         	0.944
MS.439         	12.62          	0.97
MS.440         	12.595         	0.92
MS.441         	12.57          	0.873
MS.442         	12.545         	0.877
MS.443         	12.52          	0.916
MS.444         	12.495         	0.897
MS.445         	12.47          	0.801
MS.446         	12.445         	0.901
MS.447         	12.42          	0.81
MS.448         	12.395         	0.82
MS.449         	12.37          	0.801
MS.450         	12.345         	0.779
MS.451         	12.32          	0.792
MS.452         	12.297         	0.742
MS.453         	12.273         	0.785
MS.454         	12.247         	0.674
MS.455         	12.222         	0.67
MS.456         	12.197         	0.713
MS.457         	12.175         	0.637
MS.458         	12.15          	0.675
MS.459         	12.125         	0.704
MS.460         	12.1           	0.677
MS.461         	12.077         	0.616
MS.462         	12.052         	0.667
MS.463         	12.028         	0.618
MS.464         	12.005         	0.594
MS.465         	11.98          	0.573
MS.466         	11.957         	0.544
MS.467         	11.932         	0.54
MS.468         	11.91          	0.527
MS.469         	11.885         	0.545
MS.470         	11.863         	0.515
MS.471         	11.837         	0.554
MS.472         	11.815         	0.447
MS.473         	11.79          	0.507
MS.474         	11.767         	0.457
MS.475         	11.742         	0.459
MS.476         	11.72          	0.517
MS.477         	11.697         	0.508
MS.478         	11.672         	0.406
MS.479         	11.65          	0.446
MS.480         	11.627         	0.448
MS.481         	11.602         	0.468
MS.482         	11.58          	0.466
MS.483         	11.557         	0.445
MS.484         	11.535         	0.469
MS.485         	11.51          	0.475
MS.486         	11.488         	0.394
MS.487         	11.465         	0.39
MS.488         	11.443         	0.364
MS.489         	11.42          	0.37
MS.490         	11.398         	0.338
MS.491         	11.372         	0.351
MS.492         	11.35          	0.345
MS.493         	11.327         	0.316
MS.494         	11.305         	0.316
MS.495         	11.282         	0.344
MS.496         	11.26          	0.307
MS.497         	11.238         	0.393
MS.498         	11.215         	0.375
MS.499         	11.193         	0.307
MS.500         	11.17          	0.333
MS.501         	11.148         	0.319
MS.502         	11.125         	0.321
MS.503         	11.105         	0.312
