File:              	C:\Qtrac\Data\ME2C30706A.QZD
Name:              	 SH18U
Protocol:          	MSCAN-MV
Date:              	6/7/23
Date of birth:     	18/6/94
Age:               	29
Sex:               	F
Temperature:       	28.4
S/R sites:         	Knee CF-TA
NC/disease:        	NC
Operator:          	BY
Comments:
M-SCAN DATA (Repeat 3/3, 26.5-19.7m)
Scanpts: 1, 18, 471, 555
Stim. (mA)     	Amp. (mV)
MS.1           	15             	4.28
MS.2           	15             	4.3
MS.3           	15             	4.312
MS.4           	15             	4.31
MS.5           	15             	4.303
MS.6           	15             	4.259
MS.7           	15             	4.276
MS.8           	15             	4.286
MS.9           	15             	4.291
MS.10          	15             	4.286
MS.11          	15             	4.271
MS.12          	15             	4.285
MS.13          	15             	4.292
MS.14          	15             	4.283
MS.15          	15             	4.254
MS.16          	15             	4.269
MS.17          	15             	4.311
MS.18          	15             	4.274
MS.19          	15             	4.269
MS.20          	15             	4.29
MS.21          	15             	4.276
MS.22          	15             	4.298
MS.23          	15             	4.268
MS.24          	14.97          	4.277
MS.25          	14.94          	4.256
MS.26          	14.91          	4.263
MS.27          	14.88          	4.255
MS.28          	14.85          	4.253
MS.29          	14.82          	4.263
MS.30          	14.792         	4.263
MS.31          	14.762         	4.243
MS.32          	14.733         	4.228
MS.33          	14.702         	4.225
MS.34          	14.672         	4.255
MS.35          	14.645         	4.249
MS.36          	14.615         	4.232
MS.37          	14.585         	4.212
MS.38          	14.557         	4.226
MS.39          	14.527         	4.182
MS.40          	14.497         	4.232
MS.41          	14.47          	4.219
MS.42          	14.44          	4.218
MS.43          	14.412         	4.237
MS.44          	14.382         	4.208
MS.45          	14.355         	4.198
MS.46          	14.325         	4.191
MS.47          	14.297         	4.213
MS.48          	14.267         	4.21
MS.49          	14.24          	4.203
MS.50          	14.212         	4.221
MS.51          	14.182         	4.203
MS.52          	14.155         	4.247
MS.53          	14.127         	4.252
MS.54          	14.097         	4.181
MS.55          	14.07          	4.222
MS.56          	14.042         	4.214
MS.57          	14.015         	4.222
MS.58          	13.985         	4.185
MS.59          	13.957         	4.221
MS.60          	13.93          	4.223
MS.61          	13.903         	4.222
MS.62          	13.875         	4.189
MS.63          	13.847         	4.236
MS.64          	13.82          	4.15
MS.65          	13.792         	4.231
MS.66          	13.765         	4.169
MS.67          	13.737         	4.179
MS.68          	13.71          	4.156
MS.69          	13.682         	4.172
MS.70          	13.655         	4.156
MS.71          	13.627         	4.146
MS.72          	13.6           	4.155
MS.73          	13.572         	4.113
MS.74          	13.545         	4.16
MS.75          	13.517         	4.081
MS.76          	13.492         	4.105
MS.77          	13.465         	4.127
MS.78          	13.438         	4.163
MS.79          	13.41          	4.122
MS.80          	13.385         	4.091
MS.81          	13.358         	4.088
MS.82          	13.33          	4.083
MS.83          	13.305         	4.083
MS.84          	13.278         	4.124
MS.85          	13.25          	4.165
MS.86          	13.225         	4.165
MS.87          	13.197         	4.14
MS.88          	13.172         	4.062
MS.89          	13.145         	4.067
MS.90          	13.12          	4.097
MS.91          	13.092         	4.052
MS.92          	13.068         	3.996
MS.93          	13.04          	4.084
MS.94          	13.015         	4.012
MS.95          	12.987         	4.059
MS.96          	12.962         	4.014
MS.97          	12.938         	3.951
MS.98          	12.91          	3.971
MS.99          	12.885         	3.974
MS.100         	12.86          	3.941
MS.101         	12.832         	4.014
MS.102         	12.807         	3.95
MS.103         	12.782         	3.979
MS.104         	12.757         	3.883
MS.105         	12.73          	3.949
MS.106         	12.705         	3.893
MS.107         	12.68          	3.883
MS.108         	12.655         	3.882
MS.109         	12.63          	3.851
MS.110         	12.605         	3.87
MS.111         	12.58          	3.857
MS.112         	12.555         	3.85
MS.113         	12.53          	3.807
MS.114         	12.505         	3.81
MS.115         	12.48          	3.882
MS.116         	12.455         	3.839
MS.117         	12.43          	3.834
MS.118         	12.405         	3.796
MS.119         	12.38          	3.869
MS.120         	12.355         	3.804
MS.121         	12.33          	3.858
MS.122         	12.305         	3.78
MS.123         	12.28          	3.674
MS.124         	12.257         	3.735
MS.125         	12.233         	3.738
MS.126         	12.207         	3.642
MS.127         	12.182         	3.669
MS.128         	12.16          	3.69
MS.129         	12.135         	3.629
MS.130         	12.11          	3.698
MS.131         	12.085         	3.71
MS.132         	12.062         	3.621
MS.133         	12.037         	3.571
MS.134         	12.012         	3.605
MS.135         	11.99          	3.575
MS.136         	11.965         	3.64
MS.137         	11.943         	3.565
MS.138         	11.917         	3.564
MS.139         	11.895         	3.544
MS.140         	11.87          	3.519
MS.141         	11.847         	3.497
MS.142         	11.822         	3.449
MS.143         	11.8           	3.423
MS.144         	11.775         	3.387
MS.145         	11.752         	3.465
MS.146         	11.73          	3.452
MS.147         	11.705         	3.345
MS.148         	11.682         	3.396
MS.149         	11.657         	3.389
MS.150         	11.635         	3.373
MS.151         	11.613         	3.309
MS.152         	11.59          	3.31
MS.153         	11.565         	3.332
MS.154         	11.542         	3.342
MS.155         	11.52          	3.224
MS.156         	11.497         	3.152
MS.157         	11.472         	3.192
MS.158         	11.45          	3.222
MS.159         	11.427         	3.162
MS.160         	11.405         	3.18
MS.161         	11.382         	3.221
MS.162         	11.36          	3.216
MS.163         	11.337         	3.179
MS.164         	11.315         	3.182
MS.165         	11.292         	3.078
MS.166         	11.27          	3.121
MS.167         	11.247         	3.101
MS.168         	11.225         	3.086
MS.169         	11.202         	2.945
MS.170         	11.18          	3.015
MS.171         	11.157         	2.973
MS.172         	11.135         	2.828
MS.173         	11.113         	2.914
MS.174         	11.09          	2.846
MS.175         	11.068         	2.817
MS.176         	11.045         	2.889
MS.177         	11.023         	2.809
MS.178         	11.002         	2.824
MS.179         	10.98          	2.716
MS.180         	10.957         	2.806
MS.181         	10.935         	2.73
MS.182         	10.915         	2.696
MS.183         	10.892         	2.622
MS.184         	10.87          	2.725
MS.185         	10.85          	2.745
MS.186         	10.827         	2.637
MS.187         	10.805         	2.639
MS.188         	10.785         	2.551
MS.189         	10.762         	2.626
MS.190         	10.74          	2.725
MS.191         	10.72          	2.639
MS.192         	10.698         	2.582
MS.193         	10.677         	2.521
MS.194         	10.655         	2.559
MS.195         	10.635         	2.584
MS.196         	10.613         	2.463
MS.197         	10.592         	2.408
MS.198         	10.57          	2.376
MS.199         	10.55          	2.46
MS.200         	10.528         	2.298
MS.201         	10.507         	2.382
MS.202         	10.485         	2.252
MS.203         	10.465         	2.259
MS.204         	10.445         	2.203
MS.205         	10.422         	2.164
MS.206         	10.403         	2.094
MS.207         	10.382         	2.161
MS.208         	10.36          	2.07
MS.209         	10.34          	2.019
MS.210         	10.32          	1.959
MS.211         	10.3           	1.965
MS.212         	10.278         	1.979
MS.213         	10.257         	1.91
MS.214         	10.238         	1.98
MS.215         	10.217         	1.868
MS.216         	10.198         	1.793
MS.217         	10.175         	1.779
MS.218         	10.155         	1.676
MS.219         	10.135         	1.762
MS.220         	10.115         	1.685
MS.221         	10.095         	1.669
MS.222         	10.075         	1.718
MS.223         	10.055         	1.65
MS.224         	10.035         	1.67
MS.225         	10.015         	1.666
MS.226         	9.995          	1.582
MS.227         	9.975          	1.594
MS.228         	9.955          	1.552
MS.229         	9.935          	1.542
MS.230         	9.915          	1.474
MS.231         	9.895          	1.452
MS.232         	9.875          	1.47
MS.233         	9.855          	1.46
MS.234         	9.835          	1.431
MS.235         	9.818          	1.452
MS.236         	9.797          	1.359
MS.237         	9.778          	1.307
MS.238         	9.757          	1.259
MS.239         	9.738          	1.261
MS.240         	9.717          	1.248
MS.241         	9.7            	1.216
MS.242         	9.68           	1.232
MS.243         	9.66           	1.143
MS.244         	9.64           	1.257
MS.245         	9.622          	1.168
MS.246         	9.602          	1.127
MS.247         	9.582          	1.093
MS.248         	9.565          	1.115
MS.249         	9.545          	1.113
MS.250         	9.525          	1.066
MS.251         	9.507          	1.038
MS.252         	9.488          	1.024
MS.253         	9.47           	0.992
MS.254         	9.45           	1.019
MS.255         	9.432          	1.028
MS.256         	9.412          	0.978
MS.257         	9.395          	1.04
MS.258         	9.375          	0.957
MS.259         	9.358          	1.042
MS.260         	9.337          	0.965
MS.261         	9.32           	0.904
MS.262         	9.3            	0.928
MS.263         	9.283          	0.89
MS.264         	9.262          	0.863
MS.265         	9.245          	0.792
MS.266         	9.225          	0.756
MS.267         	9.207          	0.72
MS.268         	9.19           	0.732
MS.269         	9.17           	0.707
MS.270         	9.153          	0.652
MS.271         	9.135          	0.664
MS.272         	9.115          	0.587
MS.273         	9.097          	0.605
MS.274         	9.08           	0.635
MS.275         	9.062          	0.579
MS.276         	9.042          	0.563
MS.277         	9.025          	0.53
MS.278         	9.007          	0.547
MS.279         	8.99           	0.485
MS.280         	8.972          	0.45
MS.281         	8.952          	0.482
MS.282         	8.935          	0.492
MS.283         	8.917          	0.423
MS.284         	8.9            	0.45
MS.285         	8.882          	0.461
MS.286         	8.865          	0.36
MS.287         	8.847          	0.448
MS.288         	8.83           	0.427
MS.289         	8.812          	0.351
MS.290         	8.795          	0.341
MS.291         	8.778          	0.327
MS.292         	8.757          	0.322
MS.293         	8.74           	0.338
MS.294         	8.725          	0.27
MS.295         	8.707          	0.337
MS.296         	8.69           	0.306
MS.297         	8.672          	0.251
MS.298         	8.655          	0.274
MS.299         	8.637          	0.274
MS.300         	8.62           	0.198
MS.301         	8.602          	0.259
MS.302         	8.585          	0.231
MS.303         	8.568          	0.209
MS.304         	8.55           	0.222
MS.305         	8.535          	0.146
MS.306         	8.517          	0.176
MS.307         	8.5            	0.182
MS.308         	8.483          	0.165
MS.309         	8.465          	0.11
MS.310         	8.45           	0.157
MS.311         	8.432          	0.134
MS.312         	8.415          	0.085
MS.313         	8.398          	0.082
MS.314         	8.382          	0.063
MS.315         	8.365          	0.067
MS.316         	8.347          	0.063
MS.317         	8.332          	0.121
MS.318         	8.315          	0.04
MS.319         	8.297          	0.035
MS.320         	8.283          	0.068
MS.321         	8.265          	0.027
MS.322         	8.247          	0.028
MS.323         	8.233          	0.02
MS.324         	8.215          	0.018
MS.325         	8.2            	0.024
MS.326         	8.182          	-0.004
MS.327         	8.167          	0.014
MS.328         	8.15           	-0.011
MS.329         	8.135          	-0.009
MS.330         	8.117          	0.016
MS.331         	8.102          	-0.001
MS.332         	8.085          	-0.004
MS.333         	8.07           	-0.005
MS.334         	8.052          	-0.023
MS.335         	8.037          	0.02
MS.336         	8.02           	-0.029
MS.337         	8.005          	-0.019
MS.338         	7.99           	-0.054
MS.339         	7.972          	-0.03
MS.340         	7.957          	-0.032
MS.341         	7.94           	-0.034
MS.342         	7.925          	-0.049
MS.343         	7.91           	-0.038
MS.344         	7.892          	-0.049
MS.345         	7.878          	-0.048
MS.346         	7.862          	-0.037
MS.347         	7.847          	-0.044
MS.348         	7.83           	-0.043
MS.349         	7.815          	-0.061
MS.350         	7.8            	-0.06
MS.351         	7.785          	-0.067
MS.352         	7.767          	-0.04
MS.353         	7.753          	-0.045
MS.354         	7.737          	-0.04
MS.355         	7.722          	-0.068
MS.356         	7.707          	-0.05
MS.357         	7.69           	-0.045
MS.358         	7.675          	-0.041
MS.359         	7.66           	-0.05
MS.360         	7.645          	-0.064
MS.361         	7.63           	-0.057
MS.362         	7.615          	-0.07
MS.363         	7.6            	-0.071
MS.364         	7.585          	-0.084
MS.365         	7.57           	-0.06
MS.366         	7.555          	-0.071
MS.367         	7.537          	-0.071
MS.368         	7.523          	-0.059
MS.369         	7.507          	-0.051
MS.370         	7.492          	-0.078
MS.371         	7.477          	-0.056
MS.372         	7.462          	-0.07
MS.373         	7.45           	-0.057
MS.374         	7.435          	-0.061
MS.375         	7.42           	-0.071
MS.376         	7.405          	-0.071
MS.377         	7.39           	-0.078
MS.378         	7.375          	-0.067
MS.379         	7.36           	-0.065
MS.380         	7.345          	-0.069
MS.381         	7.33           	-0.063
MS.382         	7.315          	-0.079
MS.383         	7.302          	-0.07
MS.384         	7.287          	-0.074
MS.385         	7.273          	-0.076
MS.386         	7.257          	-0.083
MS.387         	7.242          	-0.074
MS.388         	7.227          	-0.077
MS.389         	7.215          	-0.076
MS.390         	7.2            	-0.081
MS.391         	7.185          	-0.076
MS.392         	7.17           	-0.075
MS.393         	7.157          	-0.075
MS.394         	7.142          	-0.079
MS.395         	7.128          	-0.079
MS.396         	7.115          	-0.079
MS.397         	7.1            	-0.076
MS.398         	7.085          	-0.077
MS.399         	7.072          	-0.074
MS.400         	7.057          	-0.072
MS.401         	7.043          	-0.081
MS.402         	7.03           	-0.077
MS.403         	7.015          	-0.076
MS.404         	7              	-0.081
MS.405         	6.987          	-0.073
MS.406         	6.972          	-0.072
MS.407         	6.96           	-0.076
MS.408         	6.945          	-0.075
MS.409         	6.932          	-0.077
MS.410         	6.918          	-0.073
MS.411         	6.902          	-0.081
MS.412         	6.89           	-0.067
MS.413         	6.875          	-0.082
MS.414         	6.862          	-0.078
MS.415         	6.847          	-0.078
MS.416         	6.835          	-0.074
MS.417         	6.822          	-0.08
MS.418         	6.807          	-0.075
MS.419         	6.795          	-0.077
MS.420         	6.78           	-0.075
MS.421         	6.767          	-0.079
MS.422         	6.753          	-0.078
MS.423         	6.74           	-0.07
MS.424         	6.727          	-0.073
MS.425         	6.712          	-0.073
MS.426         	6.7            	-0.077
MS.427         	6.685          	-0.072
MS.428         	6.672          	-0.069
MS.429         	6.66           	-0.072
MS.430         	6.645          	-0.073
MS.431         	6.632          	-0.073
MS.432         	6.62           	-0.073
MS.433         	6.608          	-0.073
MS.434         	6.592          	-0.07
MS.435         	6.58           	-0.078
MS.436         	6.567          	-0.076
MS.437         	6.555          	-0.075
MS.438         	6.54           	-0.067
MS.439         	6.527          	-0.069
MS.440         	6.515          	-0.074
MS.441         	6.503          	-0.072
MS.442         	6.487          	-0.073
MS.443         	6.475          	-0.071
MS.444         	6.462          	-0.068
MS.445         	6.45           	-0.078
MS.446         	6.438          	-0.07
MS.447         	6.425          	-0.071
MS.448         	6.41           	-0.072
MS.449         	6.398          	-0.069
MS.450         	6.385          	-0.071
MS.451         	6.372          	-0.071
MS.452         	6.36           	-0.067
MS.453         	6.347          	-0.071
MS.454         	6.335          	-0.071
MS.455         	6.322          	-0.067
MS.456         	6.31           	-0.07
MS.457         	6.297          	-0.07
MS.458         	6.285          	-0.07
MS.459         	6.273          	-0.071
MS.460         	6.26           	-0.076
MS.461         	6.247          	-0.069
MS.462         	6.235          	-0.068
MS.463         	6.222          	-0.072
MS.464         	6.21           	-0.064
MS.465         	6.197          	-0.071
MS.466         	6.185          	-0.067
MS.467         	6.172          	-0.07
MS.468         	6.16           	-0.07
MS.469         	6.148          	-0.067
MS.470         	6.135          	-0.065
MS.471         	6.122          	-0.07
MS.472         	6.11           	-0.068
MS.473         	6.097          	-0.065
MS.474         	6.088          	-0.067
MS.475         	6.075          	-0.07
MS.476         	6.062          	-0.068
MS.477         	6.05           	-0.067
MS.478         	6.037          	-0.066
MS.479         	6.025          	-0.063
MS.480         	6.015          	-0.07
MS.481         	6.003          	-0.065
MS.482         	5.99           	-0.068
MS.483         	5.977          	-0.067
MS.484         	5.965          	-0.065
MS.485         	5.955          	-0.07
MS.486         	5.942          	-0.069
MS.487         	5.93           	-0.063
MS.488         	5.918          	-0.063
MS.489         	5.907          	-0.065
MS.490         	5.895          	-0.063
MS.491         	5.882          	-0.06
MS.492         	5.87           	-0.073
MS.493         	5.86           	-0.064
MS.494         	5.847          	-0.073
MS.495         	5.835          	-0.067
MS.496         	5.825          	-0.065
MS.497         	5.812          	-0.07
MS.498         	5.8            	-0.066
MS.499         	5.79           	-0.07
