File:              	C:\Qtrac\Data\ME2C30614A.QZD
Name:              	 AR18E
Protocol:          	MSCAN-MV
Date:              	14/6/23
Date of birth:     	18/10/02
Age:               	20
Sex:               	M
Temperature:       	33.4
S/R sites:         	Knee CF-TA
NC/disease:        	NC
Operator:          	KJ
Comments:
M-SCAN DATA (Repeat 3/3, 26.1-19.6m)
Scanpts: 20, 33, 495, 533
Stim. (mA)     	Amp. (mV)
MS.1           	29.5           	5.264
MS.2           	29.5           	5.251
MS.3           	29.5           	5.271
MS.4           	29.5           	5.269
MS.5           	29.5           	5.277
MS.6           	29.5           	5.248
MS.7           	29.5           	5.257
MS.8           	29.5           	5.24
MS.9           	29.5           	5.094
MS.10          	29.5           	5.024
MS.11          	29.5           	5.031
MS.12          	29.5           	5.03
MS.13          	29.5           	4.994
MS.14          	29.5           	4.984
MS.15          	29.5           	5.012
MS.16          	29.5           	5.081
MS.17          	29.5           	5.14
MS.18          	29.5           	5.142
MS.19          	29.5           	5.152
MS.20          	29.5           	5.175
MS.21          	29.5           	5.167
MS.22          	29.5           	5.146
MS.23          	29.5           	5.179
MS.24          	29.44          	5.175
MS.25          	29.382         	5.179
MS.26          	29.323         	5.162
MS.27          	29.265         	5.166
MS.28          	29.207         	5.154
MS.29          	29.147         	5.163
MS.30          	29.09          	5.14
MS.31          	29.032         	5.15
MS.32          	28.975         	5.151
MS.33          	28.915         	5.175
MS.34          	28.858         	5.175
MS.35          	28.8           	5.15
MS.36          	28.743         	5.137
MS.37          	28.685         	5.132
MS.38          	28.627         	5.156
MS.39          	28.57          	5.132
MS.40          	28.515         	5.151
MS.41          	28.457         	5.148
MS.42          	28.4           	5.123
MS.43          	28.342         	5.166
MS.44          	28.287         	5.126
MS.45          	28.23          	5.11
MS.46          	28.172         	5.123
MS.47          	28.118         	5.125
MS.48          	28.062         	5.112
MS.49          	28.005         	5.121
MS.50          	27.95          	5.114
MS.51          	27.892         	5.119
MS.52          	27.837         	5.103
MS.53          	27.782         	5.11
MS.54          	27.727         	5.109
MS.55          	27.67          	5.114
MS.56          	27.615         	5.117
MS.57          	27.56          	5.072
MS.58          	27.505         	5.093
MS.59          	27.45          	5.106
MS.60          	27.395         	5.099
MS.61          	27.34          	5.125
MS.62          	27.287         	5.099
MS.63          	27.233         	5.11
MS.64          	27.177         	5.117
MS.65          	27.122         	5.143
MS.66          	27.07          	5.082
MS.67          	27.015         	5.143
MS.68          	26.96          	5.15
MS.69          	26.907         	5.06
MS.70          	26.852         	5.062
MS.71          	26.8           	5.108
MS.72          	26.745         	5.118
MS.73          	26.692         	5.093
MS.74          	26.64          	5.092
MS.75          	26.585         	5.085
MS.76          	26.532         	5.059
MS.77          	26.48          	5.121
MS.78          	26.427         	5.043
MS.79          	26.375         	5.095
MS.80          	26.323         	5.096
MS.81          	26.27          	5.067
MS.82          	26.217         	5.018
MS.83          	26.165         	5.055
MS.84          	26.112         	5.043
MS.85          	26.06          	5.012
MS.86          	26.007         	5.042
MS.87          	25.955         	5.014
MS.88          	25.905         	5.054
MS.89          	25.852         	4.997
MS.90          	25.8           	5.026
MS.91          	25.75          	5.011
MS.92          	25.698         	5.032
MS.93          	25.645         	5
MS.94          	25.595         	5.013
MS.95          	25.542         	4.999
MS.96          	25.493         	5.023
MS.97          	25.442         	4.977
MS.98          	25.39          	4.932
MS.99          	25.34          	5.005
MS.100         	25.29          	4.993
MS.101         	25.24          	4.963
MS.102         	25.188         	4.99
MS.103         	25.137         	4.896
MS.104         	25.087         	4.943
MS.105         	25.038         	4.988
MS.106         	24.987         	4.941
MS.107         	24.938         	4.955
MS.108         	24.887         	4.907
MS.109         	24.837         	4.877
MS.110         	24.79          	4.915
MS.111         	24.74          	4.916
MS.112         	24.69          	4.865
MS.113         	24.64          	4.814
MS.114         	24.59          	4.883
MS.115         	24.542         	4.921
MS.116         	24.493         	4.844
MS.117         	24.445         	4.832
MS.118         	24.395         	4.866
MS.119         	24.347         	4.831
MS.120         	24.297         	4.797
MS.121         	24.25          	4.825
MS.122         	24.2           	4.852
MS.123         	24.153         	4.713
MS.124         	24.105         	4.852
MS.125         	24.055         	4.845
MS.126         	24.007         	4.764
MS.127         	23.96          	4.808
MS.128         	23.913         	4.786
MS.129         	23.865         	4.749
MS.130         	23.817         	4.731
MS.131         	23.77          	4.738
MS.132         	23.722         	4.738
MS.133         	23.675         	4.744
MS.134         	23.627         	4.686
MS.135         	23.58          	4.77
MS.136         	23.532         	4.721
MS.137         	23.485         	4.818
MS.138         	23.438         	4.698
MS.139         	23.392         	4.644
MS.140         	23.345         	4.745
MS.141         	23.297         	4.645
MS.142         	23.252         	4.659
MS.143         	23.205         	4.701
MS.144         	23.16          	4.653
MS.145         	23.112         	4.668
MS.146         	23.067         	4.635
MS.147         	23.02          	4.62
MS.148         	22.975         	4.648
MS.149         	22.927         	4.678
MS.150         	22.882         	4.656
MS.151         	22.837         	4.642
MS.152         	22.792         	4.507
MS.153         	22.745         	4.634
MS.154         	22.7           	4.626
MS.155         	22.655         	4.703
MS.156         	22.61          	4.543
MS.157         	22.565         	4.666
MS.158         	22.52          	4.666
MS.159         	22.475         	4.611
MS.160         	22.43          	4.6
MS.161         	22.385         	4.521
MS.162         	22.34          	4.557
MS.163         	22.295         	4.566
MS.164         	22.25          	4.502
MS.165         	22.207         	4.391
MS.166         	22.163         	4.34
MS.167         	22.118         	4.59
MS.168         	22.075         	4.444
MS.169         	22.03          	4.565
MS.170         	21.985         	4.518
MS.171         	21.942         	4.485
MS.172         	21.897         	4.37
MS.173         	21.855         	4.415
MS.174         	21.81          	4.31
MS.175         	21.767         	4.34
MS.176         	21.722         	4.248
MS.177         	21.68          	4.302
MS.178         	21.637         	4.175
MS.179         	21.592         	4.29
MS.180         	21.55          	4.293
MS.181         	21.507         	4.23
MS.182         	21.465         	4.141
MS.183         	21.422         	4.029
MS.184         	21.377         	4.158
MS.185         	21.335         	4.133
MS.186         	21.292         	4.104
MS.187         	21.25          	4.156
MS.188         	21.208         	4.042
MS.189         	21.165         	4.024
MS.190         	21.122         	4.009
MS.191         	21.083         	4.084
MS.192         	21.04          	4.003
MS.193         	20.997         	4.035
MS.194         	20.955         	3.911
MS.195         	20.913         	4.009
MS.196         	20.872         	3.988
MS.197         	20.83          	3.889
MS.198         	20.788         	3.901
MS.199         	20.747         	3.864
MS.200         	20.705         	3.9
MS.201         	20.665         	3.696
MS.202         	20.622         	3.892
MS.203         	20.583         	3.775
MS.204         	20.54          	3.87
MS.205         	20.5           	3.881
MS.206         	20.458         	3.813
MS.207         	20.417         	3.705
MS.208         	20.377         	3.807
MS.209         	20.335         	3.752
MS.210         	20.295         	3.821
MS.211         	20.255         	3.782
MS.212         	20.215         	3.596
MS.213         	20.175         	3.616
MS.214         	20.132         	3.592
MS.215         	20.092         	3.71
MS.216         	20.052         	3.482
MS.217         	20.012         	3.639
MS.218         	19.972         	3.558
MS.219         	19.932         	3.699
MS.220         	19.892         	3.688
MS.221         	19.852         	3.558
MS.222         	19.815         	3.489
MS.223         	19.775         	3.431
MS.224         	19.735         	3.561
MS.225         	19.695         	3.614
MS.226         	19.655         	3.596
MS.227         	19.618         	3.657
MS.228         	19.577         	3.34
MS.229         	19.538         	3.546
MS.230         	19.5           	3.365
MS.231         	19.46          	3.538
MS.232         	19.422         	3.296
MS.233         	19.382         	3.367
MS.234         	19.345         	3.41
MS.235         	19.305         	3.412
MS.236         	19.267         	3.3
MS.237         	19.227         	3.262
MS.238         	19.19          	3.338
MS.239         	19.153         	3.332
MS.240         	19.112         	3.171
MS.241         	19.075         	3.151
MS.242         	19.038         	3.126
MS.243         	19             	3.129
MS.244         	18.96          	2.947
MS.245         	18.922         	3.043
MS.246         	18.885         	3.04
MS.247         	18.847         	2.958
MS.248         	18.81          	3.065
MS.249         	18.772         	2.952
MS.250         	18.735         	2.91
MS.251         	18.698         	2.899
MS.252         	18.66          	2.893
MS.253         	18.622         	2.985
MS.254         	18.585         	2.892
MS.255         	18.547         	2.825
MS.256         	18.512         	2.802
MS.257         	18.475         	2.839
MS.258         	18.438         	2.891
MS.259         	18.4           	2.787
MS.260         	18.365         	2.71
MS.261         	18.327         	2.747
MS.262         	18.29          	2.746
MS.263         	18.255         	2.698
MS.264         	18.217         	2.678
MS.265         	18.18          	2.737
MS.266         	18.145         	2.616
MS.267         	18.108         	2.549
MS.268         	18.073         	2.58
MS.269         	18.038         	2.607
MS.270         	18             	2.493
MS.271         	17.965         	2.518
MS.272         	17.927         	2.484
MS.273         	17.892         	2.411
MS.274         	17.858         	2.481
MS.275         	17.82          	2.346
MS.276         	17.785         	2.358
MS.277         	17.75          	2.468
MS.278         	17.715         	2.284
MS.279         	17.68          	2.234
MS.280         	17.645         	2.269
MS.281         	17.608         	2.288
MS.282         	17.573         	2.224
MS.283         	17.538         	2.085
MS.284         	17.503         	2.009
MS.285         	17.467         	2.066
MS.286         	17.432         	2.192
MS.287         	17.397         	1.981
MS.288         	17.365         	2.004
MS.289         	17.33          	2.026
MS.290         	17.295         	2.047
MS.291         	17.26          	1.989
MS.292         	17.225         	2.04
MS.293         	17.19          	1.934
MS.294         	17.157         	1.896
MS.295         	17.122         	1.937
MS.296         	17.087         	1.804
MS.297         	17.055         	1.897
MS.298         	17.02          	1.769
MS.299         	16.985         	1.765
MS.300         	16.952         	1.685
MS.301         	16.917         	1.768
MS.302         	16.885         	1.843
MS.303         	16.85          	1.544
MS.304         	16.817         	1.6
MS.305         	16.782         	1.57
MS.306         	16.75          	1.534
MS.307         	16.717         	1.613
MS.308         	16.682         	1.432
MS.309         	16.65          	1.544
MS.310         	16.618         	1.431
MS.311         	16.583         	1.398
MS.312         	16.55          	1.5
MS.313         	16.517         	1.356
MS.314         	16.485         	1.342
MS.315         	16.45          	1.415
MS.316         	16.417         	1.288
MS.317         	16.385         	1.337
MS.318         	16.352         	1.189
MS.319         	16.32          	1.183
MS.320         	16.288         	1.259
MS.321         	16.255         	1.125
MS.322         	16.222         	1.143
MS.323         	16.19          	1.068
MS.324         	16.157         	1.127
MS.325         	16.125         	1.099
MS.326         	16.092         	1.113
MS.327         	16.06          	1.104
MS.328         	16.03          	0.986
MS.329         	15.997         	0.97
MS.330         	15.965         	0.952
MS.331         	15.932         	0.922
MS.332         	15.9           	0.958
MS.333         	15.87          	0.927
MS.334         	15.837         	0.901
MS.335         	15.805         	0.846
MS.336         	15.775         	0.811
MS.337         	15.742         	0.895
MS.338         	15.712         	0.859
MS.339         	15.68          	0.745
MS.340         	15.648         	0.696
MS.341         	15.617         	0.658
MS.342         	15.587         	0.769
MS.343         	15.555         	0.676
MS.344         	15.525         	0.679
MS.345         	15.492         	0.674
MS.346         	15.462         	0.657
MS.347         	15.43          	0.646
MS.348         	15.4           	0.6
MS.349         	15.37          	0.696
MS.350         	15.34          	0.646
MS.351         	15.307         	0.731
MS.352         	15.277         	0.56
MS.353         	15.247         	0.551
MS.354         	15.217         	0.52
MS.355         	15.185         	0.624
MS.356         	15.155         	0.463
MS.357         	15.125         	0.475
MS.358         	15.095         	0.696
MS.359         	15.065         	0.51
MS.360         	15.035         	0.45
MS.361         	15.005         	0.491
MS.362         	14.975         	0.465
MS.363         	14.945         	0.535
MS.364         	14.915         	0.5
MS.365         	14.885         	0.466
MS.366         	14.855         	0.408
MS.367         	14.825         	0.463
MS.368         	14.797         	0.421
MS.369         	14.767         	0.367
MS.370         	14.737         	0.443
MS.371         	14.707         	0.441
MS.372         	14.677         	0.381
MS.373         	14.65          	0.358
MS.374         	14.62          	0.386
MS.375         	14.59          	0.328
MS.376         	14.562         	0.355
MS.377         	14.532         	0.369
MS.378         	14.502         	0.323
MS.379         	14.475         	0.322
MS.380         	14.445         	0.288
MS.381         	14.417         	0.281
MS.382         	14.387         	0.332
MS.383         	14.36          	0.297
MS.384         	14.33          	0.263
MS.385         	14.302         	0.285
MS.386         	14.273         	0.281
MS.387         	14.245         	0.287
MS.388         	14.217         	0.291
MS.389         	14.188         	0.278
MS.390         	14.16          	0.244
MS.391         	14.132         	0.288
MS.392         	14.102         	0.262
MS.393         	14.075         	0.245
MS.394         	14.047         	0.235
MS.395         	14.017         	0.244
MS.396         	13.99          	0.27
MS.397         	13.962         	0.233
MS.398         	13.935         	0.228
MS.399         	13.907         	0.239
MS.400         	13.88          	0.262
MS.401         	13.852         	0.212
MS.402         	13.825         	0.214
MS.403         	13.795         	0.212
MS.404         	13.767         	0.206
MS.405         	13.74          	0.217
MS.406         	13.712         	0.225
MS.407         	13.685         	0.179
MS.408         	13.66          	0.186
MS.409         	13.632         	0.172
MS.410         	13.605         	0.167
MS.411         	13.577         	0.18
MS.412         	13.55          	0.183
MS.413         	13.523         	0.178
MS.414         	13.495         	0.141
MS.415         	13.47          	0.167
MS.416         	13.443         	0.175
MS.417         	13.415         	0.165
MS.418         	13.387         	0.165
MS.419         	13.362         	0.159
MS.420         	13.335         	0.14
MS.421         	13.307         	0.142
MS.422         	13.282         	0.129
MS.423         	13.255         	0.122
MS.424         	13.227         	0.133
MS.425         	13.202         	0.136
MS.426         	13.175         	0.117
MS.427         	13.15          	0.143
MS.428         	13.122         	0.096
MS.429         	13.097         	0.132
MS.430         	13.07          	0.103
MS.431         	13.045         	0.114
MS.432         	13.017         	0.096
MS.433         	12.992         	0.093
MS.434         	12.967         	0.125
MS.435         	12.94          	0.122
MS.436         	12.915         	0.098
MS.437         	12.89          	0.096
MS.438         	12.862         	0.084
MS.439         	12.837         	0.092
MS.440         	12.812         	0.1
MS.441         	12.787         	0.073
MS.442         	12.76          	0.082
MS.443         	12.735         	0.068
MS.444         	12.71          	0.081
MS.445         	12.685         	0.076
MS.446         	12.66          	0.073
MS.447         	12.635         	0.077
MS.448         	12.608         	0.068
MS.449         	12.582         	0.065
MS.450         	12.557         	0.072
MS.451         	12.532         	0.068
MS.452         	12.507         	0.07
MS.453         	12.483         	0.066
MS.454         	12.457         	0.072
MS.455         	12.432         	0.071
MS.456         	12.407         	0.067
MS.457         	12.385         	0.068
MS.458         	12.36          	0.067
MS.459         	12.335         	0.06
MS.460         	12.31          	0.059
MS.461         	12.285         	0.057
MS.462         	12.26          	0.06
MS.463         	12.235         	0.062
MS.464         	12.212         	0.063
MS.465         	12.188         	0.054
MS.466         	12.162         	0.062
MS.467         	12.137         	0.055
MS.468         	12.115         	0.056
MS.469         	12.09          	0.057
MS.470         	12.065         	0.054
MS.471         	12.042         	0.06
MS.472         	12.017         	0.055
MS.473         	11.995         	0.054
MS.474         	11.97          	0.059
MS.475         	11.945         	0.054
MS.476         	11.922         	0.052
MS.477         	11.898         	0.057
MS.478         	11.875         	0.048
MS.479         	11.85          	0.055
MS.480         	11.827         	0.054
MS.481         	11.802         	0.05
MS.482         	11.78          	0.051
MS.483         	11.757         	0.054
MS.484         	11.733         	0.047
MS.485         	11.71          	0.053
MS.486         	11.685         	0.045
MS.487         	11.662         	0.043
MS.488         	11.64          	0.04
MS.489         	11.615         	0.043
MS.490         	11.592         	0.052
MS.491         	11.57          	0.048
MS.492         	11.547         	0.038
MS.493         	11.523         	0.038
MS.494         	11.5           	0.045
MS.495         	11.477         	0.037
MS.496         	11.455         	0.037
MS.497         	11.432         	0.035
MS.498         	11.41          	0.038
MS.499         	11.385         	0.038
MS.500         	11.363         	0.035
MS.501         	11.34          	0.037
MS.502         	11.318         	0.034
MS.503         	11.295         	0.038
