File:              	C:\Qtrac\Data\ME2C30615A.QZD
Name:              	 HA02N
Protocol:          	MSCAN-MV
Date:              	15/6/23
Date of birth:     	2/3/00
Age:               	23
Sex:               	M
Temperature:       	32.0
S/R sites:         	Knee TA-CF
NC/disease:        	NC
Operator:          	BY
Comments:
M-SCAN DATA (Repeat 1/3, 12.3-5.6m)
Scanpts: 2, 49, 481, 485
Stim. (mA)     	Amp. (mV)
MS.1           	15             	4.659
MS.2           	15             	4.682
MS.3           	14.94          	4.647
MS.4           	14.91          	4.658
MS.5           	14.88          	4.664
MS.6           	14.85          	4.694
MS.7           	14.82          	4.675
MS.8           	14.792         	4.737
MS.9           	14.762         	4.672
MS.10          	14.733         	4.656
MS.11          	14.702         	4.667
MS.12          	14.672         	4.777
MS.13          	14.645         	4.666
MS.14          	14.615         	4.714
MS.15          	14.585         	4.729
MS.16          	14.557         	4.685
MS.17          	14.527         	4.682
MS.18          	14.497         	4.698
MS.19          	14.47          	4.68
MS.20          	14.44          	4.652
MS.21          	14.412         	4.655
MS.22          	14.382         	4.709
MS.23          	14.355         	4.659
MS.24          	14.325         	4.669
MS.25          	14.297         	4.681
MS.26          	14.267         	4.664
MS.27          	14.24          	4.682
MS.28          	14.212         	4.715
MS.29          	14.182         	4.687
MS.30          	14.155         	4.762
MS.31          	14.127         	4.764
MS.32          	14.097         	4.695
MS.33          	14.07          	4.705
MS.34          	14.042         	4.659
MS.35          	14.015         	4.731
MS.36          	13.985         	4.667
MS.37          	13.957         	4.691
MS.38          	13.93          	4.74
MS.39          	13.903         	4.697
MS.40          	13.875         	4.783
MS.41          	13.847         	4.726
MS.42          	13.82          	4.709
MS.43          	13.792         	4.656
MS.44          	13.765         	4.694
MS.45          	13.737         	4.714
MS.46          	13.71          	4.679
MS.47          	13.682         	4.745
MS.48          	13.655         	4.71
MS.49          	13.627         	4.701
MS.50          	13.6           	4.749
MS.51          	13.572         	4.718
MS.52          	13.545         	4.719
MS.53          	13.517         	4.731
MS.54          	13.492         	4.769
MS.55          	13.465         	4.654
MS.56          	13.438         	4.708
MS.57          	13.41          	4.702
MS.58          	13.385         	4.678
MS.59          	13.358         	4.729
MS.60          	13.33          	4.73
MS.61          	13.305         	4.635
MS.62          	13.278         	4.677
MS.63          	13.25          	4.706
MS.64          	13.225         	4.658
MS.65          	13.197         	4.671
MS.66          	13.172         	4.664
MS.67          	13.145         	4.706
MS.68          	13.12          	4.719
MS.69          	13.092         	4.658
MS.70          	13.068         	4.772
MS.71          	13.04          	4.68
MS.72          	13.015         	4.633
MS.73          	12.987         	4.662
MS.74          	12.962         	4.64
MS.75          	12.938         	4.596
MS.76          	12.91          	4.61
MS.77          	12.885         	4.671
MS.78          	12.86          	4.636
MS.79          	12.832         	4.732
MS.80          	12.807         	4.622
MS.81          	12.782         	4.664
MS.82          	12.757         	4.681
MS.83          	12.73          	4.592
MS.84          	12.705         	4.611
MS.85          	12.68          	4.57
MS.86          	12.655         	4.648
MS.87          	12.63          	4.627
MS.88          	12.605         	4.592
MS.89          	12.58          	4.676
MS.90          	12.555         	4.667
MS.91          	12.53          	4.669
MS.92          	12.505         	4.612
MS.93          	12.48          	4.636
MS.94          	12.455         	4.562
MS.95          	12.43          	4.555
MS.96          	12.405         	4.579
MS.97          	12.38          	4.623
MS.98          	12.355         	4.578
MS.99          	12.33          	4.664
MS.100         	12.305         	4.669
MS.101         	12.28          	4.622
MS.102         	12.257         	4.623
MS.103         	12.233         	4.559
MS.104         	12.207         	4.561
MS.105         	12.182         	4.535
MS.106         	12.157         	4.517
MS.107         	12.135         	4.567
MS.108         	12.11          	4.571
MS.109         	12.085         	4.506
MS.110         	12.062         	4.525
MS.111         	12.037         	4.525
MS.112         	12.012         	4.549
MS.113         	11.99          	4.499
MS.114         	11.965         	4.576
MS.115         	11.943         	4.428
MS.116         	11.917         	4.505
MS.117         	11.895         	4.486
MS.118         	11.87          	4.565
MS.119         	11.847         	4.553
MS.120         	11.822         	4.503
MS.121         	11.8           	4.485
MS.122         	11.775         	4.545
MS.123         	11.752         	4.554
MS.124         	11.73          	4.457
MS.125         	11.705         	4.466
MS.126         	11.682         	4.386
MS.127         	11.657         	4.459
MS.128         	11.635         	4.391
MS.129         	11.613         	4.476
MS.130         	11.59          	4.445
MS.131         	11.565         	4.456
MS.132         	11.542         	4.454
MS.133         	11.52          	4.473
MS.134         	11.497         	4.442
MS.135         	11.472         	4.454
MS.136         	11.45          	4.359
MS.137         	11.427         	4.363
MS.138         	11.405         	4.386
MS.139         	11.382         	4.415
MS.140         	11.36          	4.338
MS.141         	11.337         	4.36
MS.142         	11.315         	4.36
MS.143         	11.292         	4.421
MS.144         	11.27          	4.385
MS.145         	11.247         	4.39
MS.146         	11.225         	4.477
MS.147         	11.202         	4.348
MS.148         	11.18          	4.31
MS.149         	11.157         	4.37
MS.150         	11.135         	4.364
MS.151         	11.113         	4.366
MS.152         	11.09          	4.398
MS.153         	11.068         	4.389
MS.154         	11.045         	4.402
MS.155         	11.023         	4.213
MS.156         	11.002         	4.339
MS.157         	10.98          	4.282
MS.158         	10.957         	4.25
MS.159         	10.935         	4.263
MS.160         	10.915         	4.316
MS.161         	10.892         	4.238
MS.162         	10.87          	4.348
MS.163         	10.847         	4.305
MS.164         	10.827         	4.268
MS.165         	10.805         	4.276
MS.166         	10.785         	4.225
MS.167         	10.762         	4.182
MS.168         	10.74          	4.092
MS.169         	10.72          	4.29
MS.170         	10.698         	4.119
MS.171         	10.677         	4.036
MS.172         	10.655         	4.069
MS.173         	10.635         	4.093
MS.174         	10.613         	4.193
MS.175         	10.592         	4.219
MS.176         	10.57          	4.122
MS.177         	10.55          	4.094
MS.178         	10.528         	4.065
MS.179         	10.507         	4.185
MS.180         	10.485         	4.109
MS.181         	10.465         	4.111
MS.182         	10.445         	4.048
MS.183         	10.422         	3.967
MS.184         	10.403         	4.04
MS.185         	10.382         	4.011
MS.186         	10.36          	4.012
MS.187         	10.34          	4.044
MS.188         	10.32          	3.978
MS.189         	10.3           	3.89
MS.190         	10.278         	4.02
MS.191         	10.257         	3.933
MS.192         	10.238         	4.149
MS.193         	10.217         	3.84
MS.194         	10.198         	4.044
MS.195         	10.175         	4.046
MS.196         	10.155         	3.934
MS.197         	10.135         	3.904
MS.198         	10.115         	3.924
MS.199         	10.095         	3.903
MS.200         	10.075         	3.875
MS.201         	10.055         	3.881
MS.202         	10.035         	4.089
MS.203         	10.015         	4.104
MS.204         	9.995          	3.902
MS.205         	9.975          	3.909
MS.206         	9.955          	4.014
MS.207         	9.935          	3.895
MS.208         	9.915          	3.997
MS.209         	9.895          	3.975
MS.210         	9.875          	3.953
MS.211         	9.855          	4.009
MS.212         	9.835          	3.995
MS.213         	9.818          	3.957
MS.214         	9.797          	3.959
MS.215         	9.778          	3.88
MS.216         	9.757          	3.891
MS.217         	9.738          	3.906
MS.218         	9.717          	3.896
MS.219         	9.7            	3.939
MS.220         	9.68           	3.916
MS.221         	9.66           	3.841
MS.222         	9.64           	3.922
MS.223         	9.622          	3.837
MS.224         	9.602          	3.909
MS.225         	9.582          	3.832
MS.226         	9.565          	3.741
MS.227         	9.545          	3.823
MS.228         	9.525          	3.972
MS.229         	9.507          	3.825
MS.230         	9.488          	3.677
MS.231         	9.47           	3.882
MS.232         	9.45           	3.793
MS.233         	9.432          	3.706
MS.234         	9.412          	3.832
MS.235         	9.395          	3.637
MS.236         	9.375          	3.641
MS.237         	9.358          	3.708
MS.238         	9.337          	3.539
MS.239         	9.32           	3.508
MS.240         	9.3            	3.641
MS.241         	9.283          	3.505
MS.242         	9.262          	3.394
MS.243         	9.245          	3.505
MS.244         	9.225          	3.452
MS.245         	9.207          	3.42
MS.246         	9.19           	3.354
MS.247         	9.17           	3.279
MS.248         	9.153          	3.314
MS.249         	9.135          	3.433
MS.250         	9.115          	3.286
MS.251         	9.097          	3.345
MS.252         	9.08           	3.284
MS.253         	9.062          	3.215
MS.254         	9.042          	3.277
MS.255         	9.025          	3.458
MS.256         	9.007          	3.241
MS.257         	8.99           	3.091
MS.258         	8.972          	3.067
MS.259         	8.952          	3.21
MS.260         	8.935          	3.017
MS.261         	8.917          	3.025
MS.262         	8.9            	3.12
MS.263         	8.882          	2.93
MS.264         	8.865          	3.026
MS.265         	8.847          	3.051
MS.266         	8.83           	2.998
MS.267         	8.812          	2.853
MS.268         	8.795          	3.027
MS.269         	8.775          	2.933
MS.270         	8.757          	3.069
MS.271         	8.74           	2.869
MS.272         	8.722          	2.935
MS.273         	8.707          	3.066
MS.274         	8.69           	2.788
MS.275         	8.672          	2.901
MS.276         	8.655          	2.837
MS.277         	8.637          	2.956
MS.278         	8.62           	2.877
MS.279         	8.602          	2.847
MS.280         	8.585          	2.734
MS.281         	8.568          	2.719
MS.282         	8.55           	2.695
MS.283         	8.535          	2.678
MS.284         	8.517          	2.802
MS.285         	8.5            	2.748
MS.286         	8.483          	2.726
MS.287         	8.465          	2.729
MS.288         	8.45           	2.662
MS.289         	8.432          	2.547
MS.290         	8.415          	2.62
MS.291         	8.398          	2.714
MS.292         	8.382          	2.535
MS.293         	8.365          	2.511
MS.294         	8.347          	2.487
MS.295         	8.332          	2.648
MS.296         	8.315          	2.505
MS.297         	8.297          	2.608
MS.298         	8.283          	2.623
MS.299         	8.265          	2.357
MS.300         	8.247          	2.506
MS.301         	8.233          	2.397
MS.302         	8.215          	2.232
MS.303         	8.2            	2.4
MS.304         	8.182          	2.358
MS.305         	8.167          	2.264
MS.306         	8.15           	2.236
MS.307         	8.135          	2.168
MS.308         	8.117          	2.209
MS.309         	8.102          	2.111
MS.310         	8.085          	2.049
MS.311         	8.07           	2.13
MS.312         	8.052          	2.087
MS.313         	8.037          	2.085
MS.314         	8.02           	2.168
MS.315         	8.005          	1.997
MS.316         	7.99           	2.012
MS.317         	7.972          	2.095
MS.318         	7.957          	2.03
MS.319         	7.94           	2.028
MS.320         	7.925          	1.985
MS.321         	7.91           	1.88
MS.322         	7.892          	1.918
MS.323         	7.878          	1.851
MS.324         	7.862          	2.022
MS.325         	7.847          	1.825
MS.326         	7.83           	1.631
MS.327         	7.815          	1.711
MS.328         	7.8            	1.8
MS.329         	7.785          	1.674
MS.330         	7.767          	1.626
MS.331         	7.753          	1.514
MS.332         	7.737          	1.671
MS.333         	7.722          	1.6
MS.334         	7.707          	1.454
MS.335         	7.69           	1.565
MS.336         	7.675          	1.423
MS.337         	7.66           	1.378
MS.338         	7.645          	1.392
MS.339         	7.63           	1.447
MS.340         	7.615          	1.33
MS.341         	7.6            	1.349
MS.342         	7.585          	1.412
MS.343         	7.57           	1.205
MS.344         	7.555          	1.276
MS.345         	7.537          	1.146
MS.346         	7.523          	1.161
MS.347         	7.507          	1.071
MS.348         	7.492          	1.181
MS.349         	7.477          	1.248
MS.350         	7.462          	1.1
MS.351         	7.447          	1.035
MS.352         	7.435          	1.021
MS.353         	7.42           	1.135
MS.354         	7.405          	1.037
MS.355         	7.39           	0.897
MS.356         	7.375          	1.154
MS.357         	7.36           	0.943
MS.358         	7.345          	1.035
MS.359         	7.33           	0.961
MS.360         	7.315          	0.933
MS.361         	7.302          	0.892
MS.362         	7.287          	0.802
MS.363         	7.273          	0.756
MS.364         	7.257          	0.845
MS.365         	7.242          	0.829
MS.366         	7.227          	0.843
MS.367         	7.215          	0.644
MS.368         	7.2            	0.665
MS.369         	7.185          	0.602
MS.370         	7.17           	0.687
MS.371         	7.157          	0.787
MS.372         	7.142          	0.705
MS.373         	7.128          	0.577
MS.374         	7.115          	0.537
MS.375         	7.1            	0.529
MS.376         	7.085          	0.554
MS.377         	7.072          	0.388
MS.378         	7.057          	0.356
MS.379         	7.043          	0.386
MS.380         	7.03           	0.35
MS.381         	7.015          	0.276
MS.382         	7              	0.269
MS.383         	6.987          	0.347
MS.384         	6.972          	0.252
MS.385         	6.96           	0.232
MS.386         	6.945          	0.267
MS.387         	6.932          	0.291
MS.388         	6.918          	0.359
MS.389         	6.902          	0.268
MS.390         	6.89           	0.084
MS.391         	6.875          	0.184
MS.392         	6.862          	-0.016
MS.393         	6.847          	0.1
MS.394         	6.835          	0.053
MS.395         	6.822          	0.031
MS.396         	6.807          	0.026
MS.397         	6.795          	0.07
MS.398         	6.78           	0.031
MS.399         	6.767          	-0.062
MS.400         	6.753          	-0.099
MS.401         	6.74           	-0.052
MS.402         	6.727          	-0.162
MS.403         	6.712          	-0.044
MS.404         	6.7            	-0.143
MS.405         	6.685          	0.03
MS.406         	6.672          	-0.103
MS.407         	6.66           	-0.087
MS.408         	6.645          	-0.161
MS.409         	6.632          	-0.129
MS.410         	6.62           	-0.255
MS.411         	6.608          	-0.11
MS.412         	6.592          	-0.295
MS.413         	6.58           	-0.176
MS.414         	6.567          	-0.279
MS.415         	6.555          	-0.232
MS.416         	6.54           	-0.344
MS.417         	6.527          	-0.282
MS.418         	6.515          	-0.295
MS.419         	6.503          	-0.223
MS.420         	6.487          	-0.451
MS.421         	6.475          	-0.242
MS.422         	6.462          	-0.322
MS.423         	6.45           	-0.284
MS.424         	6.438          	-0.417
MS.425         	6.425          	-0.317
MS.426         	6.41           	-0.344
MS.427         	6.398          	-0.546
MS.428         	6.385          	-0.508
MS.429         	6.372          	-0.442
MS.430         	6.36           	-0.521
MS.431         	6.347          	-0.574
MS.432         	6.335          	-0.586
MS.433         	6.322          	-0.548
MS.434         	6.31           	-0.503
MS.435         	6.297          	-0.484
MS.436         	6.285          	-0.626
MS.437         	6.273          	-0.587
MS.438         	6.26           	-0.405
MS.439         	6.247          	-0.649
MS.440         	6.235          	-0.701
MS.441         	6.222          	-0.649
MS.442         	6.21           	-0.668
MS.443         	6.197          	-0.659
MS.444         	6.185          	-0.76
MS.445         	6.172          	-0.745
MS.446         	6.16           	-0.646
MS.447         	6.148          	-0.649
MS.448         	6.135          	-0.77
MS.449         	6.122          	-0.735
MS.450         	6.11           	-0.712
MS.451         	6.097          	-0.749
MS.452         	6.088          	-0.776
MS.453         	6.075          	-0.793
MS.454         	6.062          	-0.724
MS.455         	6.05           	-0.745
MS.456         	6.037          	-0.814
MS.457         	6.025          	-0.793
MS.458         	6.012          	-0.805
MS.459         	6.003          	-0.876
MS.460         	5.99           	-0.808
MS.461         	5.977          	-0.809
MS.462         	5.965          	-0.817
MS.463         	5.955          	-0.831
MS.464         	5.942          	-0.883
MS.465         	5.93           	-0.743
MS.466         	5.918          	-0.814
MS.467         	5.907          	-0.849
MS.468         	5.895          	-0.837
MS.469         	5.882          	-0.823
MS.470         	5.87           	-0.84
MS.471         	5.86           	-0.851
MS.472         	5.847          	-0.836
MS.473         	5.835          	-0.891
MS.474         	5.825          	-0.894
MS.475         	5.812          	-0.897
MS.476         	5.8            	-0.9
MS.477         	5.79           	-0.878
MS.478         	5.777          	-0.918
MS.479         	5.767          	-0.853
MS.480         	5.755          	-0.925
MS.481         	5.742          	-0.907
MS.482         	5.733          	-0.93
MS.483         	5.72           	-0.941
MS.484         	5.71           	-0.892
MS.485         	5.697          	-0.934
MS.486         	5.685          	-0.947
MS.487         	5.675          	-0.878
MS.488         	5.662          	-0.903
MS.489         	5.652          	-0.837
MS.490         	5.64           	-0.872
MS.491         	5.63           	-0.872
MS.492         	5.617          	-0.886
MS.493         	5.608          	-0.937
MS.494         	5.595          	-0.936
MS.495         	5.585          	-0.831
MS.496         	5.572          	-0.892
MS.497         	5.562          	-0.914
MS.498         	5.552          	-0.891
MS.499         	5.54           	-0.863
MS.500         	5.53           	-0.887
