File:              	C:\Qtrac\Data\ME2C30717A.QZD
Name:              	 ST14N
Protocol:          	MSCAN-MV
Date:              	17/7/23
Date of birth:     	14/4/00
Age:               	23
Sex:               	M
Temperature:       	33.5
S/R sites:         	Knee CF-TA
NC/disease:        	NC
Operator:          	BY
Comments:
M-SCAN DATA (Repeat 3/3, 24.9-18.7m)
Scanpts: 46, 52, 481, 511
Stim. (mA)     	Amp. (mV)
MS.1           	16             	4.052
MS.2           	16             	4.001
MS.3           	16             	4.036
MS.4           	16             	4.035
MS.5           	16             	4.061
MS.6           	16             	4.003
MS.7           	16             	4.029
MS.8           	16             	3.996
MS.9           	16             	3.992
MS.10          	16             	3.988
MS.11          	16             	4.012
MS.12          	16             	4.024
MS.13          	16             	4.027
MS.14          	16             	4.039
MS.15          	16             	4.012
MS.16          	16             	3.983
MS.17          	16             	4.017
MS.18          	16             	3.972
MS.19          	16             	4.039
MS.20          	16             	4.001
MS.21          	16             	4.077
MS.22          	16             	3.988
MS.23          	16             	4.051
MS.24          	15.967         	4.041
MS.25          	15.935         	3.948
MS.26          	15.905         	4.036
MS.27          	15.872         	4.045
MS.28          	15.84          	4.028
MS.29          	15.81          	4.014
MS.30          	15.777         	3.997
MS.31          	15.745         	3.998
MS.32          	15.715         	3.992
MS.33          	15.682         	3.993
MS.34          	15.652         	4.036
MS.35          	15.62          	4.011
MS.36          	15.59          	4
MS.37          	15.557         	4.034
MS.38          	15.527         	4.023
MS.39          	15.495         	3.984
MS.40          	15.465         	4.033
MS.41          	15.435         	3.969
MS.42          	15.402         	4.043
MS.43          	15.372         	4.026
MS.44          	15.342         	3.983
MS.45          	15.312         	3.987
MS.46          	15.28          	4.004
MS.47          	15.25          	4.016
MS.48          	15.22          	3.995
MS.49          	15.19          	3.995
MS.50          	15.16          	4.009
MS.51          	15.127         	3.999
MS.52          	15.097         	4.013
MS.53          	15.068         	3.982
MS.54          	15.037         	4.006
MS.55          	15.007         	4.064
MS.56          	14.977         	4.012
MS.57          	14.947         	4
MS.58          	14.917         	4.009
MS.59          	14.887         	3.975
MS.60          	14.858         	3.966
MS.61          	14.83          	4.033
MS.62          	14.8           	4.003
MS.63          	14.77          	4.033
MS.64          	14.74          	4
MS.65          	14.71          	4.007
MS.66          	14.682         	4.017
MS.67          	14.652         	4.005
MS.68          	14.622         	3.933
MS.69          	14.592         	3.952
MS.70          	14.565         	3.995
MS.71          	14.535         	3.977
MS.72          	14.507         	3.947
MS.73          	14.477         	3.975
MS.74          	14.447         	4.016
MS.75          	14.42          	3.941
MS.76          	14.39          	3.939
MS.77          	14.362         	3.977
MS.78          	14.332         	3.958
MS.79          	14.305         	4.001
MS.80          	14.275         	3.967
MS.81          	14.247         	3.959
MS.82          	14.22          	3.947
MS.83          	14.19          	3.945
MS.84          	14.162         	3.936
MS.85          	14.135         	3.949
MS.86          	14.105         	3.984
MS.87          	14.077         	3.972
MS.88          	14.05          	3.949
MS.89          	14.023         	3.95
MS.90          	13.992         	3.934
MS.91          	13.965         	3.979
MS.92          	13.938         	3.965
MS.93          	13.91          	3.956
MS.94          	13.882         	3.919
MS.95          	13.855         	3.931
MS.96          	13.827         	3.914
MS.97          	13.8           	3.962
MS.98          	13.773         	3.911
MS.99          	13.745         	3.926
MS.100         	13.717         	3.98
MS.101         	13.69          	3.951
MS.102         	13.662         	3.939
MS.103         	13.635         	3.913
MS.104         	13.608         	3.889
MS.105         	13.58          	3.907
MS.106         	13.552         	3.932
MS.107         	13.525         	3.918
MS.108         	13.497         	3.945
MS.109         	13.472         	3.951
MS.110         	13.445         	3.971
MS.111         	13.417         	3.99
MS.112         	13.39          	3.97
MS.113         	13.365         	3.889
MS.114         	13.337         	3.875
MS.115         	13.31          	3.84
MS.116         	13.285         	4.034
MS.117         	13.257         	3.875
MS.118         	13.233         	3.865
MS.119         	13.205         	3.878
MS.120         	13.177         	3.851
MS.121         	13.153         	3.889
MS.122         	13.125         	3.903
MS.123         	13.1           	3.841
MS.124         	13.072         	3.915
MS.125         	13.047         	3.854
MS.126         	13.023         	3.831
MS.127         	12.995         	3.868
MS.128         	12.97          	3.882
MS.129         	12.943         	3.798
MS.130         	12.917         	3.812
MS.131         	12.892         	3.766
MS.132         	12.865         	3.774
MS.133         	12.84          	3.784
MS.134         	12.815         	3.828
MS.135         	12.79          	3.76
MS.136         	12.762         	3.785
MS.137         	12.738         	3.766
MS.138         	12.712         	3.762
MS.139         	12.688         	3.798
MS.140         	12.662         	3.849
MS.141         	12.637         	3.74
MS.142         	12.61          	3.712
MS.143         	12.585         	3.755
MS.144         	12.56          	3.709
MS.145         	12.535         	3.734
MS.146         	12.51          	3.657
MS.147         	12.485         	3.83
MS.148         	12.46          	3.75
MS.149         	12.435         	3.683
MS.150         	12.41          	3.679
MS.151         	12.387         	3.596
MS.152         	12.363         	3.668
MS.153         	12.337         	3.633
MS.154         	12.312         	3.615
MS.155         	12.287         	3.679
MS.156         	12.262         	3.612
MS.157         	12.238         	3.575
MS.158         	12.215         	3.651
MS.159         	12.19          	3.603
MS.160         	12.165         	3.655
MS.161         	12.14          	3.592
MS.162         	12.117         	3.59
MS.163         	12.092         	3.577
MS.164         	12.068         	3.552
MS.165         	12.045         	3.598
MS.166         	12.02          	3.563
MS.167         	11.995         	3.6
MS.168         	11.972         	3.544
MS.169         	11.947         	3.527
MS.170         	11.925         	3.446
MS.171         	11.9           	3.585
MS.172         	11.877         	3.456
MS.173         	11.852         	3.383
MS.174         	11.83          	3.443
MS.175         	11.805         	3.434
MS.176         	11.782         	3.471
MS.177         	11.757         	3.39
MS.178         	11.735         	3.403
MS.179         	11.712         	3.378
MS.180         	11.688         	3.375
MS.181         	11.665         	3.413
MS.182         	11.642         	3.336
MS.183         	11.617         	3.318
MS.184         	11.595         	3.2
MS.185         	11.572         	3.217
MS.186         	11.55          	3.354
MS.187         	11.525         	3.306
MS.188         	11.502         	3.315
MS.189         	11.48          	3.26
MS.190         	11.457         	3.257
MS.191         	11.435         	3.212
MS.192         	11.41          	3.24
MS.193         	11.387         	3.191
MS.194         	11.365         	3.258
MS.195         	11.342         	3.15
MS.196         	11.32          	3.096
MS.197         	11.297         	3.182
MS.198         	11.275         	3.094
MS.199         	11.252         	3.117
MS.200         	11.23          	3.099
MS.201         	11.207         	3.07
MS.202         	11.185         	3.058
MS.203         	11.162         	3.079
MS.204         	11.14          	2.952
MS.205         	11.117         	3.034
MS.206         	11.095         	2.905
MS.207         	11.075         	2.945
MS.208         	11.052         	2.892
MS.209         	11.03          	2.885
MS.210         	11.007         	2.875
MS.211         	10.985         	2.805
MS.212         	10.962         	2.886
MS.213         	10.943         	2.988
MS.214         	10.92          	2.78
MS.215         	10.898         	2.812
MS.216         	10.877         	2.794
MS.217         	10.855         	2.831
MS.218         	10.832         	2.67
MS.219         	10.812         	2.653
MS.220         	10.79          	2.657
MS.221         	10.767         	2.657
MS.222         	10.747         	2.74
MS.223         	10.725         	2.717
MS.224         	10.702         	2.714
MS.225         	10.682         	2.618
MS.226         	10.66          	2.435
MS.227         	10.64          	2.595
MS.228         	10.617         	2.541
MS.229         	10.597         	2.469
MS.230         	10.575         	2.599
MS.231         	10.555         	2.576
MS.232         	10.535         	2.49
MS.233         	10.512         	2.387
MS.234         	10.492         	2.394
MS.235         	10.47          	2.308
MS.236         	10.45          	2.333
MS.237         	10.43          	2.335
MS.238         	10.407         	2.287
MS.239         	10.387         	2.133
MS.240         	10.367         	2.236
MS.241         	10.345         	2.221
MS.242         	10.325         	2.198
MS.243         	10.305         	2.038
MS.244         	10.285         	2.234
MS.245         	10.262         	2.012
MS.246         	10.242         	2.111
MS.247         	10.222         	2.036
MS.248         	10.202         	2.006
MS.249         	10.182         	1.981
MS.250         	10.162         	1.968
MS.251         	10.14          	1.882
MS.252         	10.12          	1.883
MS.253         	10.1           	1.886
MS.254         	10.08          	1.815
MS.255         	10.06          	1.849
MS.256         	10.04          	1.809
MS.257         	10.02          	1.79
MS.258         	10             	1.701
MS.259         	9.98           	1.671
MS.260         	9.96           	1.628
MS.261         	9.94           	1.633
MS.262         	9.92           	1.497
MS.263         	9.9            	1.642
MS.264         	9.88           	1.481
MS.265         	9.86           	1.622
MS.266         	9.842          	1.467
MS.267         	9.823          	1.545
MS.268         	9.802          	1.525
MS.269         	9.782          	1.368
MS.270         	9.762          	1.402
MS.271         	9.742          	1.352
MS.272         	9.725          	1.317
MS.273         	9.705          	1.309
MS.274         	9.685          	1.422
MS.275         	9.665          	1.34
MS.276         	9.648          	1.38
MS.277         	9.627          	1.299
MS.278         	9.608          	1.152
MS.279         	9.587          	1.185
MS.280         	9.57           	1.176
MS.281         	9.55           	1.149
MS.282         	9.532          	1.15
MS.283         	9.512          	1.074
MS.284         	9.492          	1.083
MS.285         	9.475          	1.109
MS.286         	9.455          	1.03
MS.287         	9.438          	1.14
MS.288         	9.417          	1.064
MS.289         	9.4            	1.058
MS.290         	9.38           	1.006
MS.291         	9.363          	0.908
MS.292         	9.342          	1.034
MS.293         	9.325          	0.918
MS.294         	9.305          	0.942
MS.295         	9.287          	0.801
MS.296         	9.267          	0.759
MS.297         	9.25           	0.887
MS.298         	9.23           	0.818
MS.299         	9.212          	0.754
MS.300         	9.195          	0.69
MS.301         	9.175          	0.789
MS.302         	9.158          	0.743
MS.303         	9.14           	0.728
MS.304         	9.12           	0.683
MS.305         	9.102          	0.687
MS.306         	9.085          	0.623
MS.307         	9.068          	0.703
MS.308         	9.047          	0.576
MS.309         	9.03           	0.609
MS.310         	9.012          	0.494
MS.311         	8.995          	0.541
MS.312         	8.977          	0.486
MS.313         	8.957          	0.414
MS.314         	8.94           	0.394
MS.315         	8.922          	0.448
MS.316         	8.905          	0.471
MS.317         	8.887          	0.375
MS.318         	8.87           	0.528
MS.319         	8.852          	0.438
MS.320         	8.835          	0.356
MS.321         	8.815          	0.25
MS.322         	8.797          	0.243
MS.323         	8.78           	0.276
MS.324         	8.762          	0.271
MS.325         	8.745          	0.134
MS.326         	8.727          	0.249
MS.327         	8.71           	0.168
MS.328         	8.693          	0.19
MS.329         	8.675          	0.055
MS.330         	8.66           	0.198
MS.331         	8.642          	0.147
MS.332         	8.625          	0.144
MS.333         	8.608          	0.12
MS.334         	8.59           	0.143
MS.335         	8.573          	0.163
MS.336         	8.555          	0.05
MS.337         	8.537          	0.01
MS.338         	8.523          	0.088
MS.339         	8.505          	0.044
MS.340         	8.488          	-0.03
MS.341         	8.47           	0.02
MS.342         	8.452          	-0.062
MS.343         	8.438          	-0.067
MS.344         	8.42           	-0.096
MS.345         	8.403          	-0.152
MS.346         	8.385          	-0.07
MS.347         	8.37           	-0.148
MS.348         	8.352          	-0.21
MS.349         	8.335          	-0.159
MS.350         	8.32           	-0.27
MS.351         	8.302          	-0.208
MS.352         	8.285          	-0.248
MS.353         	8.27           	-0.251
MS.354         	8.252          	-0.303
MS.355         	8.238          	-0.35
MS.356         	8.22           	-0.286
MS.357         	8.202          	-0.334
MS.358         	8.188          	-0.317
MS.359         	8.17           	-0.325
MS.360         	8.155          	-0.311
MS.361         	8.137          	-0.377
MS.362         	8.122          	-0.366
MS.363         	8.105          	-0.409
MS.364         	8.09           	-0.424
MS.365         	8.073          	-0.505
MS.366         	8.057          	-0.414
MS.367         	8.042          	-0.472
MS.368         	8.025          	-0.504
MS.369         	8.01           	-0.461
MS.370         	7.992          	-0.512
MS.371         	7.977          	-0.545
MS.372         	7.962          	-0.547
MS.373         	7.945          	-0.576
MS.374         	7.93           	-0.539
MS.375         	7.912          	-0.593
MS.376         	7.898          	-0.603
MS.377         	7.882          	-0.532
MS.378         	7.867          	-0.544
MS.379         	7.85           	-0.598
MS.380         	7.835          	-0.549
MS.381         	7.82           	-0.609
MS.382         	7.802          	-0.614
MS.383         	7.787          	-0.616
MS.384         	7.773          	-0.637
MS.385         	7.757          	-0.587
MS.386         	7.742          	-0.721
MS.387         	7.725          	-0.616
MS.388         	7.71           	-0.624
MS.389         	7.695          	-0.616
MS.390         	7.68           	-0.667
MS.391         	7.665          	-0.688
MS.392         	7.65           	-0.642
MS.393         	7.635          	-0.593
MS.394         	7.617          	-0.687
MS.395         	7.602          	-0.682
MS.396         	7.587          	-0.699
MS.397         	7.572          	-0.719
MS.398         	7.557          	-0.714
MS.399         	7.543          	-0.742
MS.400         	7.527          	-0.671
MS.401         	7.512          	-0.673
MS.402         	7.497          	-0.672
MS.403         	7.482          	-0.703
MS.404         	7.467          	-0.768
MS.405         	7.452          	-0.728
MS.406         	7.438          	-0.77
MS.407         	7.422          	-0.736
MS.408         	7.407          	-0.789
MS.409         	7.392          	-0.778
MS.410         	7.378          	-0.768
MS.411         	7.365          	-0.814
MS.412         	7.35           	-0.793
MS.413         	7.335          	-0.784
MS.414         	7.32           	-0.814
MS.415         	7.305          	-0.798
MS.416         	7.29           	-0.773
MS.417         	7.275          	-0.808
MS.418         	7.262          	-0.726
MS.419         	7.247          	-0.856
MS.420         	7.233          	-0.827
MS.421         	7.217          	-0.826
MS.422         	7.202          	-0.798
MS.423         	7.19           	-0.834
MS.424         	7.175          	-0.853
MS.425         	7.16           	-0.825
MS.426         	7.148          	-0.833
MS.427         	7.132          	-0.826
MS.428         	7.117          	-0.837
MS.429         	7.102          	-0.848
MS.430         	7.09           	-0.854
MS.431         	7.075          	-0.839
MS.432         	7.06           	-0.89
MS.433         	7.047          	-0.88
MS.434         	7.032          	-0.853
MS.435         	7.02           	-0.91
MS.436         	7.005          	-0.897
MS.437         	6.99           	-0.87
MS.438         	6.977          	-0.914
MS.439         	6.962          	-0.892
MS.440         	6.95           	-0.912
MS.441         	6.935          	-0.824
MS.442         	6.92           	-0.874
MS.443         	6.907          	-0.909
MS.444         	6.892          	-0.889
MS.445         	6.88           	-0.887
MS.446         	6.865          	-0.914
MS.447         	6.852          	-0.904
MS.448         	6.837          	-0.891
MS.449         	6.825          	-0.908
MS.450         	6.812          	-0.909
MS.451         	6.797          	-0.89
MS.452         	6.785          	-0.917
MS.453         	6.77           	-0.893
MS.454         	6.757          	-0.885
MS.455         	6.742          	-0.92
MS.456         	6.73           	-0.898
MS.457         	6.717          	-0.911
MS.458         	6.702          	-0.877
MS.459         	6.69           	-0.897
MS.460         	6.677          	-0.926
MS.461         	6.662          	-0.931
MS.462         	6.65           	-0.889
MS.463         	6.637          	-0.898
MS.464         	6.622          	-0.878
MS.465         	6.61           	-0.856
MS.466         	6.597          	-0.845
MS.467         	6.582          	-0.883
MS.468         	6.57           	-0.934
MS.469         	6.557          	-0.893
MS.470         	6.545          	-0.857
MS.471         	6.53           	-0.9
MS.472         	6.517          	-0.927
MS.473         	6.505          	-0.911
MS.474         	6.492          	-0.901
MS.475         	6.48           	-0.905
MS.476         	6.465          	-0.901
MS.477         	6.452          	-0.891
MS.478         	6.44           	-0.904
MS.479         	6.427          	-0.908
MS.480         	6.415          	-0.9
MS.481         	6.402          	-0.86
MS.482         	6.39           	-0.912
MS.483         	6.378          	-0.884
MS.484         	6.362          	-0.92
MS.485         	6.35           	-0.882
MS.486         	6.338          	-0.884
MS.487         	6.325          	-0.888
MS.488         	6.312          	-0.883
MS.489         	6.3            	-0.913
MS.490         	6.287          	-0.893
MS.491         	6.275          	-0.894
MS.492         	6.262          	-0.885
MS.493         	6.25           	-0.909
MS.494         	6.237          	-0.877
MS.495         	6.225          	-0.912
MS.496         	6.213          	-0.901
MS.497         	6.2            	-0.91
MS.498         	6.188          	-0.903
MS.499         	6.175          	-0.87
