File:              	C:\Qtrac\Data\ME2C30620B.QZD
Name:              	 CD18O
Protocol:          	MSCAN-MV
Date:              	20/6/23
Date of birth:     	18/5/84
Age:               	39
Sex:               	M
Temperature:       	32.3
S/R sites:         	Knee CF-TA
NC/disease:        	NC
Operator:          	BY
Comments:
M-SCAN DATA (Repeat 2/3, 27.2-16.9m)
Scanpts: 160, 182, 745, 816
Stim. (mA)     	Amp. (mV)
MS.1           	9              	6.434
MS.2           	9              	6.469
MS.3           	9              	6.445
MS.4           	9              	6.425
MS.5           	9              	6.444
MS.6           	9              	6.45
MS.7           	9              	6.447
MS.8           	9              	6.438
MS.9           	9              	6.449
MS.10          	9              	6.453
MS.11          	9              	6.406
MS.12          	9              	6.469
MS.13          	9              	6.422
MS.14          	9              	6.451
MS.15          	9              	6.492
MS.16          	9              	6.443
MS.17          	9              	6.509
MS.18          	9              	6.443
MS.19          	9              	6.421
MS.20          	9              	6.517
MS.21          	9              	6.475
MS.22          	9              	6.439
MS.23          	9              	6.461
MS.24          	8.983          	6.454
MS.25          	8.965          	6.48
MS.26          	8.945          	6.512
MS.27          	8.927          	6.453
MS.28          	8.91           	6.442
MS.29          	8.892          	6.484
MS.30          	8.875          	6.474
MS.31          	8.858          	6.502
MS.32          	8.84           	6.438
MS.33          	8.823          	6.456
MS.34          	8.805          	6.463
MS.35          	8.787          	6.461
MS.36          	8.77           	6.397
MS.37          	8.752          	6.463
MS.38          	8.735          	6.451
MS.39          	8.717          	6.445
MS.40          	8.7            	6.492
MS.41          	8.682          	6.446
MS.42          	8.665          	6.453
MS.43          	8.648          	6.412
MS.44          	8.63           	6.409
MS.45          	8.613          	6.465
MS.46          	8.595          	6.475
MS.47          	8.577          	6.492
MS.48          	8.56           	6.486
MS.49          	8.545          	6.503
MS.50          	8.528          	6.431
MS.51          	8.51           	6.478
MS.52          	8.492          	6.471
MS.53          	8.475          	6.478
MS.54          	8.46           	6.439
MS.55          	8.443          	6.411
MS.56          	8.425          	6.463
MS.57          	8.408          	6.467
MS.58          	8.392          	6.44
MS.59          	8.375          	6.44
MS.60          	8.358          	6.378
MS.61          	8.342          	6.465
MS.62          	8.325          	6.558
MS.63          	8.307          	6.406
MS.64          	8.292          	6.44
MS.65          	8.275          	6.456
MS.66          	8.257          	6.466
MS.67          	8.242          	6.481
MS.68          	8.225          	6.465
MS.69          	8.21           	6.411
MS.70          	8.193          	6.368
MS.71          	8.175          	6.368
MS.72          	8.16           	6.395
MS.73          	8.142          	6.354
MS.74          	8.127          	6.486
MS.75          	8.11           	6.474
MS.76          	8.095          	6.387
MS.77          	8.077          	6.407
MS.78          	8.062          	6.429
MS.79          	8.047          	6.37
MS.80          	8.03           	6.387
MS.81          	8.015          	6.378
MS.82          	7.997          	6.379
MS.83          	7.982          	6.367
MS.84          	7.967          	6.379
MS.85          	7.95           	6.395
MS.86          	7.935          	6.381
MS.87          	7.918          	6.393
MS.88          	7.902          	6.396
MS.89          	7.887          	6.393
MS.90          	7.872          	6.398
MS.91          	7.855          	6.408
MS.92          	7.84           	6.39
MS.93          	7.825          	6.356
MS.94          	7.807          	6.368
MS.95          	7.793          	6.365
MS.96          	7.777          	6.343
MS.97          	7.762          	6.316
MS.98          	7.747          	6.31
MS.99          	7.73           	6.295
MS.100         	7.715          	6.254
MS.101         	7.7            	6.277
MS.102         	7.685          	6.364
MS.103         	7.67           	6.366
MS.104         	7.655          	6.331
MS.105         	7.637          	6.384
MS.106         	7.622          	6.341
MS.107         	7.607          	6.346
MS.108         	7.592          	6.374
MS.109         	7.577          	6.398
MS.110         	7.562          	6.357
MS.111         	7.547          	6.337
MS.112         	7.532          	6.37
MS.113         	7.517          	6.392
MS.114         	7.503          	6.383
MS.115         	7.487          	6.35
MS.116         	7.472          	6.391
MS.117         	7.457          	6.36
MS.118         	7.442          	6.407
MS.119         	7.427          	6.326
MS.120         	7.412          	6.398
MS.121         	7.398          	6.341
MS.122         	7.382          	6.399
MS.123         	7.367          	6.403
MS.124         	7.355          	6.367
MS.125         	7.34           	6.393
MS.126         	7.325          	6.357
MS.127         	7.31           	6.353
MS.128         	7.295          	6.373
MS.129         	7.28           	6.399
MS.130         	7.265          	6.355
MS.131         	7.253          	6.447
MS.132         	7.237          	6.392
MS.133         	7.222          	6.398
MS.134         	7.207          	6.384
MS.135         	7.195          	6.395
MS.136         	7.18           	6.331
MS.137         	7.165          	6.405
MS.138         	7.15           	6.387
MS.139         	7.137          	6.458
MS.140         	7.122          	6.357
MS.141         	7.108          	6.361
MS.142         	7.095          	6.407
MS.143         	7.08           	6.369
MS.144         	7.065          	6.336
MS.145         	7.052          	6.395
MS.146         	7.037          	6.387
MS.147         	7.023          	6.351
MS.148         	7.01           	6.403
MS.149         	6.995          	6.368
MS.150         	6.98           	6.37
MS.151         	6.967          	6.37
MS.152         	6.952          	6.377
MS.153         	6.94           	6.407
MS.154         	6.925          	6.419
MS.155         	6.912          	6.351
MS.156         	6.898          	6.359
MS.157         	6.885          	6.422
MS.158         	6.87           	6.4
MS.159         	6.858          	6.418
MS.160         	6.842          	6.364
MS.161         	6.83           	6.426
MS.162         	6.815          	6.421
MS.163         	6.802          	6.414
MS.164         	6.787          	6.414
MS.165         	6.775          	6.424
MS.166         	6.762          	6.432
MS.167         	6.747          	6.468
MS.168         	6.735          	6.365
MS.169         	6.72           	6.425
MS.170         	6.707          	6.496
MS.171         	6.695          	6.492
MS.172         	6.68           	6.476
MS.173         	6.668          	6.489
MS.174         	6.655          	6.431
MS.175         	6.64           	6.483
MS.176         	6.628          	6.479
MS.177         	6.615          	6.472
MS.178         	6.6            	6.379
MS.179         	6.587          	6.485
MS.180         	6.575          	6.415
MS.181         	6.562          	6.443
MS.182         	6.547          	6.476
MS.183         	6.535          	6.399
MS.184         	6.523          	6.456
MS.185         	6.51           	6.411
MS.186         	6.495          	6.172
MS.187         	6.483          	6.399
MS.188         	6.47           	6.32
MS.189         	6.457          	6.285
MS.190         	6.445          	6.313
MS.191         	6.432          	6.348
MS.192         	6.42           	6.237
MS.193         	6.405          	6.475
MS.194         	6.392          	6.35
MS.195         	6.38           	6.053
MS.196         	6.367          	6.251
MS.197         	6.355          	6.418
MS.198         	6.342          	6.32
MS.199         	6.33           	6.384
MS.200         	6.317          	6.109
MS.201         	6.305          	6.107
MS.202         	6.293          	6.445
MS.203         	6.28           	6.312
MS.204         	6.267          	5.885
MS.205         	6.255          	5.872
MS.206         	6.242          	6.066
MS.207         	6.23           	6.079
MS.208         	6.217          	5.781
MS.209         	6.205          	5.747
MS.210         	6.192          	5.826
MS.211         	6.18           	5.799
MS.212         	6.168          	5.811
MS.213         	6.155          	5.815
MS.214         	6.142          	5.866
MS.215         	6.13           	5.922
MS.216         	6.117          	5.627
MS.217         	6.105          	5.602
MS.218         	6.092          	5.732
MS.219         	6.082          	5.696
MS.220         	6.07           	5.699
MS.221         	6.057          	5.588
MS.222         	6.045          	5.654
MS.223         	6.032          	5.803
MS.224         	6.02           	5.69
MS.225         	6.01           	5.817
MS.226         	5.997          	5.72
MS.227         	5.985          	5.769
MS.228         	5.972          	5.711
MS.229         	5.96           	5.795
MS.230         	5.95           	5.811
MS.231         	5.938          	5.728
MS.232         	5.925          	5.698
MS.233         	5.912          	5.782
MS.234         	5.902          	5.746
MS.235         	5.89           	5.734
MS.236         	5.878          	5.773
MS.237         	5.867          	5.6
MS.238         	5.855          	5.593
MS.239         	5.842          	5.7
MS.240         	5.83           	5.677
MS.241         	5.82           	5.78
MS.242         	5.807          	5.736
MS.243         	5.797          	5.665
MS.244         	5.785          	5.458
MS.245         	5.773          	5.672
MS.246         	5.762          	5.511
MS.247         	5.75           	5.62
MS.248         	5.737          	5.416
MS.249         	5.727          	5.425
MS.250         	5.715          	5.472
MS.251         	5.705          	5.163
MS.252         	5.692          	5.643
MS.253         	5.682          	5.446
MS.254         	5.67           	5.304
MS.255         	5.66           	5.411
MS.256         	5.648          	5.168
MS.257         	5.637          	5.275
MS.258         	5.625          	5.24
MS.259         	5.615          	5.404
MS.260         	5.602          	5.432
MS.261         	5.592          	5.181
MS.262         	5.58           	5.239
MS.263         	5.57           	5.194
MS.264         	5.557          	5.065
MS.265         	5.547          	5.248
MS.266         	5.535          	5.243
MS.267         	5.525          	5.089
MS.268         	5.512          	5.148
MS.269         	5.503          	5.07
MS.270         	5.492          	5.173
MS.271         	5.48           	5.051
MS.272         	5.47           	5.104
MS.273         	5.46           	5.09
MS.274         	5.447          	5.117
MS.275         	5.438          	5.018
MS.276         	5.425          	4.702
MS.277         	5.415          	5.053
MS.278         	5.405          	5.1
MS.279         	5.392          	4.996
MS.280         	5.382          	4.782
MS.281         	5.372          	4.984
MS.282         	5.362          	4.939
MS.283         	5.35           	4.865
MS.284         	5.34           	4.774
MS.285         	5.33           	4.776
MS.286         	5.318          	4.756
MS.287         	5.307          	4.758
MS.288         	5.297          	4.6
MS.289         	5.287          	4.307
MS.290         	5.277          	4.512
MS.291         	5.265          	4.386
MS.292         	5.255          	4.01
MS.293         	5.245          	4.147
MS.294         	5.235          	4.045
MS.295         	5.225          	4.15
MS.296         	5.213          	4
MS.297         	5.202          	3.885
MS.298         	5.193          	3.968
MS.299         	5.182          	3.937
MS.300         	5.172          	3.636
MS.301         	5.162          	3.646
MS.302         	5.15           	3.903
MS.303         	5.14           	3.729
MS.304         	5.13           	4.148
MS.305         	5.12           	3.825
MS.306         	5.11           	3.939
MS.307         	5.1            	3.941
MS.308         	5.09           	3.734
MS.309         	5.08           	3.932
MS.310         	5.07           	3.662
MS.311         	5.06           	3.531
MS.312         	5.05           	3.514
MS.313         	5.04           	3.604
MS.314         	5.03           	3.537
MS.315         	5.02           	3.61
MS.316         	5.01           	3.554
MS.317         	5              	3.552
MS.318         	4.99           	3.552
MS.319         	4.98           	3.583
MS.320         	4.97           	3.1
MS.321         	4.96           	3.517
MS.322         	4.95           	3.543
MS.323         	4.94           	3.311
MS.324         	4.93           	3.488
MS.325         	4.92           	3.5
MS.326         	4.91           	3.42
MS.327         	4.9            	3.148
MS.328         	4.89           	3.179
MS.329         	4.88           	3.118
MS.330         	4.87           	3.453
MS.331         	4.86           	3.42
MS.332         	4.85           	3.271
MS.333         	4.842          	3.097
MS.334         	4.832          	3.217
MS.335         	4.822          	3.157
MS.336         	4.812          	3.218
MS.337         	4.802          	3.093
MS.338         	4.793          	3.145
MS.339         	4.782          	3.129
MS.340         	4.775          	2.996
MS.341         	4.765          	2.919
MS.342         	4.755          	2.952
MS.343         	4.745          	3.284
MS.344         	4.735          	2.925
MS.345         	4.727          	2.942
MS.346         	4.717          	2.831
MS.347         	4.707          	3.027
MS.348         	4.697          	2.93
MS.349         	4.69           	2.987
MS.350         	4.68           	2.812
MS.351         	4.67           	2.996
MS.352         	4.66           	2.888
MS.353         	4.652          	2.785
MS.354         	4.642          	3.199
MS.355         	4.632          	2.789
MS.356         	4.625          	2.811
MS.357         	4.615          	2.756
MS.358         	4.605          	2.843
MS.359         	4.595          	2.864
MS.360         	4.588          	2.719
MS.361         	4.577          	2.542
MS.362         	4.568          	2.541
MS.363         	4.56           	2.838
MS.364         	4.55           	2.558
MS.365         	4.543          	2.621
MS.366         	4.532          	2.555
MS.367         	4.523          	2.41
MS.368         	4.515          	2.452
MS.369         	4.505          	2.455
MS.370         	4.495          	2.648
MS.371         	4.487          	2.488
MS.372         	4.477          	2.144
MS.373         	4.47           	2.43
MS.374         	4.46           	2.499
MS.375         	4.452          	2.266
MS.376         	4.443          	2.346
MS.377         	4.432          	2.271
MS.378         	4.425          	2.155
MS.379         	4.415          	2.125
MS.380         	4.407          	2.256
MS.381         	4.398          	2.192
MS.382         	4.39           	2.377
MS.383         	4.38           	1.948
MS.384         	4.372          	2.321
MS.385         	4.362          	2.074
MS.386         	4.355          	1.915
MS.387         	4.345          	2.105
MS.388         	4.338          	1.923
MS.389         	4.327          	2.043
MS.390         	4.32           	1.944
MS.391         	4.31           	1.88
MS.392         	4.302          	2.053
MS.393         	4.295          	1.864
MS.394         	4.285          	1.992
MS.395         	4.277          	1.837
MS.396         	4.267          	1.868
MS.397         	4.26           	1.917
MS.398         	4.253          	1.885
MS.399         	4.242          	1.858
MS.400         	4.235          	1.81
MS.401         	4.225          	1.673
MS.402         	4.217          	1.897
MS.403         	4.21           	1.633
MS.404         	4.2            	1.808
MS.405         	4.193          	1.687
MS.406         	4.185          	1.705
MS.407         	4.175          	1.629
MS.408         	4.168          	1.874
MS.409         	4.16           	1.641
MS.410         	4.15           	1.619
MS.411         	4.142          	1.537
MS.412         	4.135          	1.822
MS.413         	4.125          	1.544
MS.414         	4.117          	1.464
MS.415         	4.11           	1.597
MS.416         	4.1            	1.463
MS.417         	4.092          	1.529
MS.418         	4.085          	1.494
MS.419         	4.077          	1.531
MS.420         	4.068          	1.683
MS.421         	4.06           	1.646
MS.422         	4.052          	1.656
MS.423         	4.045          	1.453
MS.424         	4.035          	1.358
MS.425         	4.027          	1.365
MS.426         	4.02           	1.423
MS.427         	4.012          	1.447
MS.428         	4.003          	1.349
MS.429         	3.995          	1.392
MS.430         	3.987          	1.303
MS.431         	3.98           	1.335
MS.432         	3.972          	1.277
MS.433         	3.965          	1.292
MS.434         	3.955          	1.226
MS.435         	3.947          	1.285
MS.436         	3.94           	1.202
MS.437         	3.932          	1.212
MS.438         	3.925          	1.204
MS.439         	3.918          	1.204
MS.440         	3.91           	1.18
MS.441         	3.9            	1.146
MS.442         	3.892          	1.217
MS.443         	3.885          	1.182
MS.444         	3.877          	1.086
MS.445         	3.87           	1.157
MS.446         	3.862          	1.095
MS.447         	3.855          	1.129
MS.448         	3.847          	1.102
MS.449         	3.84           	1.016
MS.450         	3.832          	1.057
MS.451         	3.822          	1.085
MS.452         	3.815          	1.06
MS.453         	3.807          	1.01
MS.454         	3.8            	1.037
MS.455         	3.793          	1.049
MS.456         	3.785          	0.944
MS.457         	3.777          	0.974
MS.458         	3.77           	0.973
MS.459         	3.762          	0.991
MS.460         	3.755          	0.933
MS.461         	3.747          	0.967
MS.462         	3.74           	0.909
MS.463         	3.732          	0.847
MS.464         	3.725          	0.877
MS.465         	3.717          	0.999
MS.466         	3.71           	0.77
MS.467         	3.702          	0.807
MS.468         	3.695          	0.944
MS.469         	3.688          	0.797
MS.470         	3.68           	0.821
MS.471         	3.675          	0.88
MS.472         	3.668          	0.783
MS.473         	3.66           	0.746
MS.474         	3.652          	0.813
MS.475         	3.645          	0.722
MS.476         	3.637          	0.764
MS.477         	3.63           	0.732
MS.478         	3.622          	0.774
MS.479         	3.615          	0.798
MS.480         	3.607          	0.725
MS.481         	3.6            	0.646
MS.482         	3.595          	0.692
MS.483         	3.587          	0.72
MS.484         	3.58           	0.65
MS.485         	3.572          	0.635
MS.486         	3.565          	0.64
MS.487         	3.557          	0.629
MS.488         	3.55           	0.546
MS.489         	3.545          	0.663
MS.490         	3.537          	0.689
MS.491         	3.53           	0.582
MS.492         	3.523          	0.579
MS.493         	3.515          	0.538
MS.494         	3.507          	0.531
MS.495         	3.502          	0.599
MS.496         	3.495          	0.667
MS.497         	3.487          	0.567
MS.498         	3.48           	0.605
MS.499         	3.472          	0.566
MS.500         	3.467          	0.593
MS.501         	3.46           	0.572
MS.502         	3.452          	0.556
MS.503         	3.445          	0.546
