File:              	C:\Qtrac\Data\ME2C30615A.QZD
Name:              	 HA02N
Protocol:          	MSCAN-MV
Date:              	15/6/23
Date of birth:     	2/3/00
Age:               	23
Sex:               	M
Temperature:       	32.0
S/R sites:         	Knee TA-CF
NC/disease:        	NC
Operator:          	BY
Comments:
M-SCAN DATA (Repeat 3/3, 36.2-27.1m)
Scanpts: 1, 12, 679, 684
Stim. (mA)     	Amp. (mV)
MS.1           	15             	3.299
MS.2           	15             	3.307
MS.3           	14.97          	3.304
MS.4           	14.94          	3.293
MS.5           	14.91          	3.293
MS.6           	14.88          	3.298
MS.7           	14.85          	3.295
MS.8           	14.82          	3.293
MS.9           	14.792         	3.306
MS.10          	14.762         	3.295
MS.11          	14.733         	3.297
MS.12          	14.702         	3.295
MS.13          	14.672         	3.293
MS.14          	14.645         	3.265
MS.15          	14.615         	3.298
MS.16          	14.585         	3.268
MS.17          	14.557         	3.296
MS.18          	14.527         	3.265
MS.19          	14.497         	3.271
MS.20          	14.47          	3.264
MS.21          	14.44          	3.294
MS.22          	14.412         	3.256
MS.23          	14.382         	3.266
MS.24          	14.355         	3.27
MS.25          	14.325         	3.265
MS.26          	14.297         	3.257
MS.27          	14.267         	3.27
MS.28          	14.24          	3.269
MS.29          	14.212         	3.255
MS.30          	14.182         	3.262
MS.31          	14.155         	3.26
MS.32          	14.127         	3.259
MS.33          	14.097         	3.256
MS.34          	14.07          	3.257
MS.35          	14.042         	3.264
MS.36          	14.015         	3.251
MS.37          	13.985         	3.254
MS.38          	13.957         	3.253
MS.39          	13.93          	3.263
MS.40          	13.903         	3.265
MS.41          	13.875         	3.26
MS.42          	13.847         	3.248
MS.43          	13.82          	3.26
MS.44          	13.792         	3.258
MS.45          	13.765         	3.253
MS.46          	13.737         	3.244
MS.47          	13.71          	3.25
MS.48          	13.682         	3.23
MS.49          	13.655         	3.248
MS.50          	13.627         	3.245
MS.51          	13.6           	3.238
MS.52          	13.572         	3.24
MS.53          	13.545         	3.238
MS.54          	13.517         	3.241
MS.55          	13.492         	3.246
MS.56          	13.465         	3.234
MS.57          	13.438         	3.239
MS.58          	13.41          	3.251
MS.59          	13.385         	3.238
MS.60          	13.358         	3.26
MS.61          	13.33          	3.237
MS.62          	13.305         	3.243
MS.63          	13.278         	3.229
MS.64          	13.25          	3.246
MS.65          	13.225         	3.245
MS.66          	13.197         	3.234
MS.67          	13.172         	3.237
MS.68          	13.145         	3.216
MS.69          	13.12          	3.224
MS.70          	13.092         	3.221
MS.71          	13.068         	3.235
MS.72          	13.04          	3.229
MS.73          	13.015         	3.223
MS.74          	12.987         	3.22
MS.75          	12.962         	3.223
MS.76          	12.938         	3.231
MS.77          	12.91          	3.218
MS.78          	12.885         	3.215
MS.79          	12.86          	3.203
MS.80          	12.832         	3.21
MS.81          	12.807         	3.214
MS.82          	12.782         	3.198
MS.83          	12.757         	3.208
MS.84          	12.73          	3.221
MS.85          	12.705         	3.206
MS.86          	12.68          	3.198
MS.87          	12.655         	3.201
MS.88          	12.63          	3.196
MS.89          	12.605         	3.204
MS.90          	12.58          	3.201
MS.91          	12.555         	3.203
MS.92          	12.53          	3.157
MS.93          	12.505         	3.181
MS.94          	12.48          	3.204
MS.95          	12.455         	3.217
MS.96          	12.43          	3.202
MS.97          	12.405         	3.198
MS.98          	12.38          	3.211
MS.99          	12.355         	3.188
MS.100         	12.33          	3.191
MS.101         	12.305         	3.181
MS.102         	12.28          	3.201
MS.103         	12.257         	3.192
MS.104         	12.233         	3.191
MS.105         	12.207         	3.178
MS.106         	12.182         	3.16
MS.107         	12.16          	3.188
MS.108         	12.135         	3.18
MS.109         	12.11          	3.182
MS.110         	12.085         	3.176
MS.111         	12.062         	3.148
MS.112         	12.037         	3.166
MS.113         	12.012         	3.176
MS.114         	11.99          	3.151
MS.115         	11.965         	3.145
MS.116         	11.943         	3.14
MS.117         	11.917         	3.148
MS.118         	11.895         	3.148
MS.119         	11.87          	3.149
MS.120         	11.847         	3.154
MS.121         	11.822         	3.141
MS.122         	11.8           	3.143
MS.123         	11.775         	3.14
MS.124         	11.752         	3.147
MS.125         	11.73          	3.137
MS.126         	11.705         	3.141
MS.127         	11.682         	3.127
MS.128         	11.657         	3.148
MS.129         	11.635         	3.16
MS.130         	11.613         	3.115
MS.131         	11.59          	3.103
MS.132         	11.565         	3.13
MS.133         	11.542         	3.143
MS.134         	11.52          	3.105
MS.135         	11.497         	3.089
MS.136         	11.472         	3.091
MS.137         	11.45          	3.102
MS.138         	11.427         	3.093
MS.139         	11.405         	3.119
MS.140         	11.382         	3.129
MS.141         	11.36          	3.12
MS.142         	11.337         	3.135
MS.143         	11.315         	3.08
MS.144         	11.292         	3.058
MS.145         	11.27          	3.067
MS.146         	11.247         	3.054
MS.147         	11.225         	3.013
MS.148         	11.202         	3.059
MS.149         	11.18          	3.015
MS.150         	11.157         	3.063
MS.151         	11.135         	3.009
MS.152         	11.113         	3.05
MS.153         	11.09          	3.055
MS.154         	11.068         	3.007
MS.155         	11.045         	2.993
MS.156         	11.023         	3.059
MS.157         	11.002         	3.034
MS.158         	10.98          	2.991
MS.159         	10.957         	2.975
MS.160         	10.935         	3.047
MS.161         	10.915         	3.008
MS.162         	10.892         	2.943
MS.163         	10.87          	2.972
MS.164         	10.85          	2.982
MS.165         	10.827         	2.95
MS.166         	10.805         	2.96
MS.167         	10.785         	3.001
MS.168         	10.762         	2.927
MS.169         	10.74          	2.945
MS.170         	10.72          	2.913
MS.171         	10.698         	2.936
MS.172         	10.677         	2.924
MS.173         	10.655         	2.939
MS.174         	10.635         	2.969
MS.175         	10.613         	2.901
MS.176         	10.592         	2.906
MS.177         	10.57          	2.894
MS.178         	10.55          	2.866
MS.179         	10.528         	2.912
MS.180         	10.507         	2.866
MS.181         	10.485         	2.87
MS.182         	10.465         	2.925
MS.183         	10.445         	2.859
MS.184         	10.422         	2.854
MS.185         	10.403         	2.896
MS.186         	10.382         	2.893
MS.187         	10.36          	2.867
MS.188         	10.34          	2.847
MS.189         	10.32          	2.86
MS.190         	10.3           	2.846
MS.191         	10.278         	2.905
MS.192         	10.257         	2.838
MS.193         	10.238         	2.852
MS.194         	10.217         	2.847
MS.195         	10.198         	2.873
MS.196         	10.175         	2.93
MS.197         	10.155         	2.932
MS.198         	10.135         	2.84
MS.199         	10.115         	2.934
MS.200         	10.095         	2.846
MS.201         	10.075         	2.847
MS.202         	10.055         	2.894
MS.203         	10.035         	2.922
MS.204         	10.015         	2.947
MS.205         	9.995          	2.914
MS.206         	9.975          	2.919
MS.207         	9.955          	2.831
MS.208         	9.935          	2.928
MS.209         	9.915          	2.828
MS.210         	9.895          	2.901
MS.211         	9.875          	2.833
MS.212         	9.855          	2.825
MS.213         	9.835          	2.886
MS.214         	9.818          	2.896
MS.215         	9.797          	2.903
MS.216         	9.778          	2.822
MS.217         	9.757          	2.884
MS.218         	9.738          	2.873
MS.219         	9.717          	2.894
MS.220         	9.7            	2.87
MS.221         	9.68           	2.852
MS.222         	9.66           	2.901
MS.223         	9.64           	2.828
MS.224         	9.622          	2.897
MS.225         	9.602          	2.864
MS.226         	9.582          	2.839
MS.227         	9.565          	2.845
MS.228         	9.545          	2.818
MS.229         	9.525          	2.798
MS.230         	9.507          	2.842
MS.231         	9.488          	2.891
MS.232         	9.47           	2.805
MS.233         	9.45           	2.766
MS.234         	9.432          	2.806
MS.235         	9.412          	2.758
MS.236         	9.395          	2.81
MS.237         	9.375          	2.811
MS.238         	9.358          	2.717
MS.239         	9.337          	2.775
MS.240         	9.32           	2.722
MS.241         	9.3            	2.778
MS.242         	9.283          	2.682
MS.243         	9.262          	2.689
MS.244         	9.245          	2.689
MS.245         	9.225          	2.632
MS.246         	9.207          	2.678
MS.247         	9.19           	2.675
MS.248         	9.17           	2.695
MS.249         	9.153          	2.667
MS.250         	9.135          	2.664
MS.251         	9.115          	2.454
MS.252         	9.097          	2.62
MS.253         	9.08           	2.603
MS.254         	9.062          	2.522
MS.255         	9.042          	2.486
MS.256         	9.025          	2.531
MS.257         	9.007          	2.471
MS.258         	8.99           	2.458
MS.259         	8.972          	2.478
MS.260         	8.952          	2.506
MS.261         	8.935          	2.538
MS.262         	8.917          	2.484
MS.263         	8.9            	2.521
MS.264         	8.882          	2.42
MS.265         	8.865          	2.438
MS.266         	8.847          	2.395
MS.267         	8.83           	2.421
MS.268         	8.812          	2.466
MS.269         	8.795          	2.403
MS.270         	8.778          	2.437
MS.271         	8.757          	2.45
MS.272         	8.74           	2.371
MS.273         	8.725          	2.291
MS.274         	8.707          	2.303
MS.275         	8.69           	2.296
MS.276         	8.672          	2.373
MS.277         	8.655          	2.289
MS.278         	8.637          	2.31
MS.279         	8.62           	2.358
MS.280         	8.602          	2.248
MS.281         	8.585          	2.299
MS.282         	8.568          	2.187
MS.283         	8.55           	2.154
MS.284         	8.535          	2.293
MS.285         	8.517          	2.289
MS.286         	8.5            	2.231
MS.287         	8.483          	2.192
MS.288         	8.465          	2.096
MS.289         	8.45           	2.266
MS.290         	8.432          	2.213
MS.291         	8.415          	2.125
MS.292         	8.398          	2.199
MS.293         	8.382          	2.188
MS.294         	8.365          	2.159
MS.295         	8.347          	2.172
MS.296         	8.332          	2.077
MS.297         	8.315          	2.151
MS.298         	8.297          	2.115
MS.299         	8.283          	2.086
MS.300         	8.265          	2.106
MS.301         	8.247          	1.985
MS.302         	8.233          	1.996
MS.303         	8.215          	2.119
MS.304         	8.2            	2.015
MS.305         	8.182          	2.017
MS.306         	8.167          	1.951
MS.307         	8.15           	1.964
MS.308         	8.135          	1.981
MS.309         	8.117          	2.003
MS.310         	8.102          	1.901
MS.311         	8.085          	1.949
MS.312         	8.07           	1.916
MS.313         	8.052          	1.932
MS.314         	8.037          	1.855
MS.315         	8.02           	1.908
MS.316         	8.005          	1.852
MS.317         	7.99           	1.727
MS.318         	7.972          	1.87
MS.319         	7.957          	1.793
MS.320         	7.94           	1.821
MS.321         	7.925          	1.746
MS.322         	7.91           	1.804
MS.323         	7.892          	1.696
MS.324         	7.878          	1.714
MS.325         	7.862          	1.728
MS.326         	7.847          	1.599
MS.327         	7.83           	1.639
MS.328         	7.815          	1.584
MS.329         	7.8            	1.556
MS.330         	7.785          	1.72
MS.331         	7.767          	1.544
MS.332         	7.753          	1.586
MS.333         	7.737          	1.683
MS.334         	7.722          	1.486
MS.335         	7.707          	1.5
MS.336         	7.69           	1.603
MS.337         	7.675          	1.582
MS.338         	7.66           	1.467
MS.339         	7.645          	1.431
MS.340         	7.63           	1.356
MS.341         	7.615          	1.434
MS.342         	7.6            	1.415
MS.343         	7.585          	1.458
MS.344         	7.57           	1.383
MS.345         	7.555          	1.366
MS.346         	7.537          	1.374
MS.347         	7.523          	1.331
MS.348         	7.507          	1.331
MS.349         	7.492          	1.382
MS.350         	7.477          	1.293
MS.351         	7.462          	1.271
MS.352         	7.45           	1.257
MS.353         	7.435          	1.308
MS.354         	7.42           	1.186
MS.355         	7.405          	1.191
MS.356         	7.39           	1.216
MS.357         	7.375          	1.194
MS.358         	7.36           	1.207
MS.359         	7.345          	1.204
MS.360         	7.33           	1.108
MS.361         	7.315          	1.18
MS.362         	7.302          	1.199
MS.363         	7.287          	1.202
MS.364         	7.273          	1.069
MS.365         	7.257          	1.199
MS.366         	7.242          	0.988
MS.367         	7.227          	1.036
MS.368         	7.215          	1.032
MS.369         	7.2            	1.001
MS.370         	7.185          	0.944
MS.371         	7.17           	1.051
MS.372         	7.157          	0.988
MS.373         	7.142          	0.886
MS.374         	7.128          	0.872
MS.375         	7.115          	1.036
MS.376         	7.1            	1.028
MS.377         	7.085          	0.877
MS.378         	7.072          	1
MS.379         	7.057          	0.85
MS.380         	7.043          	0.803
MS.381         	7.03           	0.946
MS.382         	7.015          	0.818
MS.383         	7              	0.907
MS.384         	6.987          	0.805
MS.385         	6.972          	0.811
MS.386         	6.96           	0.808
MS.387         	6.945          	0.81
MS.388         	6.932          	0.797
MS.389         	6.918          	0.77
MS.390         	6.902          	0.714
MS.391         	6.89           	0.748
MS.392         	6.875          	0.662
MS.393         	6.862          	0.722
MS.394         	6.847          	0.688
MS.395         	6.835          	0.641
MS.396         	6.822          	0.643
MS.397         	6.807          	0.631
MS.398         	6.795          	0.602
MS.399         	6.78           	0.607
MS.400         	6.767          	0.629
MS.401         	6.753          	0.684
MS.402         	6.74           	0.638
MS.403         	6.727          	0.579
MS.404         	6.712          	0.559
MS.405         	6.7            	0.587
MS.406         	6.685          	0.559
MS.407         	6.672          	0.538
MS.408         	6.66           	0.51
MS.409         	6.645          	0.564
MS.410         	6.632          	0.545
MS.411         	6.62           	0.49
MS.412         	6.608          	0.485
MS.413         	6.592          	0.51
MS.414         	6.58           	0.5
MS.415         	6.567          	0.441
MS.416         	6.555          	0.463
MS.417         	6.54           	0.38
MS.418         	6.527          	0.443
MS.419         	6.515          	0.403
MS.420         	6.503          	0.424
MS.421         	6.487          	0.457
MS.422         	6.475          	0.419
MS.423         	6.462          	0.389
MS.424         	6.45           	0.399
MS.425         	6.438          	0.304
MS.426         	6.425          	0.332
MS.427         	6.41           	0.371
MS.428         	6.398          	0.3
MS.429         	6.385          	0.391
MS.430         	6.372          	0.33
MS.431         	6.36           	0.264
MS.432         	6.347          	0.353
MS.433         	6.335          	0.338
MS.434         	6.322          	0.328
MS.435         	6.31           	0.27
MS.436         	6.297          	0.3
MS.437         	6.285          	0.224
MS.438         	6.273          	0.253
MS.439         	6.26           	0.27
MS.440         	6.247          	0.229
MS.441         	6.235          	0.316
MS.442         	6.222          	0.215
MS.443         	6.21           	0.251
MS.444         	6.197          	0.22
MS.445         	6.185          	0.249
MS.446         	6.172          	0.203
MS.447         	6.16           	0.236
MS.448         	6.148          	0.229
MS.449         	6.135          	0.212
MS.450         	6.122          	0.15
MS.451         	6.11           	0.183
MS.452         	6.097          	0.156
MS.453         	6.088          	0.126
MS.454         	6.075          	0.186
MS.455         	6.062          	0.138
MS.456         	6.05           	0.185
MS.457         	6.037          	0.173
MS.458         	6.025          	0.132
MS.459         	6.015          	0.122
MS.460         	6.003          	0.15
MS.461         	5.99           	0.157
MS.462         	5.977          	0.148
MS.463         	5.965          	0.104
MS.464         	5.955          	0.146
MS.465         	5.942          	0.115
MS.466         	5.93           	0.102
MS.467         	5.918          	0.109
MS.468         	5.907          	0.103
MS.469         	5.895          	0.123
MS.470         	5.882          	0.12
MS.471         	5.87           	0.101
MS.472         	5.86           	0.096
MS.473         	5.847          	0.093
MS.474         	5.835          	0.085
MS.475         	5.825          	0.06
MS.476         	5.812          	0.082
MS.477         	5.8            	0.092
MS.478         	5.79           	0.11
MS.479         	5.777          	0.074
MS.480         	5.767          	0.049
MS.481         	5.755          	0.089
MS.482         	5.742          	0.065
MS.483         	5.733          	0.055
MS.484         	5.72           	0.07
MS.485         	5.71           	0.064
MS.486         	5.697          	0.067
MS.487         	5.685          	0.06
MS.488         	5.675          	0.06
MS.489         	5.662          	0.036
MS.490         	5.652          	0.04
MS.491         	5.64           	0.068
MS.492         	5.63           	0.084
MS.493         	5.617          	0.05
MS.494         	5.608          	0.06
MS.495         	5.595          	0.075
MS.496         	5.585          	0.068
MS.497         	5.572          	0.1
MS.498         	5.562          	0.064
MS.499         	5.552          	0.067
MS.500         	5.54           	0.045
MS.501         	5.53           	0.048
MS.502         	5.517          	0.029
MS.503         	5.507          	0.06
