File:              	C:\Qtrac\Data\ME2C30619A.QZD
Name:              	 ME18D
Protocol:          	MSCAN-MV
Date:              	19/6/23
Date of birth:     	18/11/01
Age:               	21
Sex:               	M
Temperature:       	32.7
S/R sites:         	Knee CF-TA
NC/disease:        	NC
Operator:          	BY
Comments:
M-SCAN DATA (Repeat 3/3, 28.4-21.7m)
Scanpts: 116, 128, 501, 530
Stim. (mA)     	Amp. (mV)
MS.1           	6              	5.002
MS.2           	6              	5.069
MS.3           	6              	5.03
MS.4           	6              	5.034
MS.5           	6              	5.008
MS.6           	6              	5.031
MS.7           	6              	4.985
MS.8           	6              	5.031
MS.9           	6              	5.024
MS.10          	6              	5.049
MS.11          	6              	5.004
MS.12          	6              	5.028
MS.13          	6              	5.021
MS.14          	6              	5.01
MS.15          	6              	5.045
MS.16          	6              	5.054
MS.17          	6              	5.026
MS.18          	6              	5.021
MS.19          	6              	5.034
MS.20          	6              	5.082
MS.21          	6              	5.032
MS.22          	6              	5.07
MS.23          	6              	5.029
MS.24          	5.987          	5.101
MS.25          	5.975          	5
MS.26          	5.965          	5.045
MS.27          	5.952          	5.018
MS.28          	5.94           	5.034
MS.29          	5.927          	5.036
MS.30          	5.918          	5.07
MS.31          	5.905          	5.059
MS.32          	5.892          	5.048
MS.33          	5.88           	5.079
MS.34          	5.87           	5.071
MS.35          	5.858          	5.086
MS.36          	5.845          	5.073
MS.37          	5.835          	5.07
MS.38          	5.822          	5.112
MS.39          	5.81           	5.04
MS.40          	5.8            	5.067
MS.41          	5.787          	5.117
MS.42          	5.777          	5.07
MS.43          	5.765          	5.099
MS.44          	5.753          	5.082
MS.45          	5.742          	5.093
MS.46          	5.73           	5.047
MS.47          	5.72           	5.098
MS.48          	5.707          	5.109
MS.49          	5.695          	5.116
MS.50          	5.685          	5.137
MS.51          	5.672          	5.139
MS.52          	5.662          	5.107
MS.53          	5.65           	5.136
MS.54          	5.64           	5.131
MS.55          	5.628          	5.136
MS.56          	5.617          	5.112
MS.57          	5.605          	5.102
MS.58          	5.595          	5.161
MS.59          	5.582          	5.129
MS.60          	5.572          	5.152
MS.61          	5.56           	5.192
MS.62          	5.55           	5.134
MS.63          	5.537          	5.182
MS.64          	5.527          	5.142
MS.65          	5.517          	5.184
MS.66          	5.505          	5.169
MS.67          	5.495          	5.177
MS.68          	5.483          	5.211
MS.69          	5.472          	5.164
MS.70          	5.463          	5.143
MS.71          	5.45           	5.192
MS.72          	5.44           	5.155
MS.73          	5.43           	5.209
MS.74          	5.418          	5.172
MS.75          	5.407          	5.176
MS.76          	5.398          	5.22
MS.77          	5.385          	5.19
MS.78          	5.375          	5.195
MS.79          	5.365          	5.2
MS.80          	5.352          	5.181
MS.81          	5.342          	5.205
MS.82          	5.332          	5.204
MS.83          	5.322          	5.199
MS.84          	5.31           	5.198
MS.85          	5.3            	5.223
MS.86          	5.29           	5.236
MS.87          	5.28           	5.218
MS.88          	5.267          	5.208
MS.89          	5.257          	5.223
MS.90          	5.247          	5.235
MS.91          	5.237          	5.214
MS.92          	5.227          	5.226
MS.93          	5.215          	5.233
MS.94          	5.205          	5.237
MS.95          	5.195          	5.237
MS.96          	5.185          	5.242
MS.97          	5.175          	5.206
MS.98          	5.165          	5.258
MS.99          	5.155          	5.234
MS.100         	5.142          	5.261
MS.101         	5.132          	5.2
MS.102         	5.122          	5.256
MS.103         	5.112          	5.242
MS.104         	5.102          	5.261
MS.105         	5.092          	5.269
MS.106         	5.082          	5.234
MS.107         	5.072          	5.231
MS.108         	5.062          	5.261
MS.109         	5.052          	5.316
MS.110         	5.043          	5.283
MS.111         	5.032          	5.266
MS.112         	5.023          	5.253
MS.113         	5.012          	5.256
MS.114         	5.003          	5.242
MS.115         	4.992          	5.302
MS.116         	4.983          	5.291
MS.117         	4.972          	5.317
MS.118         	4.963          	5.253
MS.119         	4.952          	5.288
MS.120         	4.943          	5.258
MS.121         	4.932          	5.266
MS.122         	4.922          	5.281
MS.123         	4.912          	5.275
MS.124         	4.902          	5.249
MS.125         	4.892          	5.288
MS.126         	4.882          	5.295
MS.127         	4.872          	5.269
MS.128         	4.862          	5.327
MS.129         	4.855          	5.291
MS.130         	4.845          	5.287
MS.131         	4.835          	5.22
MS.132         	4.825          	5.218
MS.133         	4.815          	5.206
MS.134         	4.805          	5.239
MS.135         	4.795          	5.237
MS.136         	4.787          	5.256
MS.137         	4.777          	5.273
MS.138         	4.767          	5.228
MS.139         	4.757          	5.244
MS.140         	4.747          	5.286
MS.141         	4.737          	5.242
MS.142         	4.73           	5.269
MS.143         	4.72           	5.172
MS.144         	4.71           	5.296
MS.145         	4.7            	5.208
MS.146         	4.693          	5.273
MS.147         	4.682          	5.283
MS.148         	4.673          	5.232
MS.149         	4.662          	5.164
MS.150         	4.655          	5.139
MS.151         	4.645          	5.177
MS.152         	4.635          	5.244
MS.153         	4.628          	5.142
MS.154         	4.617          	5.253
MS.155         	4.608          	5.171
MS.156         	4.597          	5.135
MS.157         	4.59           	5.219
MS.158         	4.58           	5.223
MS.159         	4.57           	5.063
MS.160         	4.562          	5.103
MS.161         	4.552          	5.159
MS.162         	4.545          	5.032
MS.163         	4.535          	5.148
MS.164         	4.525          	5.049
MS.165         	4.517          	5.167
MS.166         	4.507          	5.134
MS.167         	4.497          	5.112
MS.168         	4.49           	5.031
MS.169         	4.48           	5.068
MS.170         	4.472          	5.136
MS.171         	4.463          	5.074
MS.172         	4.455          	5.036
MS.173         	4.445          	5.121
MS.174         	4.435          	5.015
MS.175         	4.427          	5.103
MS.176         	4.418          	5.014
MS.177         	4.41           	5.125
MS.178         	4.4            	5.056
MS.179         	4.392          	5.027
MS.180         	4.382          	5.101
MS.181         	4.375          	5.037
MS.182         	4.365          	4.943
MS.183         	4.358          	5.025
MS.184         	4.347          	5.046
MS.185         	4.34           	4.948
MS.186         	4.33           	4.986
MS.187         	4.322          	5.057
MS.188         	4.312          	5.017
MS.189         	4.305          	4.999
MS.190         	4.298          	4.88
MS.191         	4.287          	4.894
MS.192         	4.28           	5.024
MS.193         	4.27           	4.87
MS.194         	4.262          	4.987
MS.195         	4.253          	4.897
MS.196         	4.245          	4.913
MS.197         	4.237          	4.875
MS.198         	4.227          	4.846
MS.199         	4.22           	4.841
MS.200         	4.213          	4.899
MS.201         	4.202          	4.785
MS.202         	4.195          	4.901
MS.203         	4.185          	4.758
MS.204         	4.177          	4.792
MS.205         	4.17           	4.716
MS.206         	4.16           	4.57
MS.207         	4.152          	4.856
MS.208         	4.145          	4.751
MS.209         	4.135          	4.719
MS.210         	4.128          	4.784
MS.211         	4.12           	4.852
MS.212         	4.112          	4.767
MS.213         	4.102          	4.605
MS.214         	4.095          	4.752
MS.215         	4.088          	4.516
MS.216         	4.077          	4.783
MS.217         	4.07           	4.654
MS.218         	4.062          	4.609
MS.219         	4.055          	4.681
MS.220         	4.045          	4.518
MS.221         	4.037          	4.601
MS.222         	4.03           	4.647
MS.223         	4.023          	4.304
MS.224         	4.015          	4.396
MS.225         	4.005          	4.453
MS.226         	3.997          	4.381
MS.227         	3.99           	4.476
MS.228         	3.982          	4.482
MS.229         	3.975          	4.456
MS.230         	3.965          	4.471
MS.231         	3.957          	4.344
MS.232         	3.95           	4.304
MS.233         	3.942          	4.41
MS.234         	3.935          	4.476
MS.235         	3.928          	4.277
MS.236         	3.918          	4.169
MS.237         	3.91           	4.225
MS.238         	3.902          	4.227
MS.239         	3.895          	4.282
MS.240         	3.887          	4.273
MS.241         	3.88           	4.213
MS.242         	3.872          	4.033
MS.243         	3.865          	4.326
MS.244         	3.857          	4.216
MS.245         	3.85           	4.09
MS.246         	3.84           	4.047
MS.247         	3.832          	4.044
MS.248         	3.825          	3.989
MS.249         	3.817          	3.95
MS.250         	3.81           	3.989
MS.251         	3.803          	3.902
MS.252         	3.795          	4.075
MS.253         	3.787          	3.762
MS.254         	3.78           	3.654
MS.255         	3.772          	3.832
MS.256         	3.765          	3.683
MS.257         	3.757          	3.691
MS.258         	3.75           	3.806
MS.259         	3.742          	3.784
MS.260         	3.735          	3.691
MS.261         	3.727          	3.75
MS.262         	3.72           	3.689
MS.263         	3.712          	3.514
MS.264         	3.705          	3.521
MS.265         	3.697          	3.582
MS.266         	3.69           	3.502
MS.267         	3.682          	3.652
MS.268         	3.675          	3.557
MS.269         	3.668          	3.416
MS.270         	3.66           	3.468
MS.271         	3.655          	3.343
MS.272         	3.647          	3.45
MS.273         	3.64           	3.347
MS.274         	3.632          	3.364
MS.275         	3.625          	3.306
MS.276         	3.617          	3.295
MS.277         	3.61           	3.233
MS.278         	3.602          	3.194
MS.279         	3.595          	3.087
MS.280         	3.587          	3.22
MS.281         	3.582          	3.054
MS.282         	3.575          	2.961
MS.283         	3.567          	2.932
MS.284         	3.56           	2.939
MS.285         	3.553          	2.93
MS.286         	3.545          	3.046
MS.287         	3.537          	2.886
MS.288         	3.533          	3.017
MS.289         	3.525          	2.892
MS.290         	3.517          	2.877
MS.291         	3.51           	2.875
MS.292         	3.502          	2.773
MS.293         	3.497          	2.789
MS.294         	3.49           	2.794
MS.295         	3.482          	2.73
MS.296         	3.475          	2.656
MS.297         	3.467          	2.592
MS.298         	3.462          	2.704
MS.299         	3.455          	2.654
MS.300         	3.447          	2.651
MS.301         	3.44           	2.566
MS.302         	3.435          	2.589
MS.303         	3.428          	2.595
MS.304         	3.42           	2.557
MS.305         	3.412          	2.632
MS.306         	3.408          	2.617
MS.307         	3.4            	2.582
MS.308         	3.392          	2.608
MS.309         	3.387          	2.531
MS.310         	3.38           	2.478
MS.311         	3.372          	2.46
MS.312         	3.365          	2.413
MS.313         	3.36           	2.446
MS.314         	3.352          	2.399
MS.315         	3.345          	2.435
MS.316         	3.34           	2.429
MS.317         	3.332          	2.424
MS.318         	3.325          	2.411
MS.319         	3.32           	2.377
MS.320         	3.312          	2.356
MS.321         	3.305          	2.384
MS.322         	3.3            	2.316
MS.323         	3.293          	2.239
MS.324         	3.287          	2.369
MS.325         	3.28           	2.194
MS.326         	3.273          	2.337
MS.327         	3.267          	2.233
MS.328         	3.26           	2.209
MS.329         	3.252          	2.128
MS.330         	3.247          	2.317
MS.331         	3.24           	2.258
MS.332         	3.235          	2.2
MS.333         	3.227          	2.158
MS.334         	3.22           	2.012
MS.335         	3.215          	2.037
MS.336         	3.207          	2.138
MS.337         	3.202          	2.025
MS.338         	3.195          	2.137
MS.339         	3.19           	1.987
MS.340         	3.182          	1.912
MS.341         	3.178          	1.874
MS.342         	3.17           	2.014
MS.343         	3.165          	1.73
MS.344         	3.158          	1.765
MS.345         	3.15           	1.775
MS.346         	3.145          	1.741
MS.347         	3.138          	1.845
MS.348         	3.132          	1.617
MS.349         	3.125          	1.739
MS.350         	3.12           	1.784
MS.351         	3.112          	1.666
MS.352         	3.107          	1.526
MS.353         	3.1            	1.605
MS.354         	3.095          	1.635
MS.355         	3.087          	1.432
MS.356         	3.082          	1.569
MS.357         	3.077          	1.481
MS.358         	3.07           	1.511
MS.359         	3.065          	1.332
MS.360         	3.057          	1.331
MS.361         	3.053          	1.357
MS.362         	3.045          	1.531
MS.363         	3.04           	1.373
MS.364         	3.033          	1.331
MS.365         	3.027          	1.27
MS.366         	3.023          	1.247
MS.367         	3.015          	1.213
MS.368         	3.01           	1.068
MS.369         	3.002          	1.155
MS.370         	2.997          	1.178
MS.371         	2.992          	1.169
MS.372         	2.985          	1.024
MS.373         	2.98           	1.089
MS.374         	2.972          	1.033
MS.375         	2.967          	1
MS.376         	2.962          	0.955
MS.377         	2.955          	1.068
MS.378         	2.95           	0.905
MS.379         	2.945          	0.874
MS.380         	2.938          	0.974
MS.381         	2.932          	0.964
MS.382         	2.928          	0.837
MS.383         	2.92           	0.899
MS.384         	2.915          	0.898
MS.385         	2.91           	0.739
MS.386         	2.902          	0.641
MS.387         	2.898          	0.72
MS.388         	2.892          	0.76
MS.389         	2.885          	0.588
MS.390         	2.88           	0.619
MS.391         	2.875          	0.77
MS.392         	2.867          	0.62
MS.393         	2.862          	0.523
MS.394         	2.857          	0.463
MS.395         	2.852          	0.531
MS.396         	2.845          	0.485
MS.397         	2.84           	0.508
MS.398         	2.835          	0.569
MS.399         	2.827          	0.37
MS.400         	2.822          	0.433
MS.401         	2.817          	0.482
MS.402         	2.812          	0.415
MS.403         	2.805          	0.414
MS.404         	2.8            	0.425
MS.405         	2.795          	0.339
MS.406         	2.79           	0.405
MS.407         	2.783          	0.281
MS.408         	2.777          	0.29
MS.409         	2.773          	0.281
MS.410         	2.767          	0.389
MS.411         	2.763          	0.327
MS.412         	2.755          	0.242
MS.413         	2.75           	0.177
MS.414         	2.745          	0.304
MS.415         	2.74           	0.222
MS.416         	2.735          	0.228
MS.417         	2.727          	0.203
MS.418         	2.722          	0.104
MS.419         	2.717          	0.099
MS.420         	2.712          	0.074
MS.421         	2.707          	0.148
MS.422         	2.702          	0.08
MS.423         	2.695          	0.132
MS.424         	2.69           	0.092
MS.425         	2.685          	0.045
MS.426         	2.68           	0.211
MS.427         	2.675          	0.088
MS.428         	2.67           	0.059
MS.429         	2.665          	0.056
MS.430         	2.658          	0.03
MS.431         	2.652          	-0.051
MS.432         	2.648          	0.024
MS.433         	2.642          	0.042
MS.434         	2.638          	-0.037
MS.435         	2.632          	0.000
MS.436         	2.628          	-0.101
MS.437         	2.622          	-0.061
MS.438         	2.617          	-0.087
MS.439         	2.61           	-0.138
MS.440         	2.605          	-0.098
MS.441         	2.6            	-0.09
MS.442         	2.595          	-0.143
MS.443         	2.59           	-0.003
MS.444         	2.585          	-0.123
MS.445         	2.58           	-0.099
MS.446         	2.575          	-0.127
MS.447         	2.57           	-0.14
MS.448         	2.565          	-0.163
MS.449         	2.56           	-0.157
MS.450         	2.555          	-0.175
MS.451         	2.55           	-0.204
MS.452         	2.545          	-0.15
MS.453         	2.54           	-0.082
MS.454         	2.535          	-0.178
MS.455         	2.53           	-0.228
MS.456         	2.525          	-0.159
MS.457         	2.517          	-0.202
MS.458         	2.513          	-0.135
MS.459         	2.507          	-0.179
MS.460         	2.503          	-0.255
MS.461         	2.497          	-0.184
MS.462         	2.492          	-0.261
MS.463         	2.487          	-0.228
MS.464         	2.482          	-0.181
MS.465         	2.48           	-0.247
MS.466         	2.475          	-0.223
MS.467         	2.47           	-0.223
MS.468         	2.465          	-0.188
MS.469         	2.46           	-0.177
MS.470         	2.455          	-0.283
MS.471         	2.45           	-0.228
MS.472         	2.445          	-0.253
MS.473         	2.44           	-0.262
MS.474         	2.435          	-0.275
MS.475         	2.43           	-0.333
MS.476         	2.425          	-0.248
MS.477         	2.42           	-0.265
MS.478         	2.415          	-0.245
MS.479         	2.41           	-0.265
MS.480         	2.405          	-0.264
MS.481         	2.4            	-0.261
MS.482         	2.395          	-0.226
MS.483         	2.39           	-0.21
MS.484         	2.388          	-0.22
MS.485         	2.382          	-0.284
MS.486         	2.378          	-0.245
MS.487         	2.372          	-0.289
MS.488         	2.367          	-0.289
MS.489         	2.362          	-0.314
MS.490         	2.357          	-0.273
MS.491         	2.352          	-0.31
MS.492         	2.347          	-0.256
MS.493         	2.345          	-0.247
MS.494         	2.34           	-0.305
MS.495         	2.335          	-0.274
MS.496         	2.33           	-0.278
MS.497         	2.325          	-0.283
MS.498         	2.32           	-0.255
MS.499         	2.315          	-0.269
MS.500         	2.31           	-0.289
MS.501         	2.307          	-0.276
