File:              	C:\Qtrac\Data\ME2C30621A.QZD
Name:              	 RO11A
Protocol:          	MSCAN-MV
Date:              	21/6/23
Date of birth:     	11/8/01
Age:               	21
Sex:               	F
Temperature:       	33.0
S/R sites:         	Knee CF-TA
NC/disease:        	NC
Operator:          	BY
Comments:
M-SCAN DATA (Repeat 2/4, 18-12m)
Scanpts: 11, 23, 449, 493
Stim. (mA)     	Amp. (mV)
MS.1           	22.5           	7.297
MS.2           	22.5           	7.311
MS.3           	22.5           	7.298
MS.4           	22.5           	7.309
MS.5           	22.5           	7.318
MS.6           	22.5           	7.321
MS.7           	22.5           	7.293
MS.8           	22.5           	7.312
MS.9           	22.5           	7.338
MS.10          	22.5           	7.308
MS.11          	22.5           	7.312
MS.12          	22.5           	7.343
MS.13          	22.5           	7.363
MS.14          	22.5           	7.338
MS.15          	22.5           	7.332
MS.16          	22.5           	7.359
MS.17          	22.5           	7.339
MS.18          	22.5           	7.324
MS.19          	22.5           	7.347
MS.20          	22.5           	7.33
MS.21          	22.5           	7.35
MS.22          	22.5           	7.282
MS.23          	22.5           	7.337
MS.24          	22.455         	7.292
MS.25          	22.41          	7.322
MS.26          	22.365         	7.338
MS.27          	22.32          	7.376
MS.28          	22.275         	7.344
MS.29          	22.233         	7.364
MS.30          	22.188         	7.342
MS.31          	22.142         	7.346
MS.32          	22.097         	7.292
MS.33          	22.055         	7.378
MS.34          	22.01          	7.319
MS.35          	21.967         	7.296
MS.36          	21.922         	7.225
MS.37          	21.877         	7.267
MS.38          	21.835         	7.31
MS.39          	21.792         	7.28
MS.40          	21.747         	7.192
MS.41          	21.705         	7.382
MS.42          	21.66          	7.293
MS.43          	21.618         	7.324
MS.44          	21.575         	7.29
MS.45          	21.532         	7.205
MS.46          	21.487         	7.238
MS.47          	21.445         	7.196
MS.48          	21.403         	7.212
MS.49          	21.36          	7.191
MS.50          	21.317         	7.23
MS.51          	21.275         	7.195
MS.52          	21.233         	7.171
MS.53          	21.19          	7.188
MS.54          	21.147         	7.183
MS.55          	21.105         	7.187
MS.56          	21.062         	7.164
MS.57          	21.02          	7.201
MS.58          	20.98          	7.234
MS.59          	20.938         	7.202
MS.60          	20.895         	7.162
MS.61          	20.852         	7.155
MS.62          	20.812         	7.184
MS.63          	20.77          	7.169
MS.64          	20.727         	7.209
MS.65          	20.688         	7.156
MS.66          	20.645         	7.255
MS.67          	20.605         	7.148
MS.68          	20.562         	7.083
MS.69          	20.522         	7.176
MS.70          	20.483         	7.042
MS.71          	20.44          	7.09
MS.72          	20.4           	7.004
MS.73          	20.36          	7.059
MS.74          	20.317         	7.145
MS.75          	20.278         	7.099
MS.76          	20.237         	7.034
MS.77          	20.198         	7.151
MS.78          	20.157         	7.078
MS.79          	20.115         	7.147
MS.80          	20.075         	7.151
MS.81          	20.035         	6.98
MS.82          	19.995         	6.968
MS.83          	19.955         	7.016
MS.84          	19.915         	6.941
MS.85          	19.875         	6.924
MS.86          	19.837         	6.99
MS.87          	19.797         	6.952
MS.88          	19.757         	7.032
MS.89          	19.717         	7.026
MS.90          	19.677         	6.958
MS.91          	19.64          	7.019
MS.92          	19.6           	6.863
MS.93          	19.56          	6.819
MS.94          	19.522         	6.898
MS.95          	19.483         	6.931
MS.96          	19.442         	6.928
MS.97          	19.405         	6.946
MS.98          	19.365         	6.537
MS.99          	19.327         	6.967
MS.100         	19.288         	6.888
MS.101         	19.25          	6.859
MS.102         	19.212         	6.875
MS.103         	19.172         	6.784
MS.104         	19.135         	6.949
MS.105         	19.097         	6.887
MS.106         	19.057         	6.65
MS.107         	19.02          	6.66
MS.108         	18.983         	6.803
MS.109         	18.945         	6.742
MS.110         	18.907         	6.642
MS.111         	18.87          	6.542
MS.112         	18.83          	6.454
MS.113         	18.792         	6.527
MS.114         	18.755         	6.584
MS.115         	18.717         	6.429
MS.116         	18.68          	6.357
MS.117         	18.645         	6.35
MS.118         	18.608         	6.493
MS.119         	18.57          	6.404
MS.120         	18.532         	6.32
MS.121         	18.495         	6.271
MS.122         	18.458         	6.107
MS.123         	18.422         	6.199
MS.124         	18.385         	6.008
MS.125         	18.347         	5.921
MS.126         	18.312         	6.017
MS.127         	18.275         	6.125
MS.128         	18.237         	5.959
MS.129         	18.202         	5.815
MS.130         	18.165         	6.061
MS.131         	18.13          	5.803
MS.132         	18.092         	5.92
MS.133         	18.057         	5.932
MS.134         	18.02          	5.994
MS.135         	17.985         	5.917
MS.136         	17.948         	5.795
MS.137         	17.913         	5.826
MS.138         	17.878         	5.714
MS.139         	17.842         	5.629
MS.140         	17.805         	5.603
MS.141         	17.77          	5.767
MS.142         	17.735         	5.551
MS.143         	17.7           	5.407
MS.144         	17.665         	5.46
MS.145         	17.628         	5.516
MS.146         	17.592         	5.409
MS.147         	17.557         	5.401
MS.148         	17.522         	5.516
MS.149         	17.487         	5.443
MS.150         	17.452         	5.428
MS.151         	17.417         	5.369
MS.152         	17.382         	5.133
MS.153         	17.347         	5.151
MS.154         	17.315         	5.156
MS.155         	17.28          	5.179
MS.156         	17.245         	5.074
MS.157         	17.21          	5.24
MS.158         	17.175         	4.96
MS.159         	17.142         	5.064
MS.160         	17.108         	5.04
MS.161         	17.073         	5.013
MS.162         	17.04          	4.962
MS.163         	17.005         	5.125
MS.164         	16.97          	5.012
MS.165         	16.938         	5.157
MS.166         	16.903         	4.904
MS.167         	16.87          	4.928
MS.168         	16.835         	4.877
MS.169         	16.802         	4.932
MS.170         	16.767         	4.906
MS.171         	16.735         	4.854
MS.172         	16.702         	4.927
MS.173         	16.667         	4.899
MS.174         	16.635         	4.976
MS.175         	16.602         	4.954
MS.176         	16.567         	4.81
MS.177         	16.535         	4.899
MS.178         	16.503         	4.679
MS.179         	16.47          	4.78
MS.180         	16.438         	4.767
MS.181         	16.405         	4.763
MS.182         	16.37          	4.733
MS.183         	16.337         	4.645
MS.184         	16.305         	4.818
MS.185         	16.272         	4.76
MS.186         	16.24          	4.59
MS.187         	16.208         	4.59
MS.188         	16.175         	4.735
MS.189         	16.142         	4.506
MS.190         	16.11          	4.591
MS.191         	16.08          	4.677
MS.192         	16.047         	4.556
MS.193         	16.015         	4.742
MS.194         	15.983         	4.416
MS.195         	15.95          	4.656
MS.196         	15.92          	4.581
MS.197         	15.887         	4.542
MS.198         	15.855         	4.472
MS.199         	15.825         	4.365
MS.200         	15.792         	4.419
MS.201         	15.76          	4.417
MS.202         	15.73          	4.363
MS.203         	15.697         	4.349
MS.204         	15.667         	4.124
MS.205         	15.635         	4.197
MS.206         	15.605         	4.257
MS.207         	15.572         	4.094
MS.208         	15.542         	4.419
MS.209         	15.51          	4.086
MS.210         	15.48          	4.186
MS.211         	15.447         	4.254
MS.212         	15.417         	4.153
MS.213         	15.387         	4.172
MS.214         	15.355         	4.019
MS.215         	15.325         	3.826
MS.216         	15.295         	4.137
MS.217         	15.265         	3.958
MS.218         	15.235         	4.136
MS.219         	15.202         	3.982
MS.220         	15.172         	3.668
MS.221         	15.142         	3.682
MS.222         	15.112         	3.713
MS.223         	15.082         	3.577
MS.224         	15.052         	3.73
MS.225         	15.023         	3.486
MS.226         	14.992         	3.653
MS.227         	14.962         	3.511
MS.228         	14.932         	3.513
MS.229         	14.902         	3.559
MS.230         	14.872         	3.531
MS.231         	14.842         	3.437
MS.232         	14.812         	3.405
MS.233         	14.782         	3.219
MS.234         	14.755         	3.445
MS.235         	14.725         	3.419
MS.236         	14.695         	3.167
MS.237         	14.665         	3.41
MS.238         	14.637         	3.154
MS.239         	14.608         	3.035
MS.240         	14.577         	3.071
MS.241         	14.55          	3.164
MS.242         	14.52          	3.221
MS.243         	14.49          	3.113
MS.244         	14.462         	2.959
MS.245         	14.432         	2.769
MS.246         	14.405         	2.927
MS.247         	14.375         	2.836
MS.248         	14.347         	2.896
MS.249         	14.318         	3.141
MS.250         	14.29          	2.707
MS.251         	14.26          	2.693
MS.252         	14.233         	2.551
MS.253         	14.205         	2.787
MS.254         	14.175         	2.524
MS.255         	14.148         	2.466
MS.256         	14.12          	2.473
MS.257         	14.09          	2.424
MS.258         	14.062         	2.345
MS.259         	14.035         	2.423
MS.260         	14.007         	2.13
MS.261         	13.977         	2.279
MS.262         	13.95          	2.344
MS.263         	13.922         	2.249
MS.264         	13.895         	2.216
MS.265         	13.867         	2.191
MS.266         	13.84          	2.238
MS.267         	13.812         	2.093
MS.268         	13.785         	2.076
MS.269         	13.757         	2.118
MS.270         	13.73          	1.877
MS.271         	13.702         	1.898
MS.272         	13.675         	1.921
MS.273         	13.648         	1.887
MS.274         	13.62          	1.908
MS.275         	13.592         	1.823
MS.276         	13.565         	1.63
MS.277         	13.537         	1.811
MS.278         	13.51          	1.791
MS.279         	13.485         	1.746
MS.280         	13.457         	1.716
MS.281         	13.43          	1.713
MS.282         	13.403         	1.641
MS.283         	13.377         	1.567
MS.284         	13.35          	1.675
MS.285         	13.322         	1.526
MS.286         	13.297         	1.456
MS.287         	13.27          	1.425
MS.288         	13.242         	1.295
MS.289         	13.217         	1.407
MS.290         	13.19          	1.329
MS.291         	13.165         	1.395
MS.292         	13.137         	1.194
MS.293         	13.112         	1.47
MS.294         	13.085         	1.252
MS.295         	13.06          	1.232
MS.296         	13.032         	1.277
MS.297         	13.007         	1.277
MS.298         	12.983         	1.281
MS.299         	12.955         	1.236
MS.300         	12.93          	1.211
MS.301         	12.903         	1.05
MS.302         	12.877         	1.078
MS.303         	12.852         	1.022
MS.304         	12.827         	0.952
MS.305         	12.8           	0.892
MS.306         	12.775         	0.962
MS.307         	12.75          	1.041
MS.308         	12.725         	1.081
MS.309         	12.7           	0.997
MS.310         	12.672         	0.994
MS.311         	12.648         	0.961
MS.312         	12.622         	0.997
MS.313         	12.597         	0.825
MS.314         	12.572         	0.854
MS.315         	12.547         	0.919
MS.316         	12.523         	0.837
MS.317         	12.497         	0.878
MS.318         	12.472         	0.807
MS.319         	12.447         	0.649
MS.320         	12.422         	0.741
MS.321         	12.398         	0.686
MS.322         	12.372         	0.703
MS.323         	12.347         	0.765
MS.324         	12.322         	0.707
MS.325         	12.3           	0.688
MS.326         	12.275         	0.564
MS.327         	12.25          	0.697
MS.328         	12.225         	0.583
MS.329         	12.2           	0.566
MS.330         	12.177         	0.678
MS.331         	12.153         	0.717
MS.332         	12.127         	0.502
MS.333         	12.102         	0.617
MS.334         	12.08          	0.613
MS.335         	12.055         	0.471
MS.336         	12.032         	0.59
MS.337         	12.007         	0.439
MS.338         	11.983         	0.502
MS.339         	11.96          	0.388
MS.340         	11.935         	0.602
MS.341         	11.912         	0.53
MS.342         	11.887         	0.477
MS.343         	11.865         	0.344
MS.344         	11.84          	0.322
MS.345         	11.818         	0.52
MS.346         	11.792         	0.438
MS.347         	11.77          	0.422
MS.348         	11.745         	0.458
MS.349         	11.722         	0.33
MS.350         	11.7           	0.446
MS.351         	11.675         	0.427
MS.352         	11.653         	0.298
MS.353         	11.63          	0.365
MS.354         	11.605         	0.371
MS.355         	11.582         	0.303
MS.356         	11.56          	0.285
MS.357         	11.537         	0.27
MS.358         	11.512         	0.282
MS.359         	11.49          	0.294
MS.360         	11.467         	0.292
MS.361         	11.445         	0.25
MS.362         	11.422         	0.329
MS.363         	11.4           	0.281
MS.364         	11.375         	0.255
MS.365         	11.352         	0.262
MS.366         	11.33          	0.247
MS.367         	11.307         	0.253
MS.368         	11.285         	0.247
MS.369         	11.262         	0.234
MS.370         	11.24          	0.335
MS.371         	11.217         	0.23
MS.372         	11.195         	0.188
MS.373         	11.172         	0.204
MS.374         	11.15          	0.278
MS.375         	11.127         	0.197
MS.376         	11.108         	0.226
MS.377         	11.085         	0.184
MS.378         	11.062         	0.214
MS.379         	11.04          	0.187
MS.380         	11.017         	0.186
MS.381         	10.995         	0.191
MS.382         	10.975         	0.195
MS.383         	10.952         	0.219
MS.384         	10.93          	0.237
MS.385         	10.907         	0.168
MS.386         	10.887         	0.185
MS.387         	10.865         	0.173
MS.388         	10.842         	0.206
MS.389         	10.823         	0.179
MS.390         	10.8           	0.179
MS.391         	10.778         	0.164
MS.392         	10.757         	0.184
MS.393         	10.735         	0.175
MS.394         	10.712         	0.206
MS.395         	10.693         	0.201
MS.396         	10.67          	0.171
MS.397         	10.65          	0.157
MS.398         	10.627         	0.166
MS.399         	10.608         	0.173
MS.400         	10.585         	0.161
MS.401         	10.565         	0.17
MS.402         	10.542         	0.167
MS.403         	10.523         	0.161
MS.404         	10.502         	0.164
MS.405         	10.48          	0.151
MS.406         	10.46          	0.162
MS.407         	10.438         	0.159
MS.408         	10.417         	0.165
MS.409         	10.398         	0.139
MS.410         	10.375         	0.161
MS.411         	10.355         	0.142
MS.412         	10.335         	0.139
MS.413         	10.315         	0.154
MS.414         	10.292         	0.145
MS.415         	10.273         	0.138
MS.416         	10.252         	0.148
MS.417         	10.233         	0.14
MS.418         	10.212         	0.153
MS.419         	10.19          	0.15
MS.420         	10.17          	0.156
MS.421         	10.15          	0.135
MS.422         	10.13          	0.144
MS.423         	10.11          	0.146
MS.424         	10.09          	0.134
MS.425         	10.07          	0.144
MS.426         	10.05          	0.134
MS.427         	10.03          	0.133
MS.428         	10.01          	0.134
MS.429         	9.99           	0.148
MS.430         	9.97           	0.134
MS.431         	9.95           	0.132
MS.432         	9.93           	0.15
MS.433         	9.91           	0.132
MS.434         	9.89           	0.148
MS.435         	9.87           	0.132
MS.436         	9.85           	0.133
MS.437         	9.83           	0.13
MS.438         	9.81           	0.129
MS.439         	9.792          	0.132
MS.440         	9.773          	0.132
MS.441         	9.752          	0.129
MS.442         	9.733          	0.135
MS.443         	9.712          	0.128
MS.444         	9.695          	0.131
MS.445         	9.675          	0.131
MS.446         	9.655          	0.128
MS.447         	9.635          	0.129
MS.448         	9.617          	0.129
MS.449         	9.597          	0.128
MS.450         	9.577          	0.128
MS.451         	9.56           	0.128
MS.452         	9.54           	0.128
MS.453         	9.52           	0.126
MS.454         	9.502          	0.126
MS.455         	9.483          	0.126
MS.456         	9.465          	0.127
MS.457         	9.445          	0.127
MS.458         	9.427          	0.125
MS.459         	9.407          	0.125
MS.460         	9.39           	0.125
MS.461         	9.37           	0.129
MS.462         	9.352          	0.128
MS.463         	9.332          	0.126
MS.464         	9.315          	0.126
MS.465         	9.295          	0.125
MS.466         	9.278          	0.124
MS.467         	9.257          	0.125
MS.468         	9.24           	0.124
MS.469         	9.222          	0.122
MS.470         	9.202          	0.124
MS.471         	9.185          	0.123
MS.472         	9.165          	0.122
MS.473         	9.148          	0.124
MS.474         	9.13           	0.122
MS.475         	9.113          	0.123
MS.476         	9.092          	0.124
MS.477         	9.075          	0.124
MS.478         	9.057          	0.122
MS.479         	9.037          	0.119
MS.480         	9.02           	0.12
MS.481         	9.002          	0.12
MS.482         	8.985          	0.12
MS.483         	8.967          	0.122
MS.484         	8.95           	0.121
MS.485         	8.93           	0.121
MS.486         	8.912          	0.12
MS.487         	8.895          	0.117
MS.488         	8.877          	0.118
MS.489         	8.86           	0.118
MS.490         	8.842          	0.118
MS.491         	8.825          	0.12
MS.492         	8.807          	0.118
MS.493         	8.79           	0.118
MS.494         	8.773          	0.114
MS.495         	8.755          	0.118
DERIVED EXCITABILITY VARIABLES
Program = QTracP 05/05/2023
Threshold method = 6 (optimised for CAP, using data for present condition only)
SR method = 1 (using actual data values)
6.                 	0.000               	Peak response\(mV)
9.                 	33                  	Temperature ( C)
