File:              	C:\Qtrac\Data\ME2C30627A.QZD
Name:              	 ME22I
Protocol:          	MSCAN-MV
Date:              	27/6/23
Date of birth:     	22/2/02
Age:               	21
Sex:               	M
Temperature:       	33.5
S/R sites:         	Knee CF-TA
NC/disease:        	NC
Operator:          	BY
Comments:
M-SCAN DATA (Repeat 1/4, 10.5-3.2m)
Scanpts: 8, 23, 516, 531
Stim. (mA)     	Amp. (mV)
MS.1           	13             	7.572
MS.2           	13             	7.574
MS.3           	13             	7.581
MS.4           	13             	7.59
MS.5           	13             	7.673
MS.6           	13             	7.684
MS.7           	13             	7.674
MS.8           	13             	7.617
MS.9           	13             	7.632
MS.10          	13             	7.646
MS.11          	13             	7.597
MS.12          	13             	7.586
MS.13          	13             	7.645
MS.14          	13             	7.599
MS.15          	13             	7.62
MS.16          	13             	7.587
MS.17          	13             	7.589
MS.18          	13             	7.573
MS.19          	13             	7.637
MS.20          	13             	7.637
MS.21          	13             	7.64
MS.22          	13             	7.58
MS.23          	13             	7.634
MS.24          	12.947         	7.632
MS.25          	12.922         	7.621
MS.26          	12.898         	7.647
MS.27          	12.87          	7.619
MS.28          	12.845         	7.608
MS.29          	12.82          	7.582
MS.30          	12.792         	7.565
MS.31          	12.767         	7.568
MS.32          	12.742         	7.589
MS.33          	12.717         	7.546
MS.34          	12.693         	7.555
MS.35          	12.667         	7.596
MS.36          	12.64          	7.577
MS.37          	12.615         	7.548
MS.38          	12.59          	7.559
MS.39          	12.565         	7.579
MS.40          	12.54          	7.552
MS.41          	12.515         	7.538
MS.42          	12.49          	7.519
MS.43          	12.465         	7.551
MS.44          	12.44          	7.468
MS.45          	12.415         	7.521
MS.46          	12.39          	7.548
MS.47          	12.365         	7.572
MS.48          	12.34          	7.462
MS.49          	12.318         	7.53
MS.50          	12.292         	7.553
MS.51          	12.267         	7.507
MS.52          	12.242         	7.559
MS.53          	12.217         	7.492
MS.54          	12.195         	7.51
MS.55          	12.17          	7.498
MS.56          	12.145         	7.531
MS.57          	12.12          	7.52
MS.58          	12.097         	7.526
MS.59          	12.072         	7.51
MS.60          	12.047         	7.487
MS.61          	12.025         	7.51
MS.62          	12             	7.558
MS.63          	11.977         	7.462
MS.64          	11.952         	7.473
MS.65          	11.927         	7.515
MS.66          	11.905         	7.466
MS.67          	11.88          	7.505
MS.68          	11.858         	7.529
MS.69          	11.832         	7.473
MS.70          	11.81          	7.509
MS.71          	11.787         	7.488
MS.72          	11.762         	7.503
MS.73          	11.74          	7.446
MS.74          	11.715         	7.438
MS.75          	11.693         	7.537
MS.76          	11.67          	7.454
MS.77          	11.645         	7.521
MS.78          	11.622         	7.501
MS.79          	11.6           	7.488
MS.80          	11.575         	7.473
MS.81          	11.552         	7.532
MS.82          	11.53          	7.406
MS.83          	11.507         	7.428
MS.84          	11.485         	7.478
MS.85          	11.46          	7.4
MS.86          	11.438         	7.477
MS.87          	11.415         	7.476
MS.88          	11.392         	7.429
MS.89          	11.37          	7.494
MS.90          	11.347         	7.479
MS.91          	11.325         	7.509
MS.92          	11.302         	7.486
MS.93          	11.28          	7.502
MS.94          	11.257         	7.375
MS.95          	11.235         	7.473
MS.96          	11.212         	7.421
MS.97          	11.19          	7.411
MS.98          	11.167         	7.438
MS.99          	11.145         	7.435
MS.100         	11.122         	7.407
MS.101         	11.1           	7.446
MS.102         	11.077         	7.433
MS.103         	11.055         	7.473
MS.104         	11.032         	7.411
MS.105         	11.012         	7.47
MS.106         	10.99          	7.39
MS.107         	10.967         	7.402
MS.108         	10.945         	7.461
MS.109         	10.925         	7.366
MS.110         	10.903         	7.392
MS.111         	10.88          	7.372
MS.112         	10.858         	7.402
MS.113         	10.837         	7.386
MS.114         	10.815         	7.352
MS.115         	10.792         	7.349
MS.116         	10.773         	7.311
MS.117         	10.75          	7.332
MS.118         	10.73          	7.359
MS.119         	10.707         	7.299
MS.120         	10.685         	7.264
MS.121         	10.665         	7.354
MS.122         	10.642         	7.326
MS.123         	10.622         	7.296
MS.124         	10.6           	7.296
MS.125         	10.58          	7.303
MS.126         	10.557         	7.308
MS.127         	10.537         	7.34
MS.128         	10.517         	7.282
MS.129         	10.495         	7.274
MS.130         	10.475         	7.272
MS.131         	10.452         	7.186
MS.132         	10.432         	7.243
MS.133         	10.412         	7.241
MS.134         	10.39          	7.258
MS.135         	10.37          	7.238
MS.136         	10.35          	7.251
MS.137         	10.33          	7.192
MS.138         	10.307         	7.214
MS.139         	10.287         	7.14
MS.140         	10.267         	7.077
MS.141         	10.247         	7.091
MS.142         	10.225         	7.151
MS.143         	10.205         	7.067
MS.144         	10.185         	7.092
MS.145         	10.165         	7.103
MS.146         	10.145         	7.046
MS.147         	10.125         	7.144
MS.148         	10.105         	7.045
MS.149         	10.085         	7.122
MS.150         	10.065         	7.145
MS.151         	10.042         	7.051
MS.152         	10.023         	7.021
MS.153         	10.002         	6.951
MS.154         	9.983          	7.014
MS.155         	9.962          	6.967
MS.156         	9.945          	6.98
MS.157         	9.925          	6.967
MS.158         	9.905          	6.966
MS.159         	9.885          	7.003
MS.160         	9.865          	6.944
MS.161         	9.845          	6.98
MS.162         	9.825          	6.964
MS.163         	9.805          	6.902
MS.164         	9.785          	6.851
MS.165         	9.767          	6.99
MS.166         	9.747          	6.877
MS.167         	9.727          	6.951
MS.168         	9.707          	6.985
MS.169         	9.688          	6.849
MS.170         	9.67           	6.805
MS.171         	9.65           	6.829
MS.172         	9.63           	6.831
MS.173         	9.613          	6.75
MS.174         	9.592          	6.874
MS.175         	9.573          	6.688
MS.176         	9.555          	6.772
MS.177         	9.535          	6.666
MS.178         	9.515          	6.631
MS.179         	9.497          	6.678
MS.180         	9.477          	6.598
MS.181         	9.46           	6.663
MS.182         	9.44           	6.556
MS.183         	9.42           	6.68
MS.184         	9.403          	6.506
MS.185         	9.382          	6.523
MS.186         	9.365          	6.548
MS.187         	9.345          	6.485
MS.188         	9.327          	6.519
MS.189         	9.307          	6.548
MS.190         	9.29           	6.548
MS.191         	9.273          	6.605
MS.192         	9.252          	6.447
MS.193         	9.235          	6.354
MS.194         	9.215          	6.238
MS.195         	9.198          	6.36
MS.196         	9.18           	6.459
MS.197         	9.16           	6.226
MS.198         	9.142          	6.273
MS.199         	9.125          	6.294
MS.200         	9.105          	6.235
MS.201         	9.087          	6.275
MS.202         	9.07           	6.121
MS.203         	9.052          	6.191
MS.204         	9.033          	6.142
MS.205         	9.015          	6.201
MS.206         	8.997          	6.075
MS.207         	8.98           	5.966
MS.208         	8.962          	6.006
MS.209         	8.943          	5.987
MS.210         	8.925          	5.922
MS.211         	8.908          	5.966
MS.212         	8.89           	5.889
MS.213         	8.872          	5.926
MS.214         	8.855          	5.905
MS.215         	8.837          	5.851
MS.216         	8.82           	5.795
MS.217         	8.802          	5.784
MS.218         	8.785          	5.774
MS.219         	8.767          	5.708
MS.220         	8.75           	5.82
MS.221         	8.733          	5.72
MS.222         	8.715          	5.758
MS.223         	8.698          	5.635
MS.224         	8.68           	5.653
MS.225         	8.662          	5.606
MS.226         	8.645          	5.617
MS.227         	8.627          	5.634
MS.228         	8.61           	5.569
MS.229         	8.592          	5.601
MS.230         	8.575          	5.634
MS.231         	8.557          	5.5
MS.232         	8.542          	5.564
MS.233         	8.525          	5.538
MS.234         	8.507          	5.376
MS.235         	8.49           	5.493
MS.236         	8.472          	5.383
MS.237         	8.457          	5.392
MS.238         	8.44           	5.419
MS.239         	8.422          	5.417
MS.240         	8.405          	5.35
MS.241         	8.39           	5.375
MS.242         	8.372          	5.267
MS.243         	8.355          	5.251
MS.244         	8.34           	5.31
MS.245         	8.323          	5.314
MS.246         	8.305          	5.458
MS.247         	8.29           	5.224
MS.248         	8.273          	5.229
MS.249         	8.255          	5.244
MS.250         	8.24           	5.101
MS.251         	8.222          	5.181
MS.252         	8.207          	5.156
MS.253         	8.19           	5.167
MS.254         	8.175          	5.015
MS.255         	8.158          	5.106
MS.256         	8.142          	5.073
MS.257         	8.125          	4.921
MS.258         	8.11           	4.95
MS.259         	8.092          	4.924
MS.260         	8.077          	4.918
MS.261         	8.06           	4.966
MS.262         	8.045          	4.924
MS.263         	8.028          	4.865
MS.264         	8.012          	4.772
MS.265         	7.995          	4.837
MS.266         	7.98           	4.799
MS.267         	7.965          	4.772
MS.268         	7.947          	4.688
MS.269         	7.932          	4.694
MS.270         	7.918          	4.708
MS.271         	7.9            	4.656
MS.272         	7.885          	4.564
MS.273         	7.87           	4.561
MS.274         	7.852          	4.215
MS.275         	7.837          	4.287
MS.276         	7.822          	4.478
MS.277         	7.807          	4.256
MS.278         	7.79           	4.227
MS.279         	7.775          	4.257
MS.280         	7.76           	4.122
MS.281         	7.745          	4.076
MS.282         	7.727          	4.216
MS.283         	7.712          	3.99
MS.284         	7.697          	3.901
MS.285         	7.682          	3.925
MS.286         	7.668          	3.858
MS.287         	7.652          	3.853
MS.288         	7.637          	3.904
MS.289         	7.622          	3.956
MS.290         	7.605          	3.785
MS.291         	7.59           	3.68
MS.292         	7.575          	3.547
MS.293         	7.56           	3.755
MS.294         	7.545          	3.569
MS.295         	7.53           	3.465
MS.296         	7.515          	3.583
MS.297         	7.5            	3.488
MS.298         	7.485          	3.578
MS.299         	7.47           	3.199
MS.300         	7.455          	3.183
MS.301         	7.44           	3.245
MS.302         	7.425          	3.217
MS.303         	7.41           	3.13
MS.304         	7.395          	3.051
MS.305         	7.382          	3.06
MS.306         	7.367          	3.071
MS.307         	7.352          	2.786
MS.308         	7.337          	2.823
MS.309         	7.322          	2.7
MS.310         	7.307          	2.783
MS.311         	7.293          	2.771
MS.312         	7.277          	2.862
MS.313         	7.265          	2.66
MS.314         	7.25           	2.629
MS.315         	7.235          	2.637
MS.316         	7.22           	2.583
MS.317         	7.205          	2.502
MS.318         	7.192          	2.415
MS.319         	7.177          	2.399
MS.320         	7.162          	2.386
MS.321         	7.15           	2.358
MS.322         	7.135          	2.319
MS.323         	7.12           	2.147
MS.324         	7.105          	2.225
MS.325         	7.092          	2.217
MS.326         	7.077          	2.164
MS.327         	7.062          	2.148
MS.328         	7.05           	2.195
MS.329         	7.035          	2.214
MS.330         	7.023          	2.185
MS.331         	7.007          	1.998
MS.332         	6.992          	2.104
MS.333         	6.98           	1.992
MS.334         	6.965          	2.219
MS.335         	6.952          	2.025
MS.336         	6.938          	2.13
MS.337         	6.922          	1.944
MS.338         	6.91           	1.823
MS.339         	6.895          	1.97
MS.340         	6.882          	1.855
MS.341         	6.867          	1.756
MS.342         	6.855          	1.524
MS.343         	6.84           	1.639
MS.344         	6.827          	1.548
MS.345         	6.815          	1.422
MS.346         	6.8            	1.594
MS.347         	6.787          	1.553
MS.348         	6.773          	1.459
MS.349         	6.76           	1.453
MS.350         	6.745          	1.395
MS.351         	6.733          	1.288
MS.352         	6.72           	1.185
MS.353         	6.705          	1.103
MS.354         	6.692          	1.071
MS.355         	6.68           	1.166
MS.356         	6.665          	1.23
MS.357         	6.652          	1.126
MS.358         	6.64           	1.21
MS.359         	6.625          	1.11
MS.360         	6.612          	1.106
MS.361         	6.6            	0.957
MS.362         	6.585          	1.163
MS.363         	6.572          	0.923
MS.364         	6.56           	0.91
MS.365         	6.547          	0.888
MS.366         	6.532          	0.908
MS.367         	6.52           	0.729
MS.368         	6.507          	0.859
MS.369         	6.495          	0.824
MS.370         	6.483          	0.782
MS.371         	6.467          	0.862
MS.372         	6.455          	0.697
MS.373         	6.442          	0.71
MS.374         	6.43           	0.587
MS.375         	6.418          	0.663
MS.376         	6.405          	0.757
MS.377         	6.392          	0.594
MS.378         	6.378          	0.565
MS.379         	6.365          	0.583
MS.380         	6.352          	0.54
MS.381         	6.34           	0.479
MS.382         	6.327          	0.483
MS.383         	6.315          	0.491
MS.384         	6.302          	0.562
MS.385         	6.29           	0.441
MS.386         	6.277          	0.462
MS.387         	6.265          	0.346
MS.388         	6.253          	0.414
MS.389         	6.24           	0.449
MS.390         	6.227          	0.502
MS.391         	6.215          	0.372
MS.392         	6.202          	0.2
MS.393         	6.19           	0.433
MS.394         	6.177          	0.2
MS.395         	6.165          	0.302
MS.396         	6.152          	0.123
MS.397         	6.14           	0.05
MS.398         	6.128          	0.055
MS.399         	6.115          	0.137
MS.400         	6.105          	0.071
MS.401         	6.092          	-0.059
MS.402         	6.08           	0.059
MS.403         	6.067          	-0.068
MS.404         	6.055          	-0.038
MS.405         	6.043          	0.018
MS.406         	6.03           	-0.053
MS.407         	6.02           	-0.046
MS.408         	6.007          	-0.129
MS.409         	5.995          	-0.092
MS.410         	5.983          	-0.167
MS.411         	5.97           	-0.199
MS.412         	5.96           	-0.237
MS.413         	5.947          	-0.224
MS.414         	5.935          	-0.251
MS.415         	5.922          	-0.236
MS.416         	5.912          	-0.24
MS.417         	5.9            	-0.242
MS.418         	5.887          	-0.244
MS.419         	5.878          	-0.323
MS.420         	5.865          	-0.366
MS.421         	5.852          	-0.39
MS.422         	5.842          	-0.353
MS.423         	5.83           	-0.346
MS.424         	5.817          	-0.406
MS.425         	5.807          	-0.35
MS.426         	5.795          	-0.446
MS.427         	5.782          	-0.376
MS.428         	5.773          	-0.425
MS.429         	5.76           	-0.413
MS.430         	5.747          	-0.518
MS.431         	5.737          	-0.392
MS.432         	5.725          	-0.504
MS.433         	5.715          	-0.435
MS.434         	5.702          	-0.438
MS.435         	5.692          	-0.493
MS.436         	5.68           	-0.484
MS.437         	5.668          	-0.51
MS.438         	5.657          	-0.473
MS.439         	5.645          	-0.502
MS.440         	5.635          	-0.593
MS.441         	5.622          	-0.576
MS.442         	5.612          	-0.598
MS.443         	5.6            	-0.583
MS.444         	5.59           	-0.648
MS.445         	5.577          	-0.613
MS.446         	5.567          	-0.615
MS.447         	5.557          	-0.62
MS.448         	5.545          	-0.684
MS.449         	5.535          	-0.675
MS.450         	5.523          	-0.649
MS.451         	5.512          	-0.692
MS.452         	5.5            	-0.72
MS.453         	5.49           	-0.688
MS.454         	5.48           	-0.714
MS.455         	5.467          	-0.71
MS.456         	5.457          	-0.721
MS.457         	5.447          	-0.703
MS.458         	5.435          	-0.792
MS.459         	5.425          	-0.776
MS.460         	5.415          	-0.754
MS.461         	5.402          	-0.825
MS.462         	5.392          	-0.815
MS.463         	5.382          	-0.839
MS.464         	5.37           	-0.76
MS.465         	5.36           	-0.853
MS.466         	5.35           	-0.861
MS.467         	5.338          	-0.83
MS.468         	5.327          	-0.818
MS.469         	5.318          	-0.864
MS.470         	5.307          	-0.814
MS.471         	5.295          	-0.829
MS.472         	5.285          	-0.939
MS.473         	5.275          	-0.938
MS.474         	5.265          	-0.825
MS.475         	5.255          	-0.842
MS.476         	5.242          	-0.881
MS.477         	5.233          	-0.894
MS.478         	5.222          	-0.881
MS.479         	5.213          	-0.895
MS.480         	5.202          	-0.956
MS.481         	5.19           	-0.989
MS.482         	5.18           	-0.95
MS.483         	5.17           	-0.932
MS.484         	5.16           	-0.997
MS.485         	5.15           	-1.002
MS.486         	5.14           	-0.94
MS.487         	5.13           	-0.886
MS.488         	5.12           	-1.011
MS.489         	5.108          	-0.925
MS.490         	5.097          	-0.987
MS.491         	5.088          	-0.969
MS.492         	5.077          	-0.961
MS.493         	5.068          	-0.969
MS.494         	5.057          	-0.981
MS.495         	5.047          	-0.939
MS.496         	5.037          	-0.993
MS.497         	5.027          	-1.028
MS.498         	5.017          	-1.016
MS.499         	5.007          	-1.042
MS.500         	4.997          	-1.017
MS.501         	4.987          	-1.025
