File:              	C:\Qtrac\Data\ME2C30612A.QZD
Name:              	 LL19N
Protocol:          	MSCAN-R2
Date:              	12/6/23
Date of birth:     	19/1/96
Age:               	27
Sex:               	M
Temperature:       	31.4
S/R sites:         	Knee CF-TA
NC/disease:        	NC
Operator:          	BY
Comments:
M-SCAN DATA (Repeat 3/3, 35.8-29.5m)
Scanpts: 115, 150, 462, 474
Stim. (mA)     	Amp. (mV)
MS.1           	15             	4.3
MS.2           	15             	4.31
MS.3           	14.97          	4.308
MS.4           	14.94          	4.271
MS.5           	14.91          	4.282
MS.6           	14.88          	4.301
MS.7           	14.85          	4.274
MS.8           	14.82          	4.338
MS.9           	14.792         	4.297
MS.10          	14.762         	4.284
MS.11          	14.733         	4.244
MS.12          	14.702         	4.267
MS.13          	14.672         	4.275
MS.14          	14.645         	4.249
MS.15          	14.615         	4.326
MS.16          	14.585         	4.254
MS.17          	14.557         	4.294
MS.18          	14.527         	4.308
MS.19          	14.497         	4.265
MS.20          	14.47          	4.305
MS.21          	14.44          	4.294
MS.22          	14.412         	4.281
MS.23          	14.382         	4.271
MS.24          	14.355         	4.319
MS.25          	14.325         	4.285
MS.26          	14.297         	4.257
MS.27          	14.267         	4.289
MS.28          	14.24          	4.261
MS.29          	14.212         	4.318
MS.30          	14.182         	4.244
MS.31          	14.155         	4.311
MS.32          	14.127         	4.296
MS.33          	14.097         	4.304
MS.34          	14.07          	4.291
MS.35          	14.042         	4.281
MS.36          	14.015         	4.296
MS.37          	13.985         	4.285
MS.38          	13.957         	4.297
MS.39          	13.93          	4.277
MS.40          	13.903         	4.299
MS.41          	13.875         	4.286
MS.42          	13.847         	4.294
MS.43          	13.82          	4.308
MS.44          	13.792         	4.307
MS.45          	13.765         	4.302
MS.46          	13.737         	4.279
MS.47          	13.71          	4.297
MS.48          	13.682         	4.308
MS.49          	13.655         	4.279
MS.50          	13.627         	4.297
MS.51          	13.6           	4.283
MS.52          	13.572         	4.273
MS.53          	13.545         	4.301
MS.54          	13.517         	4.287
MS.55          	13.492         	4.28
MS.56          	13.465         	4.314
MS.57          	13.438         	4.315
MS.58          	13.41          	4.27
MS.59          	13.385         	4.265
MS.60          	13.358         	4.323
MS.61          	13.33          	4.278
MS.62          	13.305         	4.274
MS.63          	13.278         	4.276
MS.64          	13.25          	4.316
MS.65          	13.225         	4.315
MS.66          	13.197         	4.328
MS.67          	13.172         	4.312
MS.68          	13.145         	4.27
MS.69          	13.12          	4.283
MS.70          	13.092         	4.286
MS.71          	13.068         	4.323
MS.72          	13.04          	4.322
MS.73          	13.015         	4.316
MS.74          	12.987         	4.346
MS.75          	12.962         	4.267
MS.76          	12.938         	4.304
MS.77          	12.91          	4.285
MS.78          	12.885         	4.298
MS.79          	12.86          	4.317
MS.80          	12.832         	4.275
MS.81          	12.807         	4.32
MS.82          	12.782         	4.341
MS.83          	12.757         	4.324
MS.84          	12.73          	4.333
MS.85          	12.705         	4.307
MS.86          	12.68          	4.293
MS.87          	12.655         	4.308
MS.88          	12.63          	4.347
MS.89          	12.605         	4.288
MS.90          	12.58          	4.329
MS.91          	12.555         	4.315
MS.92          	12.53          	4.329
MS.93          	12.505         	4.33
MS.94          	12.48          	4.287
MS.95          	12.455         	4.327
MS.96          	12.43          	4.323
MS.97          	12.405         	4.279
MS.98          	12.38          	4.322
MS.99          	12.355         	4.29
MS.100         	12.33          	4.352
MS.101         	12.305         	4.308
MS.102         	12.28          	4.263
MS.103         	12.257         	4.324
MS.104         	12.233         	4.329
MS.105         	12.207         	4.293
MS.106         	12.182         	4.293
MS.107         	12.16          	4.36
MS.108         	12.135         	4.288
MS.109         	12.11          	4.301
MS.110         	12.085         	4.32
MS.111         	12.062         	4.299
MS.112         	12.037         	4.272
MS.113         	12.012         	4.319
MS.114         	11.99          	4.318
MS.115         	11.965         	4.316
MS.116         	11.943         	4.31
MS.117         	11.917         	4.332
MS.118         	11.895         	4.316
MS.119         	11.87          	4.337
MS.120         	11.847         	4.334
MS.121         	11.822         	4.343
MS.122         	11.8           	4.322
MS.123         	11.775         	4.318
MS.124         	11.752         	4.308
MS.125         	11.73          	4.341
MS.126         	11.705         	4.349
MS.127         	11.682         	4.34
MS.128         	11.657         	4.307
MS.129         	11.635         	4.327
MS.130         	11.613         	4.321
MS.131         	11.59          	4.317
MS.132         	11.565         	4.317
MS.133         	11.542         	4.345
MS.134         	11.52          	4.347
MS.135         	11.497         	4.337
MS.136         	11.472         	4.322
MS.137         	11.45          	4.335
MS.138         	11.427         	4.348
MS.139         	11.405         	4.314
MS.140         	11.382         	4.327
MS.141         	11.36          	4.346
MS.142         	11.337         	4.327
MS.143         	11.315         	4.336
MS.144         	11.292         	4.333
MS.145         	11.27          	4.328
MS.146         	11.247         	4.32
MS.147         	11.225         	4.332
MS.148         	11.202         	4.312
MS.149         	11.18          	4.351
MS.150         	11.157         	4.315
MS.151         	11.135         	4.341
MS.152         	11.113         	4.285
MS.153         	11.09          	4.321
MS.154         	11.068         	4.296
MS.155         	11.045         	4.346
MS.156         	11.023         	4.344
MS.157         	11.002         	4.287
MS.158         	10.98          	4.346
MS.159         	10.957         	4.348
MS.160         	10.935         	4.288
MS.161         	10.915         	4.299
MS.162         	10.892         	4.274
MS.163         	10.87          	4.359
MS.164         	10.85          	4.285
MS.165         	10.827         	4.291
MS.166         	10.805         	4.297
MS.167         	10.785         	4.269
MS.168         	10.762         	4.293
MS.169         	10.74          	4.319
MS.170         	10.72          	4.316
MS.171         	10.698         	4.319
MS.172         	10.677         	4.272
MS.173         	10.655         	4.291
MS.174         	10.635         	4.297
MS.175         	10.613         	4.247
MS.176         	10.592         	4.25
MS.177         	10.57          	4.264
MS.178         	10.55          	4.282
MS.179         	10.528         	4.26
MS.180         	10.507         	4.228
MS.181         	10.485         	4.28
MS.182         	10.465         	4.249
MS.183         	10.445         	4.232
MS.184         	10.422         	4.216
MS.185         	10.403         	4.222
MS.186         	10.382         	4.246
MS.187         	10.36          	4.296
MS.188         	10.34          	4.166
MS.189         	10.32          	4.141
MS.190         	10.3           	4.204
MS.191         	10.278         	4.227
MS.192         	10.257         	4.167
MS.193         	10.238         	4.143
MS.194         	10.217         	4.197
MS.195         	10.198         	4.229
MS.196         	10.175         	4.164
MS.197         	10.155         	4.146
MS.198         	10.135         	4.177
MS.199         	10.115         	4.159
MS.200         	10.095         	4.119
MS.201         	10.075         	4.155
MS.202         	10.055         	4.155
MS.203         	10.035         	4.198
MS.204         	10.015         	4.115
MS.205         	9.995          	4.1
MS.206         	9.975          	4.099
MS.207         	9.955          	4.201
MS.208         	9.935          	4.03
MS.209         	9.915          	4.008
MS.210         	9.895          	4.089
MS.211         	9.875          	4.17
MS.212         	9.855          	4.142
MS.213         	9.835          	4.12
MS.214         	9.818          	4.128
MS.215         	9.797          	4.138
MS.216         	9.778          	4.055
MS.217         	9.757          	4.067
MS.218         	9.738          	4.067
MS.219         	9.717          	4.004
MS.220         	9.7            	4.109
MS.221         	9.68           	4.044
MS.222         	9.66           	4.033
MS.223         	9.64           	4.097
MS.224         	9.622          	3.993
MS.225         	9.602          	4.025
MS.226         	9.582          	4.041
MS.227         	9.565          	4.003
MS.228         	9.545          	3.985
MS.229         	9.525          	3.906
MS.230         	9.507          	3.912
MS.231         	9.488          	3.946
MS.232         	9.47           	3.973
MS.233         	9.45           	3.921
MS.234         	9.432          	3.87
MS.235         	9.412          	3.851
MS.236         	9.395          	3.917
MS.237         	9.375          	3.849
MS.238         	9.358          	3.779
MS.239         	9.337          	3.868
MS.240         	9.32           	3.776
MS.241         	9.3            	3.694
MS.242         	9.283          	3.787
MS.243         	9.262          	3.794
MS.244         	9.245          	3.693
MS.245         	9.225          	3.691
MS.246         	9.207          	3.693
MS.247         	9.19           	3.603
MS.248         	9.17           	3.706
MS.249         	9.153          	3.467
MS.250         	9.135          	3.569
MS.251         	9.115          	3.483
MS.252         	9.097          	3.411
MS.253         	9.08           	3.617
MS.254         	9.062          	3.386
MS.255         	9.042          	3.406
MS.256         	9.025          	3.284
MS.257         	9.007          	3.323
MS.258         	8.99           	3.327
MS.259         	8.972          	3.213
MS.260         	8.952          	3.16
MS.261         	8.935          	3.117
MS.262         	8.917          	3.21
MS.263         	8.9            	3.034
MS.264         	8.882          	3.142
MS.265         	8.865          	3.033
MS.266         	8.847          	3.022
MS.267         	8.83           	3.064
MS.268         	8.812          	2.989
MS.269         	8.795          	2.911
MS.270         	8.778          	2.818
MS.271         	8.757          	2.869
MS.272         	8.74           	2.903
MS.273         	8.725          	2.878
MS.274         	8.707          	2.759
MS.275         	8.69           	2.828
MS.276         	8.672          	2.752
MS.277         	8.655          	2.729
MS.278         	8.637          	2.719
MS.279         	8.62           	2.645
MS.280         	8.602          	2.679
MS.281         	8.585          	2.735
MS.282         	8.568          	2.625
MS.283         	8.55           	2.46
MS.284         	8.535          	2.67
MS.285         	8.517          	2.537
MS.286         	8.5            	2.597
MS.287         	8.483          	2.553
MS.288         	8.465          	2.504
MS.289         	8.45           	2.616
MS.290         	8.432          	2.471
MS.291         	8.415          	2.427
MS.292         	8.398          	2.555
MS.293         	8.382          	2.473
MS.294         	8.365          	2.062
MS.295         	8.347          	2.259
MS.296         	8.332          	2.199
MS.297         	8.315          	2.134
MS.298         	8.297          	2.178
MS.299         	8.283          	2.3
MS.300         	8.265          	2.07
MS.301         	8.247          	2.007
MS.302         	8.233          	2.023
MS.303         	8.215          	1.878
MS.304         	8.2            	1.892
MS.305         	8.182          	2.145
MS.306         	8.167          	1.917
MS.307         	8.15           	1.807
MS.308         	8.135          	1.877
MS.309         	8.117          	1.862
MS.310         	8.102          	1.818
MS.311         	8.085          	1.786
MS.312         	8.07           	1.863
MS.313         	8.052          	1.636
MS.314         	8.037          	1.765
MS.315         	8.02           	1.587
MS.316         	8.005          	1.671
MS.317         	7.99           	1.707
MS.318         	7.972          	1.567
MS.319         	7.957          	1.501
MS.320         	7.94           	1.4
MS.321         	7.925          	1.47
MS.322         	7.91           	1.458
MS.323         	7.892          	1.389
MS.324         	7.878          	1.504
MS.325         	7.862          	1.448
MS.326         	7.847          	1.328
MS.327         	7.83           	1.389
MS.328         	7.815          	1.435
MS.329         	7.8            	1.303
MS.330         	7.785          	1.345
MS.331         	7.767          	1.328
MS.332         	7.753          	1.325
MS.333         	7.737          	1.254
MS.334         	7.722          	1.251
MS.335         	7.707          	1.228
MS.336         	7.69           	1.21
MS.337         	7.675          	1.185
MS.338         	7.66           	1.217
MS.339         	7.645          	1.163
MS.340         	7.63           	1.212
MS.341         	7.615          	1.206
MS.342         	7.6            	1.185
MS.343         	7.585          	1.08
MS.344         	7.57           	1.151
MS.345         	7.555          	1.166
MS.346         	7.537          	1.055
MS.347         	7.523          	1.056
MS.348         	7.507          	0.981
MS.349         	7.492          	1.017
MS.350         	7.477          	0.989
MS.351         	7.462          	0.88
MS.352         	7.45           	1.006
MS.353         	7.435          	0.91
MS.354         	7.42           	0.811
MS.355         	7.405          	0.776
MS.356         	7.39           	0.911
MS.357         	7.375          	1.034
MS.358         	7.36           	0.716
MS.359         	7.345          	0.919
MS.360         	7.33           	0.767
MS.361         	7.315          	0.731
MS.362         	7.302          	0.883
MS.363         	7.287          	0.724
MS.364         	7.273          	0.656
MS.365         	7.257          	0.669
MS.366         	7.242          	0.584
MS.367         	7.227          	0.734
MS.368         	7.215          	0.742
MS.369         	7.2            	0.708
MS.370         	7.185          	0.576
MS.371         	7.17           	0.685
MS.372         	7.157          	0.685
MS.373         	7.142          	0.62
MS.374         	7.128          	0.589
MS.375         	7.115          	0.716
MS.376         	7.1            	0.623
MS.377         	7.085          	0.656
MS.378         	7.072          	0.654
MS.379         	7.057          	0.603
MS.380         	7.043          	0.643
MS.381         	7.03           	0.438
MS.382         	7.015          	0.571
MS.383         	7              	0.563
MS.384         	6.987          	0.535
MS.385         	6.972          	0.5
MS.386         	6.96           	0.519
MS.387         	6.945          	0.381
MS.388         	6.932          	0.399
MS.389         	6.918          	0.512
MS.390         	6.902          	0.464
MS.391         	6.89           	0.505
MS.392         	6.875          	0.41
MS.393         	6.862          	0.352
MS.394         	6.847          	0.394
MS.395         	6.835          	0.35
MS.396         	6.822          	0.373
MS.397         	6.807          	0.32
MS.398         	6.795          	0.378
MS.399         	6.78           	0.285
MS.400         	6.767          	0.367
MS.401         	6.753          	0.367
MS.402         	6.74           	0.353
MS.403         	6.727          	0.355
MS.404         	6.712          	0.37
MS.405         	6.7            	0.366
MS.406         	6.685          	0.302
MS.407         	6.672          	0.298
MS.408         	6.66           	0.37
MS.409         	6.645          	0.377
MS.410         	6.632          	0.331
MS.411         	6.62           	0.249
MS.412         	6.608          	0.384
MS.413         	6.592          	0.258
MS.414         	6.58           	0.285
MS.415         	6.567          	0.326
MS.416         	6.555          	0.255
MS.417         	6.54           	0.242
MS.418         	6.527          	0.305
MS.419         	6.515          	0.19
MS.420         	6.503          	0.259
MS.421         	6.487          	0.284
MS.422         	6.475          	0.21
MS.423         	6.462          	0.355
MS.424         	6.45           	0.28
MS.425         	6.438          	0.335
MS.426         	6.425          	0.256
MS.427         	6.41           	0.242
MS.428         	6.398          	0.314
MS.429         	6.385          	0.217
MS.430         	6.372          	0.269
MS.431         	6.36           	0.237
MS.432         	6.347          	0.312
MS.433         	6.335          	0.292
MS.434         	6.322          	0.191
MS.435         	6.31           	0.266
MS.436         	6.297          	0.241
MS.437         	6.285          	0.253
MS.438         	6.273          	0.201
MS.439         	6.26           	0.255
MS.440         	6.247          	0.237
MS.441         	6.235          	0.173
MS.442         	6.222          	0.179
MS.443         	6.21           	0.197
MS.444         	6.197          	0.244
MS.445         	6.185          	0.191
MS.446         	6.172          	0.17
MS.447         	6.16           	0.244
MS.448         	6.148          	0.198
MS.449         	6.135          	0.15
MS.450         	6.122          	0.18
MS.451         	6.11           	0.179
MS.452         	6.097          	0.201
MS.453         	6.088          	0.186
MS.454         	6.075          	0.161
MS.455         	6.062          	0.208
MS.456         	6.05           	0.19
MS.457         	6.037          	0.189
MS.458         	6.025          	0.146
MS.459         	6.015          	0.204
MS.460         	6.003          	0.126
MS.461         	5.99           	0.163
MS.462         	5.977          	0.158
MS.463         	5.965          	0.142
MS.464         	5.955          	0.157
MS.465         	5.942          	0.164
MS.466         	5.93           	0.14
MS.467         	5.918          	0.144
MS.468         	5.907          	0.155
MS.469         	5.895          	0.125
MS.470         	5.882          	0.167
MS.471         	5.87           	0.151
MS.472         	5.86           	0.156
MS.473         	5.847          	0.15
MS.474         	5.835          	0.14
DERIVED EXCITABILITY VARIABLES
Program = QTracP 05/05/2023
Threshold method = 6 (optimised for CAP, using data for present condition only)
SR method = 1 (using actual data values)
6.                 	0.000               	Peak response\(mV)
9.                 	31.4                	Temperature ( C)
17.                	27                  	Age (years)
18.                	1                   	Sex (M=1, F=2)

EXTRA VARIABLES

MScPeak(mV) = 4.31
MScS5(mA) = 6.32
MScS50(mA) = 8.32
MScS95(mA) = 9.76
MScNSteps = 1
MScSteps(%) = 2.1
MScStepMax(%) = 2.1
MScD50 = 40
MScSlope = 5.8
MScDuration(min) = 6.9
MSFTraces = 360
MSFPeakAmp(mV) = 4.18
MSFNUnits = 122
MSFMeanUnitAmp(uV) = 34.3
MSFHuntTime(m) = 1.47
MSFError(%) = 1.65
MSFNLarge = 32.45
MSFMedianAmp(%) = 0.613
MSFMedianAmp(mV) = 0.0256
MSFHalfAmpAmp(%) = 0.926
MSFHalfAmpAmp(mV) = 0.0387
MSFLargestAmp(%) = 3.76
MSFLargestAmp(mV) = 0.157
MSFMeanRS(%) = 1.99
MSFSizeLimit(uV) = 13.9
MSFLimitType = 1
MSFSmallestAmp(uV) = 14.5
MSFOpts = 10104222032
MSFSDMax = 12.8
MSFSDMin = 11.5

EXTRA WAVEFORMS


!MScan Model
!122
	1	6.16	0.93	1.99
