File:              	C:\Qtrac\Data\ME2C30622A.QZD
Name:              	 ME27D
Protocol:          	MSCAN-MV
Date:              	22/6/23
Date of birth:     	27/11/02
Age:               	20
Sex:               	M
Temperature:       	31.3
S/R sites:         	Knee CF-TA
NC/disease:        	NC
Operator:          	BY
Comments:
M-SCAN DATA (Repeat 3/4, 20.9-13.8m)
Scanpts: 27, 59, 511, 528
Stim. (mA)     	Amp. (mV)
MS.1           	7.5            	6.511
MS.2           	7.5            	6.494
MS.3           	7.5            	6.515
MS.4           	7.5            	6.531
MS.5           	7.5            	6.485
MS.6           	7.5            	6.553
MS.7           	7.5            	6.481
MS.8           	7.5            	6.56
MS.9           	7.5            	6.508
MS.10          	7.5            	6.505
MS.11          	7.5            	6.516
MS.12          	7.5            	6.504
MS.13          	7.5            	6.492
MS.14          	7.5            	6.466
MS.15          	7.5            	6.539
MS.16          	7.5            	6.54
MS.17          	7.5            	6.5
MS.18          	7.5            	6.564
MS.19          	7.5            	6.53
MS.20          	7.5            	6.53
MS.21          	7.5            	6.492
MS.22          	7.5            	6.584
MS.23          	7.5            	6.495
MS.24          	7.485          	6.509
MS.25          	7.47           	6.533
MS.26          	7.455          	6.494
MS.27          	7.44           	6.512
MS.28          	7.425          	6.495
MS.29          	7.41           	6.502
MS.30          	7.395          	6.539
MS.31          	7.38           	6.528
MS.32          	7.365          	6.481
MS.33          	7.352          	6.519
MS.34          	7.337          	6.53
MS.35          	7.322          	6.511
MS.36          	7.307          	6.544
MS.37          	7.293          	6.475
MS.38          	7.277          	6.514
MS.39          	7.265          	6.508
MS.40          	7.25           	6.467
MS.41          	7.235          	6.517
MS.42          	7.22           	6.479
MS.43          	7.205          	6.497
MS.44          	7.192          	6.503
MS.45          	7.177          	6.539
MS.46          	7.162          	6.525
MS.47          	7.148          	6.5
MS.48          	7.135          	6.562
MS.49          	7.12           	6.508
MS.50          	7.105          	6.539
MS.51          	7.092          	6.5
MS.52          	7.077          	6.491
MS.53          	7.062          	6.514
MS.54          	7.05           	6.485
MS.55          	7.035          	6.519
MS.56          	7.02           	6.491
MS.57          	7.007          	6.55
MS.58          	6.992          	6.5
MS.59          	6.98           	6.477
MS.60          	6.965          	6.541
MS.61          	6.95           	6.499
MS.62          	6.938          	6.473
MS.63          	6.922          	6.484
MS.64          	6.91           	6.482
MS.65          	6.895          	6.539
MS.66          	6.882          	6.501
MS.67          	6.867          	6.495
MS.68          	6.855          	6.5
MS.69          	6.84           	6.516
MS.70          	6.827          	6.519
MS.71          	6.812          	6.481
MS.72          	6.8            	6.506
MS.73          	6.787          	6.53
MS.74          	6.773          	6.484
MS.75          	6.76           	6.518
MS.76          	6.745          	6.547
MS.77          	6.733          	6.536
MS.78          	6.72           	6.478
MS.79          	6.705          	6.489
MS.80          	6.692          	6.512
MS.81          	6.677          	6.548
MS.82          	6.665          	6.523
MS.83          	6.652          	6.502
MS.84          	6.637          	6.504
MS.85          	6.625          	6.489
MS.86          	6.612          	6.498
MS.87          	6.6            	6.425
MS.88          	6.585          	6.479
MS.89          	6.572          	6.45
MS.90          	6.56           	6.443
MS.91          	6.547          	6.486
MS.92          	6.532          	6.505
MS.93          	6.52           	6.492
MS.94          	6.507          	6.489
MS.95          	6.495          	6.507
MS.96          	6.48           	6.494
MS.97          	6.467          	6.463
MS.98          	6.455          	6.492
MS.99          	6.442          	6.464
MS.100         	6.43           	6.457
MS.101         	6.418          	6.472
MS.102         	6.405          	6.4
MS.103         	6.39           	6.455
MS.104         	6.378          	6.476
MS.105         	6.365          	6.429
MS.106         	6.352          	6.45
MS.107         	6.34           	6.432
MS.108         	6.327          	6.459
MS.109         	6.315          	6.483
MS.110         	6.302          	6.4
MS.111         	6.29           	6.438
MS.112         	6.277          	6.46
MS.113         	6.265          	6.433
MS.114         	6.253          	6.424
MS.115         	6.24           	6.436
MS.116         	6.227          	6.468
MS.117         	6.215          	6.478
MS.118         	6.202          	6.478
MS.119         	6.19           	6.316
MS.120         	6.177          	6.335
MS.121         	6.165          	6.332
MS.122         	6.152          	6.382
MS.123         	6.14           	6.406
MS.124         	6.128          	6.374
MS.125         	6.115          	6.421
MS.126         	6.102          	6.342
MS.127         	6.092          	6.354
MS.128         	6.08           	6.208
MS.129         	6.067          	6.393
MS.130         	6.055          	6.183
MS.131         	6.043          	6.308
MS.132         	6.03           	6.293
MS.133         	6.02           	6.259
MS.134         	6.007          	6.222
MS.135         	5.995          	6.212
MS.136         	5.983          	6.237
MS.137         	5.97           	6.216
MS.138         	5.96           	6.163
MS.139         	5.947          	6.217
MS.140         	5.935          	6.088
MS.141         	5.922          	6.178
MS.142         	5.912          	6.257
MS.143         	5.9            	6.134
MS.144         	5.887          	6.016
MS.145         	5.875          	6.016
MS.146         	5.865          	6.058
MS.147         	5.852          	6.124
MS.148         	5.84           	5.981
MS.149         	5.83           	6.03
MS.150         	5.817          	5.991
MS.151         	5.805          	6.006
MS.152         	5.795          	6.079
MS.153         	5.782          	5.986
MS.154         	5.773          	5.982
MS.155         	5.76           	6.007
MS.156         	5.747          	6.031
MS.157         	5.737          	5.989
MS.158         	5.725          	5.918
MS.159         	5.715          	5.988
MS.160         	5.702          	5.851
MS.161         	5.69           	5.993
MS.162         	5.68           	5.91
MS.163         	5.668          	5.885
MS.164         	5.657          	5.942
MS.165         	5.645          	5.954
MS.166         	5.635          	5.971
MS.167         	5.622          	5.834
MS.168         	5.612          	5.773
MS.169         	5.6            	5.797
MS.170         	5.59           	5.864
MS.171         	5.577          	5.84
MS.172         	5.567          	5.707
MS.173         	5.555          	5.794
MS.174         	5.545          	5.861
MS.175         	5.535          	5.82
MS.176         	5.523          	5.745
MS.177         	5.512          	5.746
MS.178         	5.5            	5.681
MS.179         	5.49           	5.77
MS.180         	5.48           	5.547
MS.181         	5.467          	5.618
MS.182         	5.457          	5.796
MS.183         	5.445          	5.681
MS.184         	5.435          	5.5
MS.185         	5.425          	5.663
MS.186         	5.412          	5.478
MS.187         	5.402          	5.522
MS.188         	5.392          	5.462
MS.189         	5.38           	5.518
MS.190         	5.37           	5.638
MS.191         	5.36           	5.356
MS.192         	5.35           	5.555
MS.193         	5.338          	5.3
MS.194         	5.327          	5.319
MS.195         	5.318          	5.325
MS.196         	5.307          	5.309
MS.197         	5.295          	5.389
MS.198         	5.285          	5.334
MS.199         	5.275          	5.362
MS.200         	5.265          	5.35
MS.201         	5.253          	5.342
MS.202         	5.242          	5.226
MS.203         	5.233          	5.218
MS.204         	5.222          	5.297
MS.205         	5.213          	5.228
MS.206         	5.202          	5.166
MS.207         	5.19           	5.281
MS.208         	5.18           	5.247
MS.209         	5.17           	5.275
MS.210         	5.16           	5.251
MS.211         	5.15           	5.136
MS.212         	5.14           	5.126
MS.213         	5.13           	5.158
MS.214         	5.117          	5.124
MS.215         	5.108          	5.043
MS.216         	5.097          	5.063
MS.217         	5.088          	4.949
MS.218         	5.077          	4.972
MS.219         	5.068          	5.138
MS.220         	5.057          	5.037
MS.221         	5.047          	4.749
MS.222         	5.037          	4.853
MS.223         	5.027          	4.764
MS.224         	5.017          	4.858
MS.225         	5.007          	4.816
MS.226         	4.997          	4.927
MS.227         	4.987          	4.832
MS.228         	4.977          	4.769
MS.229         	4.967          	4.786
MS.230         	4.957          	4.652
MS.231         	4.947          	4.728
MS.232         	4.938          	4.691
MS.233         	4.927          	4.518
MS.234         	4.918          	4.62
MS.235         	4.907          	4.576
MS.236         	4.898          	4.457
MS.237         	4.887          	4.392
MS.238         	4.88           	4.476
MS.239         	4.87           	4.583
MS.240         	4.86           	4.62
MS.241         	4.85           	4.348
MS.242         	4.84           	4.466
MS.243         	4.83           	4.442
MS.244         	4.82           	4.399
MS.245         	4.81           	4.371
MS.246         	4.802          	4.335
MS.247         	4.793          	4.332
MS.248         	4.782          	4.431
MS.249         	4.773          	4.07
MS.250         	4.762          	4.261
MS.251         	4.753          	4.26
MS.252         	4.745          	4.152
MS.253         	4.735          	4.181
MS.254         	4.725          	4.254
MS.255         	4.715          	4.258
MS.256         	4.707          	4.18
MS.257         	4.697          	4.257
MS.258         	4.688          	4.208
MS.259         	4.677          	4.061
MS.260         	4.67           	4.091
MS.261         	4.66           	4.146
MS.262         	4.65           	3.885
MS.263         	4.64           	4.051
MS.264         	4.632          	3.947
MS.265         	4.622          	4.066
MS.266         	4.612          	3.824
MS.267         	4.605          	3.818
MS.268         	4.595          	3.937
MS.269         	4.585          	3.94
MS.270         	4.577          	3.659
MS.271         	4.568          	3.754
MS.272         	4.557          	3.745
MS.273         	4.55           	3.708
MS.274         	4.54           	3.695
MS.275         	4.53           	3.749
MS.276         	4.523          	3.641
MS.277         	4.512          	3.593
MS.278         	4.503          	3.577
MS.279         	4.495          	3.572
MS.280         	4.485          	3.521
MS.281         	4.477          	3.555
MS.282         	4.467          	3.58
MS.283         	4.46           	3.585
MS.284         	4.45           	3.554
MS.285         	4.44           	3.37
MS.286         	4.432          	3.394
MS.287         	4.423          	3.354
MS.288         	4.415          	3.535
MS.289         	4.405          	3.362
MS.290         	4.398          	3.483
MS.291         	4.387          	3.311
MS.292         	4.38           	3.29
MS.293         	4.37           	3.327
MS.294         	4.362          	3.294
MS.295         	4.352          	3.355
MS.296         	4.345          	3.342
MS.297         	4.335          	3.184
MS.298         	4.327          	3.234
MS.299         	4.318          	3.097
MS.300         	4.31           	3.12
MS.301         	4.3            	3.182
MS.302         	4.293          	3.176
MS.303         	4.285          	3.101
MS.304         	4.275          	3.107
MS.305         	4.267          	2.999
MS.306         	4.257          	2.926
MS.307         	4.25           	2.863
MS.308         	4.242          	2.809
MS.309         	4.233          	2.773
MS.310         	4.225          	2.785
MS.311         	4.215          	2.783
MS.312         	4.207          	2.784
MS.313         	4.2            	2.66
MS.314         	4.19           	2.537
MS.315         	4.182          	2.649
MS.316         	4.175          	2.362
MS.317         	4.165          	2.578
MS.318         	4.157          	2.722
MS.319         	4.15           	2.627
MS.320         	4.14           	2.579
MS.321         	4.132          	2.534
MS.322         	4.125          	2.498
MS.323         	4.115          	2.352
MS.324         	4.108          	2.51
MS.325         	4.1            	2.277
MS.326         	4.092          	2.269
MS.327         	4.082          	2.305
MS.328         	4.075          	2.069
MS.329         	4.068          	2.172
MS.330         	4.06           	2.089
MS.331         	4.05           	2.121
MS.332         	4.043          	2.026
MS.333         	4.035          	1.889
MS.334         	4.027          	1.986
MS.335         	4.017          	2.045
MS.336         	4.01           	1.854
MS.337         	4.003          	1.925
MS.338         	3.995          	1.938
MS.339         	3.987          	1.978
MS.340         	3.977          	1.78
MS.341         	3.97           	1.814
MS.342         	3.962          	1.873
MS.343         	3.955          	1.783
MS.344         	3.947          	1.752
MS.345         	3.94           	1.638
MS.346         	3.93           	1.63
MS.347         	3.922          	1.743
MS.348         	3.915          	1.591
MS.349         	3.908          	1.553
MS.350         	3.9            	1.694
MS.351         	3.892          	1.546
MS.352         	3.885          	1.578
MS.353         	3.877          	1.388
MS.354         	3.867          	1.511
MS.355         	3.86           	1.383
MS.356         	3.852          	1.428
MS.357         	3.845          	1.484
MS.358         	3.837          	1.373
MS.359         	3.83           	1.299
MS.360         	3.822          	1.286
MS.361         	3.815          	1.257
MS.362         	3.807          	1.288
MS.363         	3.8            	1.179
MS.364         	3.793          	1.279
MS.365         	3.785          	1.361
MS.366         	3.777          	1.188
MS.367         	3.77           	1.283
MS.368         	3.762          	1.088
MS.369         	3.755          	1.177
MS.370         	3.747          	1.2
MS.371         	3.74           	1.153
MS.372         	3.732          	1.122
MS.373         	3.725          	1.071
MS.374         	3.717          	1.123
MS.375         	3.71           	1.006
MS.376         	3.702          	1.052
MS.377         	3.695          	1.135
MS.378         	3.688          	1.068
MS.379         	3.68           	1.014
MS.380         	3.672          	1.03
MS.381         	3.665          	0.912
MS.382         	3.658          	0.885
MS.383         	3.65           	0.823
MS.384         	3.642          	0.827
MS.385         	3.635          	0.896
MS.386         	3.63           	0.903
MS.387         	3.622          	0.903
MS.388         	3.615          	0.826
MS.389         	3.607          	0.812
MS.390         	3.6            	0.698
MS.391         	3.592          	0.693
MS.392         	3.585          	0.779
MS.393         	3.577          	0.742
MS.394         	3.57           	0.738
MS.395         	3.565          	0.692
MS.396         	3.557          	0.677
MS.397         	3.55           	0.557
MS.398         	3.543          	0.579
MS.399         	3.535          	0.563
MS.400         	3.527          	0.593
MS.401         	3.523          	0.579
MS.402         	3.515          	0.572
MS.403         	3.507          	0.591
MS.404         	3.5            	0.589
MS.405         	3.492          	0.569
MS.406         	3.487          	0.434
MS.407         	3.48           	0.599
MS.408         	3.472          	0.505
MS.409         	3.465          	0.58
MS.410         	3.457          	0.51
MS.411         	3.452          	0.57
MS.412         	3.445          	0.575
MS.413         	3.438          	0.475
MS.414         	3.43           	0.35
MS.415         	3.425          	0.468
MS.416         	3.418          	0.421
MS.417         	3.41           	0.446
MS.418         	3.405          	0.281
MS.419         	3.398          	0.45
MS.420         	3.39           	0.275
MS.421         	3.382          	0.23
MS.422         	3.377          	0.226
MS.423         	3.37           	0.253
MS.424         	3.362          	0.287
MS.425         	3.357          	0.228
MS.426         	3.35           	0.164
MS.427         	3.342          	0.219
MS.428         	3.337          	0.153
MS.429         	3.33           	0.233
MS.430         	3.322          	0.068
MS.431         	3.317          	0.074
MS.432         	3.31           	0.143
MS.433         	3.303          	0.066
MS.434         	3.297          	0.151
MS.435         	3.29           	0.134
MS.436         	3.283          	-0.008
MS.437         	3.277          	0.098
MS.438         	3.27           	0.016
MS.439         	3.265          	0.067
MS.440         	3.257          	0.023
MS.441         	3.25           	0.029
MS.442         	3.245          	-0.053
MS.443         	3.237          	-0.027
MS.444         	3.232          	-0.029
MS.445         	3.225          	-0.009
MS.446         	3.217          	-0.051
MS.447         	3.212          	-0.048
MS.448         	3.205          	-0.099
MS.449         	3.2            	-0.098
MS.450         	3.192          	-0.062
MS.451         	3.188          	-0.051
MS.452         	3.18           	-0.139
MS.453         	3.172          	-0.18
MS.454         	3.168          	-0.093
MS.455         	3.16           	-0.119
MS.456         	3.155          	-0.126
MS.457         	3.148          	-0.134
MS.458         	3.142          	-0.137
MS.459         	3.135          	-0.193
MS.460         	3.13           	-0.14
MS.461         	3.122          	-0.084
MS.462         	3.117          	-0.171
MS.463         	3.11           	-0.168
MS.464         	3.105          	-0.229
MS.465         	3.097          	-0.206
MS.466         	3.092          	-0.176
MS.467         	3.085          	-0.244
MS.468         	3.08           	-0.224
MS.469         	3.075          	-0.233
MS.470         	3.067          	-0.251
MS.471         	3.062          	-0.258
MS.472         	3.055          	-0.228
MS.473         	3.05           	-0.257
MS.474         	3.043          	-0.281
MS.475         	3.037          	-0.249
MS.476         	3.03           	-0.31
MS.477         	3.025          	-0.294
MS.478         	3.02           	-0.274
MS.479         	3.013          	-0.323
MS.480         	3.007          	-0.259
MS.481         	3              	-0.283
MS.482         	2.995          	-0.272
MS.483         	2.99           	-0.297
MS.484         	2.982          	-0.306
MS.485         	2.977          	-0.329
MS.486         	2.97           	-0.339
MS.487         	2.965          	-0.333
MS.488         	2.96           	-0.373
MS.489         	2.952          	-0.351
MS.490         	2.947          	-0.393
MS.491         	2.942          	-0.357
MS.492         	2.935          	-0.406
MS.493         	2.93           	-0.341
MS.494         	2.925          	-0.386
MS.495         	2.918          	-0.385
MS.496         	2.912          	-0.393
MS.497         	2.908          	-0.383
MS.498         	2.9            	-0.336
MS.499         	2.895          	-0.413
MS.500         	2.89           	-0.406
MS.501         	2.882          	-0.42
