File:              	C:\Qtrac\Data\ME2C30719A.QZD
Name:              	 ST14R
Protocol:          	MSCAN-MV
Date:              	19/7/23
Date of birth:     	14/4/00
Age:               	23
Sex:               	M
Temperature:       	31.4
S/R sites:         	Knee CF-TA
NC/disease:        	NC
Operator:          	BY
Comments:
M-SCAN DATA (Repeat 2/3, 21.3-13.7m)
Scanpts: 1, 15, 576, 615
Stim. (mA)     	Amp. (mV)
MS.1           	15             	4.768
MS.2           	15             	4.758
MS.3           	15             	4.778
MS.4           	15             	4.766
MS.5           	15             	4.765
MS.6           	15             	4.742
MS.7           	15             	4.753
MS.8           	15             	4.758
MS.9           	15             	4.738
MS.10          	15             	4.745
MS.11          	15             	4.757
MS.12          	15             	4.745
MS.13          	15             	4.762
MS.14          	15             	4.746
MS.15          	15             	4.755
MS.16          	15             	4.746
MS.17          	15             	4.752
MS.18          	15             	4.715
MS.19          	15             	4.709
MS.20          	15             	4.724
MS.21          	15             	4.73
MS.22          	15             	4.734
MS.23          	15             	4.741
MS.24          	14.97          	4.747
MS.25          	14.94          	4.719
MS.26          	14.91          	4.727
MS.27          	14.88          	4.766
MS.28          	14.85          	4.78
MS.29          	14.82          	4.759
MS.30          	14.792         	4.722
MS.31          	14.762         	4.75
MS.32          	14.733         	4.725
MS.33          	14.702         	4.737
MS.34          	14.672         	4.755
MS.35          	14.645         	4.695
MS.36          	14.615         	4.718
MS.37          	14.585         	4.752
MS.38          	14.557         	4.691
MS.39          	14.527         	4.73
MS.40          	14.497         	4.766
MS.41          	14.47          	4.703
MS.42          	14.44          	4.741
MS.43          	14.412         	4.725
MS.44          	14.382         	4.728
MS.45          	14.355         	4.737
MS.46          	14.325         	4.744
MS.47          	14.297         	4.7
MS.48          	14.267         	4.717
MS.49          	14.24          	4.673
MS.50          	14.212         	4.656
MS.51          	14.182         	4.737
MS.52          	14.155         	4.626
MS.53          	14.127         	4.668
MS.54          	14.097         	4.631
MS.55          	14.07          	4.645
MS.56          	14.042         	4.645
MS.57          	14.015         	4.655
MS.58          	13.985         	4.673
MS.59          	13.957         	4.647
MS.60          	13.93          	4.741
MS.61          	13.903         	4.679
MS.62          	13.875         	4.642
MS.63          	13.847         	4.647
MS.64          	13.82          	4.683
MS.65          	13.792         	4.682
MS.66          	13.765         	4.615
MS.67          	13.737         	4.697
MS.68          	13.71          	4.624
MS.69          	13.682         	4.667
MS.70          	13.655         	4.653
MS.71          	13.627         	4.644
MS.72          	13.6           	4.659
MS.73          	13.572         	4.632
MS.74          	13.545         	4.668
MS.75          	13.517         	4.615
MS.76          	13.492         	4.662
MS.77          	13.465         	4.603
MS.78          	13.438         	4.65
MS.79          	13.41          	4.567
MS.80          	13.385         	4.613
MS.81          	13.358         	4.592
MS.82          	13.33          	4.615
MS.83          	13.305         	4.608
MS.84          	13.278         	4.625
MS.85          	13.25          	4.525
MS.86          	13.225         	4.563
MS.87          	13.197         	4.616
MS.88          	13.172         	4.629
MS.89          	13.145         	4.479
MS.90          	13.12          	4.555
MS.91          	13.092         	4.565
MS.92          	13.068         	4.489
MS.93          	13.04          	4.514
MS.94          	13.015         	4.557
MS.95          	12.987         	4.55
MS.96          	12.962         	4.583
MS.97          	12.938         	4.539
MS.98          	12.91          	4.581
MS.99          	12.885         	4.504
MS.100         	12.86          	4.481
MS.101         	12.832         	4.523
MS.102         	12.807         	4.471
MS.103         	12.782         	4.494
MS.104         	12.757         	4.484
MS.105         	12.73          	4.468
MS.106         	12.705         	4.463
MS.107         	12.68          	4.479
MS.108         	12.655         	4.482
MS.109         	12.63          	4.529
MS.110         	12.605         	4.505
MS.111         	12.58          	4.483
MS.112         	12.555         	4.475
MS.113         	12.53          	4.471
MS.114         	12.505         	4.432
MS.115         	12.48          	4.453
MS.116         	12.455         	4.478
MS.117         	12.43          	4.468
MS.118         	12.405         	4.422
MS.119         	12.38          	4.377
MS.120         	12.355         	4.415
MS.121         	12.33          	4.345
MS.122         	12.305         	4.362
MS.123         	12.28          	4.368
MS.124         	12.257         	4.39
MS.125         	12.233         	4.397
MS.126         	12.207         	4.429
MS.127         	12.182         	4.359
MS.128         	12.16          	4.402
MS.129         	12.135         	4.371
MS.130         	12.11          	4.413
MS.131         	12.085         	4.359
MS.132         	12.062         	4.324
MS.133         	12.037         	4.305
MS.134         	12.012         	4.268
MS.135         	11.99          	4.347
MS.136         	11.965         	4.289
MS.137         	11.943         	4.164
MS.138         	11.917         	4.138
MS.139         	11.895         	4.272
MS.140         	11.87          	4.244
MS.141         	11.847         	4.144
MS.142         	11.822         	4.183
MS.143         	11.8           	4.262
MS.144         	11.775         	4.288
MS.145         	11.752         	4.223
MS.146         	11.73          	4.207
MS.147         	11.705         	4.16
MS.148         	11.682         	4.213
MS.149         	11.657         	4.105
MS.150         	11.635         	4.152
MS.151         	11.613         	4.158
MS.152         	11.59          	4.108
MS.153         	11.565         	4.114
MS.154         	11.542         	4.135
MS.155         	11.52          	4.171
MS.156         	11.497         	4.159
MS.157         	11.472         	4.106
MS.158         	11.45          	4.086
MS.159         	11.427         	4.129
MS.160         	11.405         	4.182
MS.161         	11.382         	4.037
MS.162         	11.36          	4.068
MS.163         	11.337         	3.956
MS.164         	11.315         	4.073
MS.165         	11.292         	4.097
MS.166         	11.27          	4.031
MS.167         	11.247         	4.069
MS.168         	11.225         	4.07
MS.169         	11.202         	4.02
MS.170         	11.18          	4.035
MS.171         	11.157         	4.018
MS.172         	11.135         	4.004
MS.173         	11.113         	4.019
MS.174         	11.09          	4.036
MS.175         	11.068         	4.032
MS.176         	11.045         	3.918
MS.177         	11.023         	3.948
MS.178         	11.002         	3.984
MS.179         	10.98          	3.866
MS.180         	10.957         	3.945
MS.181         	10.935         	3.996
MS.182         	10.915         	3.971
MS.183         	10.892         	3.986
MS.184         	10.87          	3.904
MS.185         	10.85          	3.939
MS.186         	10.827         	3.892
MS.187         	10.805         	3.875
MS.188         	10.785         	3.868
MS.189         	10.762         	3.88
MS.190         	10.74          	3.825
MS.191         	10.72          	3.865
MS.192         	10.698         	3.807
MS.193         	10.677         	3.76
MS.194         	10.655         	3.911
MS.195         	10.635         	3.802
MS.196         	10.613         	3.633
MS.197         	10.592         	3.706
MS.198         	10.57          	3.696
MS.199         	10.55          	3.651
MS.200         	10.528         	3.611
MS.201         	10.507         	3.55
MS.202         	10.485         	3.657
MS.203         	10.465         	3.566
MS.204         	10.445         	3.603
MS.205         	10.422         	3.62
MS.206         	10.403         	3.524
MS.207         	10.382         	3.612
MS.208         	10.36          	3.59
MS.209         	10.34          	3.502
MS.210         	10.32          	3.376
MS.211         	10.3           	3.411
MS.212         	10.278         	3.523
MS.213         	10.257         	3.395
MS.214         	10.238         	3.24
MS.215         	10.217         	3.314
MS.216         	10.198         	3.284
MS.217         	10.175         	3.208
MS.218         	10.155         	3.425
MS.219         	10.135         	3.186
MS.220         	10.115         	3.233
MS.221         	10.095         	3.258
MS.222         	10.075         	3.211
MS.223         	10.055         	3.234
MS.224         	10.035         	3.151
MS.225         	10.015         	3.13
MS.226         	9.995          	3.177
MS.227         	9.975          	3.023
MS.228         	9.955          	3.091
MS.229         	9.935          	3.057
MS.230         	9.915          	2.986
MS.231         	9.895          	3.051
MS.232         	9.875          	2.967
MS.233         	9.855          	2.996
MS.234         	9.835          	2.943
MS.235         	9.818          	2.969
MS.236         	9.797          	2.859
MS.237         	9.778          	2.908
MS.238         	9.757          	2.938
MS.239         	9.738          	2.835
MS.240         	9.717          	2.873
MS.241         	9.7            	2.849
MS.242         	9.68           	2.869
MS.243         	9.66           	2.766
MS.244         	9.64           	2.697
MS.245         	9.622          	2.699
MS.246         	9.602          	2.683
MS.247         	9.582          	2.628
MS.248         	9.565          	2.689
MS.249         	9.545          	2.755
MS.250         	9.525          	2.64
MS.251         	9.507          	2.668
MS.252         	9.488          	2.625
MS.253         	9.47           	2.672
MS.254         	9.45           	2.551
MS.255         	9.432          	2.649
MS.256         	9.412          	2.633
MS.257         	9.395          	2.568
MS.258         	9.375          	2.578
MS.259         	9.358          	2.537
MS.260         	9.337          	2.473
MS.261         	9.32           	2.449
MS.262         	9.3            	2.418
MS.263         	9.283          	2.395
MS.264         	9.262          	2.433
MS.265         	9.245          	2.419
MS.266         	9.225          	2.336
MS.267         	9.207          	2.397
MS.268         	9.19           	2.324
MS.269         	9.17           	2.323
MS.270         	9.153          	2.321
MS.271         	9.135          	2.391
MS.272         	9.115          	2.278
MS.273         	9.097          	2.264
MS.274         	9.08           	2.241
MS.275         	9.062          	2.234
MS.276         	9.042          	2.175
MS.277         	9.025          	2.109
MS.278         	9.007          	2.254
MS.279         	8.99           	2.176
MS.280         	8.972          	2.169
MS.281         	8.952          	2.098
MS.282         	8.935          	2.117
MS.283         	8.917          	2.109
MS.284         	8.9            	2.086
MS.285         	8.882          	2.122
MS.286         	8.865          	2.026
MS.287         	8.847          	1.929
MS.288         	8.83           	2.02
MS.289         	8.812          	1.936
MS.290         	8.795          	1.943
MS.291         	8.778          	1.886
MS.292         	8.757          	1.873
MS.293         	8.74           	1.898
MS.294         	8.725          	1.877
MS.295         	8.707          	1.921
MS.296         	8.69           	1.83
MS.297         	8.672          	1.837
MS.298         	8.655          	1.802
MS.299         	8.637          	1.797
MS.300         	8.62           	1.805
MS.301         	8.602          	1.76
MS.302         	8.585          	1.738
MS.303         	8.568          	1.763
MS.304         	8.55           	1.658
MS.305         	8.535          	1.755
MS.306         	8.517          	1.7
MS.307         	8.5            	1.743
MS.308         	8.483          	1.624
MS.309         	8.465          	1.548
MS.310         	8.45           	1.597
MS.311         	8.432          	1.624
MS.312         	8.415          	1.588
MS.313         	8.398          	1.535
MS.314         	8.382          	1.577
MS.315         	8.365          	1.467
MS.316         	8.347          	1.512
MS.317         	8.332          	1.508
MS.318         	8.315          	1.425
MS.319         	8.297          	1.454
MS.320         	8.283          	1.442
MS.321         	8.265          	1.389
MS.322         	8.247          	1.424
MS.323         	8.233          	1.43
MS.324         	8.215          	1.368
MS.325         	8.2            	1.366
MS.326         	8.182          	1.261
MS.327         	8.167          	1.289
MS.328         	8.15           	1.303
MS.329         	8.135          	1.382
MS.330         	8.117          	1.264
MS.331         	8.102          	1.228
MS.332         	8.085          	1.216
MS.333         	8.07           	1.255
MS.334         	8.052          	1.259
MS.335         	8.037          	1.264
MS.336         	8.02           	1.151
MS.337         	8.005          	1.156
MS.338         	7.99           	1.172
MS.339         	7.972          	1.078
MS.340         	7.957          	1.151
MS.341         	7.94           	1.112
MS.342         	7.925          	1.08
MS.343         	7.91           	1.049
MS.344         	7.892          	1.099
MS.345         	7.878          	1.121
MS.346         	7.862          	1.072
MS.347         	7.847          	1.046
MS.348         	7.83           	1.044
MS.349         	7.815          	1.057
MS.350         	7.8            	1.004
MS.351         	7.785          	0.943
MS.352         	7.767          	0.896
MS.353         	7.753          	1.013
MS.354         	7.737          	0.905
MS.355         	7.722          	0.89
MS.356         	7.707          	0.994
MS.357         	7.69           	0.828
MS.358         	7.675          	0.863
MS.359         	7.66           	0.844
MS.360         	7.645          	0.847
MS.361         	7.63           	0.821
MS.362         	7.615          	0.792
MS.363         	7.6            	0.846
MS.364         	7.585          	0.714
MS.365         	7.57           	0.779
MS.366         	7.555          	0.776
MS.367         	7.537          	0.74
MS.368         	7.523          	0.729
MS.369         	7.507          	0.734
MS.370         	7.492          	0.765
MS.371         	7.477          	0.747
MS.372         	7.462          	0.692
MS.373         	7.45           	0.698
MS.374         	7.435          	0.65
MS.375         	7.42           	0.709
MS.376         	7.405          	0.675
MS.377         	7.39           	0.657
MS.378         	7.375          	0.65
MS.379         	7.36           	0.645
MS.380         	7.345          	0.569
MS.381         	7.33           	0.632
MS.382         	7.315          	0.563
MS.383         	7.302          	0.594
MS.384         	7.287          	0.564
MS.385         	7.273          	0.572
MS.386         	7.257          	0.559
MS.387         	7.242          	0.563
MS.388         	7.227          	0.574
MS.389         	7.215          	0.446
MS.390         	7.2            	0.581
MS.391         	7.185          	0.53
MS.392         	7.17           	0.515
MS.393         	7.157          	0.529
MS.394         	7.142          	0.568
MS.395         	7.128          	0.558
MS.396         	7.115          	0.539
MS.397         	7.1            	0.417
MS.398         	7.085          	0.533
MS.399         	7.072          	0.485
MS.400         	7.057          	0.4
MS.401         	7.043          	0.532
MS.402         	7.03           	0.411
MS.403         	7.015          	0.389
MS.404         	7              	0.515
MS.405         	6.987          	0.444
MS.406         	6.972          	0.359
MS.407         	6.96           	0.464
MS.408         	6.945          	0.36
MS.409         	6.932          	0.368
MS.410         	6.918          	0.376
MS.411         	6.902          	0.384
MS.412         	6.89           	0.341
MS.413         	6.875          	0.372
MS.414         	6.862          	0.328
MS.415         	6.847          	0.327
MS.416         	6.835          	0.348
MS.417         	6.822          	0.377
MS.418         	6.807          	0.378
MS.419         	6.795          	0.344
MS.420         	6.78           	0.297
MS.421         	6.767          	0.3
MS.422         	6.753          	0.339
MS.423         	6.74           	0.338
MS.424         	6.727          	0.331
MS.425         	6.712          	0.319
MS.426         	6.7            	0.309
MS.427         	6.685          	0.297
MS.428         	6.672          	0.293
MS.429         	6.66           	0.334
MS.430         	6.645          	0.292
MS.431         	6.632          	0.27
MS.432         	6.62           	0.294
MS.433         	6.608          	0.271
MS.434         	6.592          	0.261
MS.435         	6.58           	0.245
MS.436         	6.567          	0.244
MS.437         	6.555          	0.25
MS.438         	6.54           	0.256
MS.439         	6.527          	0.27
MS.440         	6.515          	0.249
MS.441         	6.503          	0.245
MS.442         	6.487          	0.225
MS.443         	6.475          	0.23
MS.444         	6.462          	0.237
MS.445         	6.45           	0.26
MS.446         	6.438          	0.193
MS.447         	6.425          	0.223
MS.448         	6.41           	0.203
MS.449         	6.398          	0.217
MS.450         	6.385          	0.214
MS.451         	6.372          	0.186
MS.452         	6.36           	0.192
MS.453         	6.347          	0.2
MS.454         	6.335          	0.172
MS.455         	6.322          	0.161
MS.456         	6.31           	0.164
MS.457         	6.297          	0.161
MS.458         	6.285          	0.168
MS.459         	6.273          	0.192
MS.460         	6.26           	0.169
MS.461         	6.247          	0.196
MS.462         	6.235          	0.164
MS.463         	6.222          	0.176
MS.464         	6.21           	0.154
MS.465         	6.197          	0.153
MS.466         	6.185          	0.154
MS.467         	6.172          	0.142
MS.468         	6.16           	0.144
MS.469         	6.148          	0.149
MS.470         	6.135          	0.148
MS.471         	6.122          	0.151
MS.472         	6.11           	0.153
MS.473         	6.097          	0.128
MS.474         	6.088          	0.135
MS.475         	6.075          	0.123
MS.476         	6.062          	0.134
MS.477         	6.05           	0.139
MS.478         	6.037          	0.136
MS.479         	6.025          	0.119
MS.480         	6.015          	0.135
MS.481         	6.003          	0.135
MS.482         	5.99           	0.121
MS.483         	5.977          	0.136
MS.484         	5.965          	0.104
MS.485         	5.955          	0.119
MS.486         	5.942          	0.126
MS.487         	5.93           	0.112
MS.488         	5.918          	0.114
MS.489         	5.907          	0.117
MS.490         	5.895          	0.114
MS.491         	5.882          	0.114
MS.492         	5.87           	0.093
MS.493         	5.86           	0.093
MS.494         	5.847          	0.115
MS.495         	5.835          	0.089
MS.496         	5.825          	0.091
MS.497         	5.812          	0.089
MS.498         	5.8            	0.092
MS.499         	5.79           	0.06
MS.500         	5.777          	0.106
MS.501         	5.767          	0.079
MS.502         	5.755          	0.048
MS.503         	5.742          	0.047
