File:              	C:\Qtrac\Data\ME2C30608A.QZD
Name:              	 ME18D
Protocol:          	MSCAN-R2
Date:              	8/6/23
Date of birth:     	18/11/01
Age:               	21
Sex:               	M
Temperature:       	33.6
S/R sites:         	KNEE CF-TA
NC/disease:        	NC
Operator:          	BY
Comments:
M-SCAN DATA (Repeat 3/3, 45.1-35.4m)
Scanpts: 1, 97, 756, 773
Stim. (mA)     	Amp. (mV)
MS.1           	14             	6.391
MS.2           	14             	6.392
MS.3           	14             	6.415
MS.4           	14             	6.382
MS.5           	14             	6.377
MS.6           	14             	6.362
MS.7           	14             	6.341
MS.8           	14             	6.354
MS.9           	14             	6.348
MS.10          	14             	6.362
MS.11          	14             	6.324
MS.12          	14             	6.364
MS.13          	14             	6.381
MS.14          	14             	6.382
MS.15          	14             	6.407
MS.16          	14             	6.35
MS.17          	14             	6.4
MS.18          	14             	6.4
MS.19          	14             	6.37
MS.20          	14             	6.355
MS.21          	14             	6.404
MS.22          	14             	6.392
MS.23          	14             	6.356
MS.24          	13.972         	6.387
MS.25          	13.945         	6.36
MS.26          	13.917         	6.397
MS.27          	13.887         	6.43
MS.28          	13.86          	6.349
MS.29          	13.832         	6.404
MS.30          	13.805         	6.414
MS.31          	13.778         	6.365
MS.32          	13.75          	6.374
MS.33          	13.722         	6.367
MS.34          	13.695         	6.373
MS.35          	13.667         	6.347
MS.36          	13.64          	6.403
MS.37          	13.612         	6.329
MS.38          	13.585         	6.386
MS.39          	13.56          	6.366
MS.40          	13.532         	6.398
MS.41          	13.505         	6.42
MS.42          	13.477         	6.39
MS.43          	13.45          	6.397
MS.44          	13.425         	6.382
MS.45          	13.398         	6.348
MS.46          	13.37          	6.353
MS.47          	13.345         	6.378
MS.48          	13.318         	6.442
MS.49          	13.29          	6.395
MS.50          	13.265         	6.406
MS.51          	13.237         	6.384
MS.52          	13.21          	6.423
MS.53          	13.185         	6.392
MS.54          	13.157         	6.375
MS.55          	13.132         	6.395
MS.56          	13.105         	6.376
MS.57          	13.08          	6.374
MS.58          	13.052         	6.407
MS.59          	13.028         	6.429
MS.60          	13.002         	6.429
MS.61          	12.975         	6.428
MS.62          	12.95          	6.422
MS.63          	12.922         	6.43
MS.64          	12.898         	6.406
MS.65          	12.872         	6.425
MS.66          	12.847         	6.419
MS.67          	12.82          	6.44
MS.68          	12.795         	6.439
MS.69          	12.77          	6.4
MS.70          	12.745         	6.363
MS.71          	12.717         	6.373
MS.72          	12.693         	6.459
MS.73          	12.667         	6.432
MS.74          	12.642         	6.381
MS.75          	12.617         	6.395
MS.76          	12.592         	6.431
MS.77          	12.568         	6.442
MS.78          	12.542         	6.414
MS.79          	12.517         	6.377
MS.80          	12.492         	6.422
MS.81          	12.467         	6.382
MS.82          	12.443         	6.42
MS.83          	12.417         	6.417
MS.84          	12.392         	6.4
MS.85          	12.367         	6.415
MS.86          	12.342         	6.393
MS.87          	12.318         	6.395
MS.88          	12.292         	6.425
MS.89          	12.27          	6.375
MS.90          	12.245         	6.423
MS.91          	12.22          	6.434
MS.92          	12.195         	6.401
MS.93          	12.17          	6.356
MS.94          	12.148         	6.385
MS.95          	12.122         	6.399
MS.96          	12.097         	6.413
MS.97          	12.075         	6.462
MS.98          	12.05          	6.413
MS.99          	12.025         	6.351
MS.100         	12.002         	6.398
MS.101         	11.977         	6.381
MS.102         	11.955         	6.381
MS.103         	11.93          	6.37
MS.104         	11.905         	6.386
MS.105         	11.882         	6.389
MS.106         	11.858         	6.417
MS.107         	11.835         	6.404
MS.108         	11.812         	6.39
MS.109         	11.787         	6.405
MS.110         	11.765         	6.411
MS.111         	11.74          	6.381
MS.112         	11.717         	6.395
MS.113         	11.695         	6.376
MS.114         	11.67          	6.378
MS.115         	11.648         	6.415
MS.116         	11.625         	6.417
MS.117         	11.6           	6.389
MS.118         	11.577         	6.412
MS.119         	11.555         	6.398
MS.120         	11.53          	6.409
MS.121         	11.507         	6.404
MS.122         	11.485         	6.389
MS.123         	11.462         	6.417
MS.124         	11.44          	6.38
MS.125         	11.417         	6.403
MS.126         	11.392         	6.422
MS.127         	11.37          	6.442
MS.128         	11.347         	6.415
MS.129         	11.325         	6.37
MS.130         	11.302         	6.426
MS.131         	11.28          	6.375
MS.132         	11.257         	6.378
MS.133         	11.235         	6.37
MS.134         	11.212         	6.389
MS.135         	11.19          	6.404
MS.136         	11.167         	6.425
MS.137         	11.145         	6.403
MS.138         	11.122         	6.378
MS.139         	11.1           	6.361
MS.140         	11.08          	6.398
MS.141         	11.057         	6.376
MS.142         	11.035         	6.344
MS.143         	11.012         	6.37
MS.144         	10.99          	6.4
MS.145         	10.97          	6.398
MS.146         	10.948         	6.371
MS.147         	10.925         	6.346
MS.148         	10.903         	6.439
MS.149         	10.882         	6.355
MS.150         	10.86          	6.414
MS.151         	10.837         	6.348
MS.152         	10.818         	6.414
MS.153         	10.795         	6.388
MS.154         	10.773         	6.372
MS.155         	10.752         	6.372
MS.156         	10.73          	6.403
MS.157         	10.707         	6.389
MS.158         	10.688         	6.371
MS.159         	10.665         	6.362
MS.160         	10.645         	6.379
MS.161         	10.622         	6.368
MS.162         	10.602         	6.423
MS.163         	10.58          	6.425
MS.164         	10.56          	6.35
MS.165         	10.537         	6.39
MS.166         	10.517         	6.364
MS.167         	10.497         	6.404
MS.168         	10.475         	6.407
MS.169         	10.455         	6.346
MS.170         	10.435         	6.364
MS.171         	10.412         	6.346
MS.172         	10.392         	6.376
MS.173         	10.372         	6.356
MS.174         	10.35          	6.406
MS.175         	10.33          	6.404
MS.176         	10.31          	6.38
MS.177         	10.29          	6.408
MS.178         	10.267         	6.373
MS.179         	10.247         	6.367
MS.180         	10.227         	6.364
MS.181         	10.207         	6.381
MS.182         	10.188         	6.356
MS.183         	10.165         	6.366
MS.184         	10.145         	6.362
MS.185         	10.125         	6.373
MS.186         	10.105         	6.385
MS.187         	10.085         	6.366
MS.188         	10.065         	6.415
MS.189         	10.045         	6.36
MS.190         	10.025         	6.35
MS.191         	10.005         	6.423
MS.192         	9.985          	6.382
MS.193         	9.965          	6.37
MS.194         	9.945          	6.384
MS.195         	9.925          	6.396
MS.196         	9.905          	6.407
MS.197         	9.885          	6.381
MS.198         	9.865          	6.359
MS.199         	9.845          	6.348
MS.200         	9.825          	6.358
MS.201         	9.807          	6.335
MS.202         	9.787          	6.372
MS.203         	9.767          	6.371
MS.204         	9.747          	6.36
MS.205         	9.727          	6.369
MS.206         	9.71           	6.313
MS.207         	9.69           	6.397
MS.208         	9.67           	6.375
MS.209         	9.65           	6.398
MS.210         	9.632          	6.44
MS.211         	9.613          	6.396
MS.212         	9.592          	6.34
MS.213         	9.575          	6.357
MS.214         	9.555          	6.38
MS.215         	9.535          	6.381
MS.216         	9.517          	6.357
MS.217         	9.497          	6.364
MS.218         	9.48           	6.339
MS.219         	9.46           	6.362
MS.220         	9.44           	6.375
MS.221         	9.422          	6.409
MS.222         	9.403          	6.395
MS.223         	9.385          	6.361
MS.224         	9.365          	6.388
MS.225         	9.347          	6.385
MS.226         	9.327          	6.395
MS.227         	9.31           	6.374
MS.228         	9.29           	6.424
MS.229         	9.273          	6.387
MS.230         	9.255          	6.381
MS.231         	9.235          	6.378
MS.232         	9.217          	6.398
MS.233         	9.198          	6.389
MS.234         	9.18           	6.371
MS.235         	9.162          	6.392
MS.236         	9.142          	6.409
MS.237         	9.125          	6.367
MS.238         	9.108          	6.365
MS.239         	9.09           	6.382
MS.240         	9.07           	6.37
MS.241         	9.052          	6.365
MS.242         	9.035          	6.423
MS.243         	9.017          	6.404
MS.244         	8.997          	6.362
MS.245         	8.98           	6.396
MS.246         	8.962          	6.38
MS.247         	8.945          	6.383
MS.248         	8.927          	6.379
MS.249         	8.91           	6.368
MS.250         	8.89           	6.356
MS.251         	8.872          	6.414
MS.252         	8.855          	6.396
MS.253         	8.837          	6.404
MS.254         	8.82           	6.354
MS.255         	8.802          	6.368
MS.256         	8.785          	6.394
MS.257         	8.767          	6.411
MS.258         	8.75           	6.354
MS.259         	8.733          	6.421
MS.260         	8.715          	6.373
MS.261         	8.698          	6.381
MS.262         	8.68           	6.384
MS.263         	8.662          	6.364
MS.264         	8.645          	6.401
MS.265         	8.627          	6.396
MS.266         	8.61           	6.384
MS.267         	8.595          	6.337
MS.268         	8.577          	6.367
MS.269         	8.56           	6.385
MS.270         	8.542          	6.436
MS.271         	8.525          	6.323
MS.272         	8.507          	6.372
MS.273         	8.492          	6.36
MS.274         	8.475          	6.368
MS.275         	8.457          	6.364
MS.276         	8.44           	6.368
MS.277         	8.425          	6.363
MS.278         	8.408          	6.376
MS.279         	8.39           	6.349
MS.280         	8.372          	6.346
MS.281         	8.358          	6.324
MS.282         	8.34           	6.356
MS.283         	8.323          	6.358
MS.284         	8.307          	6.396
MS.285         	8.29           	6.328
MS.286         	8.273          	6.376
MS.287         	8.257          	6.32
MS.288         	8.24           	6.353
MS.289         	8.225          	6.348
MS.290         	8.207          	6.335
MS.291         	8.19           	6.315
MS.292         	8.175          	6.351
MS.293         	8.158          	6.327
MS.294         	8.142          	6.405
MS.295         	8.125          	6.324
MS.296         	8.11           	6.343
MS.297         	8.092          	6.363
MS.298         	8.077          	6.332
MS.299         	8.06           	6.348
MS.300         	8.045          	6.356
MS.301         	8.03           	6.318
MS.302         	8.012          	6.31
MS.303         	7.997          	6.359
MS.304         	7.98           	6.355
MS.305         	7.965          	6.359
MS.306         	7.95           	6.384
MS.307         	7.932          	6.33
MS.308         	7.918          	6.36
MS.309         	7.902          	6.365
MS.310         	7.885          	6.338
MS.311         	7.87           	6.303
MS.312         	7.855          	6.349
MS.313         	7.837          	6.326
MS.314         	7.822          	6.382
MS.315         	7.807          	6.388
MS.316         	7.793          	6.383
MS.317         	7.775          	6.321
MS.318         	7.76           	6.32
MS.319         	7.745          	6.32
MS.320         	7.73           	6.346
MS.321         	7.715          	6.36
MS.322         	7.697          	6.32
MS.323         	7.682          	6.333
MS.324         	7.668          	6.353
MS.325         	7.652          	6.296
MS.326         	7.637          	6.331
MS.327         	7.622          	6.339
MS.328         	7.607          	6.292
MS.329         	7.592          	6.375
MS.330         	7.577          	6.303
MS.331         	7.562          	6.328
MS.332         	7.547          	6.314
MS.333         	7.53           	6.294
MS.334         	7.515          	6.302
MS.335         	7.5            	6.33
MS.336         	7.485          	6.335
MS.337         	7.47           	6.318
MS.338         	7.457          	6.261
MS.339         	7.442          	6.343
MS.340         	7.427          	6.323
MS.341         	7.412          	6.3
MS.342         	7.398          	6.345
MS.343         	7.382          	6.36
MS.344         	7.367          	6.309
MS.345         	7.352          	6.301
MS.346         	7.337          	6.278
MS.347         	7.322          	6.318
MS.348         	7.307          	6.303
MS.349         	7.295          	6.326
MS.350         	7.28           	6.272
MS.351         	7.265          	6.295
MS.352         	7.25           	6.227
MS.353         	7.235          	6.292
MS.354         	7.222          	6.232
MS.355         	7.207          	6.183
MS.356         	7.192          	6.245
MS.357         	7.177          	6.224
MS.358         	7.165          	6.25
MS.359         	7.15           	6.249
MS.360         	7.135          	6.282
MS.361         	7.12           	6.235
MS.362         	7.108          	6.262
MS.363         	7.092          	6.203
MS.364         	7.077          	6.198
MS.365         	7.065          	6.259
MS.366         	7.05           	6.208
MS.367         	7.035          	6.213
MS.368         	7.023          	6.237
MS.369         	7.007          	6.24
MS.370         	6.995          	6.248
MS.371         	6.98           	6.281
MS.372         	6.965          	6.175
MS.373         	6.952          	6.189
MS.374         	6.938          	6.218
MS.375         	6.925          	6.168
MS.376         	6.91           	6.209
MS.377         	6.898          	6.172
MS.378         	6.882          	6.178
MS.379         	6.87           	6.192
MS.380         	6.855          	6.216
MS.381         	6.842          	6.204
MS.382         	6.827          	6.187
MS.383         	6.815          	6.165
MS.384         	6.8            	6.181
MS.385         	6.787          	6.16
MS.386         	6.775          	6.152
MS.387         	6.76           	6.177
MS.388         	6.747          	6.189
MS.389         	6.733          	6.166
MS.390         	6.72           	6.111
MS.391         	6.707          	6.166
MS.392         	6.692          	6.1
MS.393         	6.68           	6.146
MS.394         	6.665          	6.144
MS.395         	6.652          	6.126
MS.396         	6.64           	6.141
MS.397         	6.628          	6.212
MS.398         	6.612          	6.068
MS.399         	6.6            	6.091
MS.400         	6.587          	6.066
MS.401         	6.572          	6.069
MS.402         	6.56           	6.03
MS.403         	6.547          	6.03
MS.404         	6.535          	6.075
MS.405         	6.52           	6.053
MS.406         	6.507          	6.025
MS.407         	6.495          	5.999
MS.408         	6.483          	5.999
MS.409         	6.47           	5.984
MS.410         	6.457          	5.935
MS.411         	6.442          	6.013
MS.412         	6.43           	5.958
MS.413         	6.418          	5.97
MS.414         	6.405          	5.944
MS.415         	6.392          	5.935
MS.416         	6.38           	5.941
MS.417         	6.367          	5.941
MS.418         	6.355          	5.986
MS.419         	6.34           	5.976
MS.420         	6.327          	5.912
MS.421         	6.315          	5.931
MS.422         	6.302          	5.926
MS.423         	6.29           	5.958
MS.424         	6.277          	5.92
MS.425         	6.265          	5.827
MS.426         	6.253          	5.926
MS.427         	6.24           	5.844
MS.428         	6.227          	5.85
MS.429         	6.215          	5.816
MS.430         	6.202          	5.862
MS.431         	6.19           	5.83
MS.432         	6.177          	5.831
MS.433         	6.165          	5.748
MS.434         	6.152          	5.827
MS.435         	6.142          	5.646
MS.436         	6.13           	5.77
MS.437         	6.117          	5.81
MS.438         	6.105          	5.655
MS.439         	6.092          	5.64
MS.440         	6.08           	5.828
MS.441         	6.067          	5.663
MS.442         	6.055          	5.439
MS.443         	6.045          	5.602
MS.444         	6.032          	5.637
MS.445         	6.02           	5.541
MS.446         	6.007          	5.486
MS.447         	5.995          	5.375
MS.448         	5.985          	5.451
MS.449         	5.972          	5.391
MS.450         	5.96           	5.412
MS.451         	5.947          	5.422
MS.452         	5.935          	5.406
MS.453         	5.925          	5.37
MS.454         	5.912          	5.369
MS.455         	5.9            	5.24
MS.456         	5.89           	5.351
MS.457         	5.878          	5.283
MS.458         	5.865          	5.471
MS.459         	5.852          	5.222
MS.460         	5.842          	5.409
MS.461         	5.83           	5.272
MS.462         	5.817          	5.22
MS.463         	5.807          	5.181
MS.464         	5.795          	5.198
MS.465         	5.785          	5.138
MS.466         	5.773          	5.048
MS.467         	5.76           	5.058
MS.468         	5.75           	5.105
MS.469         	5.737          	5.158
MS.470         	5.725          	4.943
MS.471         	5.715          	4.777
MS.472         	5.702          	4.95
MS.473         	5.692          	5.002
MS.474         	5.68           	4.813
MS.475         	5.67           	4.86
MS.476         	5.657          	4.944
MS.477         	5.648          	4.74
MS.478         	5.635          	4.616
MS.479         	5.625          	4.796
MS.480         	5.612          	4.811
MS.481         	5.602          	4.844
MS.482         	5.59           	4.792
MS.483         	5.58           	4.602
MS.484         	5.567          	4.648
MS.485         	5.557          	4.669
MS.486         	5.545          	4.61
MS.487         	5.535          	4.458
MS.488         	5.525          	4.49
MS.489         	5.512          	4.397
MS.490         	5.503          	4.46
MS.491         	5.49           	4.359
MS.492         	5.48           	4.29
MS.493         	5.47           	4.529
MS.494         	5.457          	4.39
MS.495         	5.447          	4.143
MS.496         	5.435          	4.298
MS.497         	5.425          	4.33
MS.498         	5.415          	4.337
MS.499         	5.402          	4.153
MS.500         	5.392          	4.172
MS.501         	5.382          	4.109
MS.502         	5.37           	4.199
MS.503         	5.36           	4.141
