File:              	C:\Qtrac\Data\ME2C30619A.QZD
Name:              	 ME18D
Protocol:          	MSCAN-MV
Date:              	19/6/23
Date of birth:     	18/11/01
Age:               	21
Sex:               	M
Temperature:       	32.7
S/R sites:         	Knee CF-TA
NC/disease:        	NC
Operator:          	BY
Comments:
M-SCAN DATA (Repeat 1/3, 11.3-3.7m)
Scanpts: 1, 30, 592, 619
Stim. (mA)     	Amp. (mV)
MS.1           	6              	4.495
MS.2           	6              	4.523
MS.3           	6              	4.492
MS.4           	6              	4.518
MS.5           	6              	4.487
MS.6           	6              	4.496
MS.7           	6              	4.49
MS.8           	6              	4.516
MS.9           	6              	4.53
MS.10          	6              	4.537
MS.11          	6              	4.528
MS.12          	6              	4.514
MS.13          	6              	4.515
MS.14          	6              	4.525
MS.15          	6              	4.506
MS.16          	6              	4.514
MS.17          	6              	4.479
MS.18          	6              	4.509
MS.19          	6              	4.515
MS.20          	6              	4.514
MS.21          	6              	4.515
MS.22          	6              	4.514
MS.23          	6              	4.484
MS.24          	5.975          	4.493
MS.25          	5.965          	4.492
MS.26          	5.952          	4.498
MS.27          	5.94           	4.487
MS.28          	5.927          	4.49
MS.29          	5.918          	4.524
MS.30          	5.905          	4.51
MS.31          	5.892          	4.486
MS.32          	5.88           	4.496
MS.33          	5.87           	4.501
MS.34          	5.858          	4.497
MS.35          	5.845          	4.494
MS.36          	5.835          	4.494
MS.37          	5.822          	4.497
MS.38          	5.81           	4.499
MS.39          	5.8            	4.512
MS.40          	5.787          	4.47
MS.41          	5.777          	4.514
MS.42          	5.765          	4.474
MS.43          	5.753          	4.484
MS.44          	5.742          	4.484
MS.45          	5.73           	4.491
MS.46          	5.72           	4.491
MS.47          	5.707          	4.463
MS.48          	5.695          	4.46
MS.49          	5.685          	4.451
MS.50          	5.672          	4.471
MS.51          	5.662          	4.484
MS.52          	5.65           	4.47
MS.53          	5.64           	4.471
MS.54          	5.628          	4.471
MS.55          	5.617          	4.463
MS.56          	5.605          	4.464
MS.57          	5.595          	4.46
MS.58          	5.582          	4.468
MS.59          	5.572          	4.448
MS.60          	5.56           	4.45
MS.61          	5.55           	4.456
MS.62          	5.537          	4.47
MS.63          	5.527          	4.456
MS.64          	5.517          	4.469
MS.65          	5.505          	4.468
MS.66          	5.495          	4.453
MS.67          	5.483          	4.457
MS.68          	5.472          	4.444
MS.69          	5.463          	4.424
MS.70          	5.45           	4.431
MS.71          	5.44           	4.429
MS.72          	5.43           	4.435
MS.73          	5.418          	4.433
MS.74          	5.407          	4.454
MS.75          	5.398          	4.443
MS.76          	5.385          	4.422
MS.77          	5.375          	4.435
MS.78          	5.365          	4.427
MS.79          	5.352          	4.424
MS.80          	5.342          	4.431
MS.81          	5.332          	4.426
MS.82          	5.322          	4.441
MS.83          	5.31           	4.44
MS.84          	5.3            	4.434
MS.85          	5.29           	4.418
MS.86          	5.28           	4.41
MS.87          	5.267          	4.417
MS.88          	5.257          	4.429
MS.89          	5.247          	4.414
MS.90          	5.237          	4.435
MS.91          	5.227          	4.42
MS.92          	5.215          	4.42
MS.93          	5.205          	4.392
MS.94          	5.195          	4.418
MS.95          	5.185          	4.412
MS.96          	5.175          	4.431
MS.97          	5.165          	4.426
MS.98          	5.155          	4.426
MS.99          	5.142          	4.405
MS.100         	5.132          	4.412
MS.101         	5.122          	4.407
MS.102         	5.112          	4.391
MS.103         	5.102          	4.404
MS.104         	5.092          	4.413
MS.105         	5.082          	4.41
MS.106         	5.072          	4.382
MS.107         	5.062          	4.403
MS.108         	5.052          	4.398
MS.109         	5.043          	4.373
MS.110         	5.032          	4.406
MS.111         	5.023          	4.388
MS.112         	5.012          	4.405
MS.113         	5.003          	4.398
MS.114         	4.992          	4.386
MS.115         	4.983          	4.349
MS.116         	4.972          	4.367
MS.117         	4.963          	4.376
MS.118         	4.952          	4.37
MS.119         	4.943          	4.355
MS.120         	4.932          	4.365
MS.121         	4.922          	4.37
MS.122         	4.912          	4.382
MS.123         	4.902          	4.362
MS.124         	4.892          	4.365
MS.125         	4.882          	4.355
MS.126         	4.872          	4.333
MS.127         	4.862          	4.357
MS.128         	4.855          	4.353
MS.129         	4.845          	4.34
MS.130         	4.835          	4.374
MS.131         	4.825          	4.326
MS.132         	4.815          	4.364
MS.133         	4.805          	4.345
MS.134         	4.795          	4.346
MS.135         	4.787          	4.337
MS.136         	4.777          	4.356
MS.137         	4.767          	4.323
MS.138         	4.757          	4.327
MS.139         	4.747          	4.301
MS.140         	4.737          	4.298
MS.141         	4.73           	4.329
MS.142         	4.72           	4.322
MS.143         	4.71           	4.314
MS.144         	4.7            	4.298
MS.145         	4.693          	4.279
MS.146         	4.682          	4.336
MS.147         	4.673          	4.254
MS.148         	4.662          	4.335
MS.149         	4.655          	4.33
MS.150         	4.645          	4.312
MS.151         	4.635          	4.288
MS.152         	4.628          	4.326
MS.153         	4.617          	4.313
MS.154         	4.608          	4.242
MS.155         	4.597          	4.291
MS.156         	4.59           	4.24
MS.157         	4.58           	4.264
MS.158         	4.57           	4.278
MS.159         	4.562          	4.224
MS.160         	4.552          	4.276
MS.161         	4.545          	4.264
MS.162         	4.535          	4.258
MS.163         	4.525          	4.217
MS.164         	4.517          	4.24
MS.165         	4.507          	4.25
MS.166         	4.497          	4.241
MS.167         	4.49           	4.215
MS.168         	4.48           	4.282
MS.169         	4.472          	4.229
MS.170         	4.463          	4.133
MS.171         	4.455          	4.229
MS.172         	4.445          	4.24
MS.173         	4.435          	4.215
MS.174         	4.427          	4.149
MS.175         	4.418          	4.13
MS.176         	4.41           	4.133
MS.177         	4.4            	4.136
MS.178         	4.392          	4.178
MS.179         	4.382          	4.135
MS.180         	4.375          	4.122
MS.181         	4.365          	4.127
MS.182         	4.358          	4.184
MS.183         	4.347          	4.034
MS.184         	4.34           	4.106
MS.185         	4.33           	4.106
MS.186         	4.322          	4.041
MS.187         	4.312          	4.159
MS.188         	4.305          	4.149
MS.189         	4.298          	4.069
MS.190         	4.287          	4.091
MS.191         	4.28           	4.055
MS.192         	4.27           	4.221
MS.193         	4.262          	4.072
MS.194         	4.253          	4.009
MS.195         	4.245          	4.03
MS.196         	4.237          	4.078
MS.197         	4.227          	3.995
MS.198         	4.22           	4.107
MS.199         	4.21           	3.938
MS.200         	4.202          	4.112
MS.201         	4.195          	3.993
MS.202         	4.185          	3.972
MS.203         	4.177          	4.054
MS.204         	4.17           	3.99
MS.205         	4.16           	3.956
MS.206         	4.152          	3.943
MS.207         	4.145          	3.918
MS.208         	4.135          	3.912
MS.209         	4.128          	3.843
MS.210         	4.12           	3.879
MS.211         	4.112          	3.934
MS.212         	4.102          	3.903
MS.213         	4.095          	3.755
MS.214         	4.088          	3.743
MS.215         	4.077          	3.914
MS.216         	4.07           	3.887
MS.217         	4.062          	3.863
MS.218         	4.055          	3.824
MS.219         	4.045          	3.815
MS.220         	4.037          	3.744
MS.221         	4.03           	3.848
MS.222         	4.023          	3.782
MS.223         	4.015          	3.858
MS.224         	4.005          	3.708
MS.225         	3.997          	3.735
MS.226         	3.99           	3.754
MS.227         	3.982          	3.678
MS.228         	3.975          	3.769
MS.229         	3.965          	3.581
MS.230         	3.957          	3.688
MS.231         	3.95           	3.655
MS.232         	3.942          	3.627
MS.233         	3.935          	3.597
MS.234         	3.928          	3.671
MS.235         	3.918          	3.578
MS.236         	3.91           	3.583
MS.237         	3.902          	3.657
MS.238         	3.895          	3.672
MS.239         	3.887          	3.448
MS.240         	3.88           	3.545
MS.241         	3.872          	3.595
MS.242         	3.865          	3.619
MS.243         	3.857          	3.57
MS.244         	3.85           	3.589
MS.245         	3.84           	3.55
MS.246         	3.832          	3.63
MS.247         	3.825          	3.557
MS.248         	3.817          	3.522
MS.249         	3.81           	3.485
MS.250         	3.803          	3.47
MS.251         	3.795          	3.396
MS.252         	3.787          	3.336
MS.253         	3.78           	3.423
MS.254         	3.772          	3.406
MS.255         	3.765          	3.375
MS.256         	3.757          	3.476
MS.257         	3.75           	3.397
MS.258         	3.742          	3.304
MS.259         	3.735          	3.307
MS.260         	3.727          	3.246
MS.261         	3.72           	3.182
MS.262         	3.712          	3.246
MS.263         	3.705          	3.336
MS.264         	3.697          	3.29
MS.265         	3.69           	3.262
MS.266         	3.682          	3.244
MS.267         	3.675          	3.225
MS.268         	3.668          	3.227
MS.269         	3.66           	3.157
MS.270         	3.655          	3.206
MS.271         	3.647          	3.195
MS.272         	3.64           	3.102
MS.273         	3.632          	3.167
MS.274         	3.625          	3.19
MS.275         	3.617          	3.084
MS.276         	3.61           	3.013
MS.277         	3.602          	3.012
MS.278         	3.595          	2.968
MS.279         	3.587          	2.852
MS.280         	3.582          	2.818
MS.281         	3.575          	2.937
MS.282         	3.567          	2.885
MS.283         	3.56           	2.807
MS.284         	3.553          	2.869
MS.285         	3.545          	2.783
MS.286         	3.537          	2.843
MS.287         	3.533          	2.737
MS.288         	3.525          	2.753
MS.289         	3.517          	2.748
MS.290         	3.51           	2.706
MS.291         	3.502          	2.661
MS.292         	3.497          	2.659
MS.293         	3.49           	2.52
MS.294         	3.482          	2.58
MS.295         	3.475          	2.584
MS.296         	3.467          	2.704
MS.297         	3.462          	2.612
MS.298         	3.455          	2.687
MS.299         	3.447          	2.351
MS.300         	3.44           	2.601
MS.301         	3.435          	2.46
MS.302         	3.428          	2.444
MS.303         	3.42           	2.527
MS.304         	3.412          	2.302
MS.305         	3.408          	2.394
MS.306         	3.4            	2.366
MS.307         	3.392          	2.356
MS.308         	3.387          	2.336
MS.309         	3.38           	2.38
MS.310         	3.372          	2.336
MS.311         	3.365          	2.265
MS.312         	3.36           	2.208
MS.313         	3.352          	2.297
MS.314         	3.345          	2.173
MS.315         	3.34           	2.293
MS.316         	3.332          	2.099
MS.317         	3.325          	2.113
MS.318         	3.32           	2.132
MS.319         	3.312          	2.102
MS.320         	3.305          	2.13
MS.321         	3.3            	2.041
MS.322         	3.293          	2.12
MS.323         	3.287          	2.126
MS.324         	3.28           	2.006
MS.325         	3.273          	2.151
MS.326         	3.267          	2.053
MS.327         	3.26           	1.998
MS.328         	3.252          	1.992
MS.329         	3.247          	1.984
MS.330         	3.24           	2.007
MS.331         	3.235          	1.934
MS.332         	3.227          	1.946
MS.333         	3.22           	1.972
MS.334         	3.215          	1.993
MS.335         	3.207          	1.881
MS.336         	3.202          	1.93
MS.337         	3.195          	1.879
MS.338         	3.19           	1.926
MS.339         	3.182          	1.926
MS.340         	3.178          	1.86
MS.341         	3.17           	1.882
MS.342         	3.162          	1.921
MS.343         	3.158          	1.86
MS.344         	3.15           	1.912
MS.345         	3.145          	1.824
MS.346         	3.138          	1.818
MS.347         	3.132          	1.779
MS.348         	3.125          	1.744
MS.349         	3.12           	1.751
MS.350         	3.112          	1.854
MS.351         	3.107          	1.779
MS.352         	3.1            	1.788
MS.353         	3.095          	1.7
MS.354         	3.087          	1.769
MS.355         	3.082          	1.719
MS.356         	3.077          	1.591
MS.357         	3.07           	1.606
MS.358         	3.065          	1.672
MS.359         	3.057          	1.67
MS.360         	3.053          	1.616
MS.361         	3.045          	1.599
MS.362         	3.04           	1.559
MS.363         	3.033          	1.658
MS.364         	3.027          	1.663
MS.365         	3.023          	1.584
MS.366         	3.015          	1.58
MS.367         	3.01           	1.544
MS.368         	3.002          	1.473
MS.369         	2.997          	1.587
MS.370         	2.992          	1.616
MS.371         	2.985          	1.559
MS.372         	2.98           	1.469
MS.373         	2.972          	1.546
MS.374         	2.967          	1.465
MS.375         	2.962          	1.389
MS.376         	2.955          	1.429
MS.377         	2.95           	1.337
MS.378         	2.945          	1.427
MS.379         	2.938          	1.384
MS.380         	2.932          	1.393
MS.381         	2.928          	1.277
MS.382         	2.92           	1.302
MS.383         	2.915          	1.312
MS.384         	2.91           	1.239
MS.385         	2.902          	1.284
MS.386         	2.898          	1.236
MS.387         	2.892          	1.254
MS.388         	2.885          	1.147
MS.389         	2.88           	1.252
MS.390         	2.875          	1.14
MS.391         	2.867          	1.166
MS.392         	2.862          	1.116
MS.393         	2.857          	1.146
MS.394         	2.85           	1.235
MS.395         	2.845          	1.105
MS.396         	2.84           	1.098
MS.397         	2.835          	1.098
MS.398         	2.827          	0.993
MS.399         	2.822          	1.014
MS.400         	2.817          	1.107
MS.401         	2.812          	1.002
MS.402         	2.805          	1.011
MS.403         	2.8            	0.974
MS.404         	2.795          	0.932
MS.405         	2.79           	0.947
MS.406         	2.783          	0.978
MS.407         	2.777          	0.898
MS.408         	2.773          	0.888
MS.409         	2.767          	0.853
MS.410         	2.763          	0.864
MS.411         	2.755          	0.949
MS.412         	2.75           	0.869
MS.413         	2.745          	0.773
MS.414         	2.74           	0.764
MS.415         	2.735          	0.9
MS.416         	2.727          	0.899
MS.417         	2.722          	0.916
MS.418         	2.717          	0.814
MS.419         	2.712          	0.733
MS.420         	2.707          	0.778
MS.421         	2.702          	0.727
MS.422         	2.695          	0.844
MS.423         	2.69           	0.746
MS.424         	2.685          	0.729
MS.425         	2.68           	0.668
MS.426         	2.675          	0.674
MS.427         	2.67           	0.671
MS.428         	2.665          	0.65
MS.429         	2.658          	0.714
MS.430         	2.652          	0.663
MS.431         	2.648          	0.614
MS.432         	2.642          	0.779
MS.433         	2.638          	0.679
MS.434         	2.632          	0.651
MS.435         	2.628          	0.511
MS.436         	2.622          	0.565
MS.437         	2.617          	0.472
MS.438         	2.61           	0.41
MS.439         	2.605          	0.52
MS.440         	2.6            	0.535
MS.441         	2.595          	0.46
MS.442         	2.59           	0.588
MS.443         	2.585          	0.463
MS.444         	2.58           	0.574
MS.445         	2.575          	0.506
MS.446         	2.57           	0.379
MS.447         	2.565          	0.397
MS.448         	2.56           	0.396
MS.449         	2.555          	0.397
MS.450         	2.55           	0.377
MS.451         	2.545          	0.391
MS.452         	2.54           	0.471
MS.453         	2.535          	0.375
MS.454         	2.53           	0.36
MS.455         	2.525          	0.388
MS.456         	2.517          	0.355
MS.457         	2.513          	0.361
MS.458         	2.507          	0.355
MS.459         	2.503          	0.443
MS.460         	2.497          	0.294
MS.461         	2.492          	0.252
MS.462         	2.487          	0.255
MS.463         	2.482          	0.221
MS.464         	2.48           	0.274
MS.465         	2.475          	0.24
MS.466         	2.47           	0.271
MS.467         	2.465          	0.262
MS.468         	2.46           	0.178
MS.469         	2.455          	0.219
MS.470         	2.45           	0.229
MS.471         	2.445          	0.184
MS.472         	2.44           	0.192
MS.473         	2.435          	0.22
MS.474         	2.43           	0.212
MS.475         	2.425          	0.174
MS.476         	2.42           	0.181
MS.477         	2.415          	0.151
MS.478         	2.41           	0.161
MS.479         	2.405          	0.104
MS.480         	2.4            	0.132
MS.481         	2.395          	0.197
MS.482         	2.39           	0.129
MS.483         	2.388          	0.111
MS.484         	2.382          	0.121
MS.485         	2.378          	0.107
MS.486         	2.372          	0.101
MS.487         	2.367          	0.141
MS.488         	2.362          	0.092
MS.489         	2.357          	0.14
MS.490         	2.352          	0.086
MS.491         	2.347          	0.072
MS.492         	2.345          	0.129
MS.493         	2.34           	0.072
MS.494         	2.335          	0.063
MS.495         	2.33           	0.054
MS.496         	2.325          	0.102
MS.497         	2.32           	0.096
MS.498         	2.315          	0.065
MS.499         	2.31           	0.04
MS.500         	2.307          	0.059
MS.501         	2.303          	0.048
MS.502         	2.297          	0.053
MS.503         	2.293          	0.049
