File:              	C:\Qtrac\Data\ME2C30707C.QZD
Name:              	 JO31X
Protocol:          	MSCAN-MV
Date:              	7/7/23
Date of birth:     	31/10/91
Age:               	31
Sex:               	M
Temperature:       	30.2
S/R sites:         	Knee CF-TA
NC/disease:        	NC
Operator:          	BY
Comments:
M-SCAN DATA (Repeat 2/3, 18.6-12m)
Scanpts: 15, 24, 495, 540
Stim. (mA)     	Amp. (mV)
MS.1           	19.5           	5.928
MS.2           	19.5           	5.836
MS.3           	19.5           	5.915
MS.4           	19.5           	5.925
MS.5           	19.5           	5.79
MS.6           	19.5           	5.927
MS.7           	19.5           	5.903
MS.8           	19.5           	5.946
MS.9           	19.5           	5.925
MS.10          	19.5           	5.818
MS.11          	19.5           	5.95
MS.12          	19.5           	5.935
MS.13          	19.5           	5.822
MS.14          	19.5           	5.925
MS.15          	19.5           	5.93
MS.16          	19.5           	5.945
MS.17          	19.5           	5.944
MS.18          	19.5           	5.932
MS.19          	19.5           	5.897
MS.20          	19.5           	5.919
MS.21          	19.5           	5.928
MS.22          	19.5           	5.932
MS.23          	19.5           	5.912
MS.24          	19.46          	5.919
MS.25          	19.422         	5.934
MS.26          	19.382         	5.775
MS.27          	19.345         	5.792
MS.28          	19.305         	5.764
MS.29          	19.267         	5.894
MS.30          	19.23          	5.913
MS.31          	19.19          	5.753
MS.32          	19.153         	5.807
MS.33          	19.115         	5.798
MS.34          	19.075         	5.792
MS.35          	19.038         	5.872
MS.36          	19             	5.894
MS.37          	18.962         	5.818
MS.38          	18.922         	5.762
MS.39          	18.885         	5.768
MS.40          	18.847         	5.739
MS.41          	18.81          	5.615
MS.42          	18.772         	5.81
MS.43          	18.735         	5.598
MS.44          	18.698         	5.615
MS.45          	18.66          	5.612
MS.46          	18.622         	5.587
MS.47          	18.585         	5.726
MS.48          	18.55          	5.589
MS.49          	18.512         	5.543
MS.50          	18.475         	5.696
MS.51          	18.438         	5.596
MS.52          	18.4           	5.546
MS.53          	18.365         	5.566
MS.54          	18.327         	5.391
MS.55          	18.29          	5.615
MS.56          	18.255         	5.569
MS.57          	18.217         	5.567
MS.58          	18.182         	5.504
MS.59          	18.145         	5.46
MS.60          	18.11          	5.457
MS.61          	18.073         	5.49
MS.62          	18.038         	5.36
MS.63          	18             	5.502
MS.64          	17.965         	5.41
MS.65          	17.93          	5.357
MS.66          	17.892         	5.403
MS.67          	17.858         	5.467
MS.68          	17.823         	5.399
MS.69          	17.785         	5.329
MS.70          	17.75          	5.323
MS.71          	17.715         	5.276
MS.72          	17.68          	5.377
MS.73          	17.645         	5.306
MS.74          	17.61          	5.189
MS.75          	17.575         	5.225
MS.76          	17.54          	5.215
MS.77          	17.503         	5.048
MS.78          	17.47          	5.078
MS.79          	17.435         	5.13
MS.80          	17.4           	5.189
MS.81          	17.365         	4.93
MS.82          	17.33          	5.005
MS.83          	17.295         	5.032
MS.84          	17.26          	4.935
MS.85          	17.225         	5.017
MS.86          	17.192         	4.936
MS.87          	17.157         	5.012
MS.88          	17.122         	4.913
MS.89          	17.087         	4.891
MS.90          	17.055         	4.84
MS.91          	17.02          	4.91
MS.92          	16.987         	5.103
MS.93          	16.952         	4.904
MS.94          	16.917         	4.913
MS.95          	16.885         	4.918
MS.96          	16.85          	4.784
MS.97          	16.817         	4.914
MS.98          	16.785         	4.805
MS.99          	16.75          	4.553
MS.100         	16.717         	4.916
MS.101         	16.682         	4.707
MS.102         	16.65          	4.702
MS.103         	16.618         	4.786
MS.104         	16.583         	4.667
MS.105         	16.55          	4.737
MS.106         	16.517         	4.619
MS.107         	16.485         	4.771
MS.108         	16.452         	4.739
MS.109         	16.417         	4.804
MS.110         	16.385         	4.528
MS.111         	16.352         	4.419
MS.112         	16.32          	4.315
MS.113         	16.288         	4.272
MS.114         	16.255         	4.354
MS.115         	16.222         	4.502
MS.116         	16.19          	4.272
MS.117         	16.157         	4.267
MS.118         	16.125         	4.324
MS.119         	16.092         	4.124
MS.120         	16.062         	4.305
MS.121         	16.03          	4.176
MS.122         	15.997         	3.928
MS.123         	15.965         	4.091
MS.124         	15.932         	3.871
MS.125         	15.902         	4.162
MS.126         	15.87          	3.9
MS.127         	15.837         	3.778
MS.128         	15.807         	3.895
MS.129         	15.775         	3.884
MS.130         	15.742         	3.89
MS.131         	15.712         	3.823
MS.132         	15.68          	3.825
MS.133         	15.65          	3.827
MS.134         	15.617         	3.84
MS.135         	15.587         	3.912
MS.136         	15.555         	3.735
MS.137         	15.525         	3.842
MS.138         	15.492         	3.669
MS.139         	15.462         	3.729
MS.140         	15.432         	3.654
MS.141         	15.4           	3.619
MS.142         	15.37          	3.557
MS.143         	15.34          	3.49
MS.144         	15.307         	3.657
MS.145         	15.277         	3.381
MS.146         	15.247         	3.405
MS.147         	15.217         	3.642
MS.148         	15.188         	3.536
MS.149         	15.157         	3.367
MS.150         	15.125         	3.546
MS.151         	15.095         	3.383
MS.152         	15.065         	3.486
MS.153         	15.035         	3.31
MS.154         	15.005         	3.536
MS.155         	14.975         	3.497
MS.156         	14.945         	3.304
MS.157         	14.915         	3.312
MS.158         	14.885         	3.251
MS.159         	14.855         	3.328
MS.160         	14.827         	3.431
MS.161         	14.797         	3.26
MS.162         	14.767         	3.129
MS.163         	14.737         	3.168
MS.164         	14.707         	2.982
MS.165         	14.68          	2.99
MS.166         	14.65          	3.144
MS.167         	14.62          	3.063
MS.168         	14.59          	3.078
MS.169         	14.562         	2.98
MS.170         	14.532         	2.864
MS.171         	14.505         	3.052
MS.172         	14.475         	2.742
MS.173         	14.445         	3.051
MS.174         	14.417         	2.84
MS.175         	14.387         	2.745
MS.176         	14.36          	2.865
MS.177         	14.33          	2.856
MS.178         	14.302         	2.773
MS.179         	14.273         	2.741
MS.180         	14.245         	2.737
MS.181         	14.217         	2.761
MS.182         	14.188         	2.684
MS.183         	14.16          	2.723
MS.184         	14.132         	2.628
MS.185         	14.102         	2.598
MS.186         	14.075         	2.697
MS.187         	14.047         	2.637
MS.188         	14.02          	2.567
MS.189         	13.99          	2.663
MS.190         	13.962         	2.628
MS.191         	13.935         	2.639
MS.192         	13.907         	2.585
MS.193         	13.88          	2.559
MS.194         	13.852         	2.516
MS.195         	13.825         	2.523
MS.196         	13.797         	2.591
MS.197         	13.77          	2.513
MS.198         	13.742         	2.437
MS.199         	13.715         	2.52
MS.200         	13.688         	2.518
MS.201         	13.66          	2.411
MS.202         	13.632         	2.504
MS.203         	13.605         	2.477
MS.204         	13.577         	2.469
MS.205         	13.55          	2.405
MS.206         	13.523         	2.454
MS.207         	13.497         	2.374
MS.208         	13.47          	2.326
MS.209         	13.443         	2.277
MS.210         	13.415         	2.269
MS.211         	13.387         	2.286
MS.212         	13.362         	2.181
MS.213         	13.335         	2.164
MS.214         	13.307         	2.091
MS.215         	13.282         	2.147
MS.216         	13.255         	2.063
MS.217         	13.23          	2.075
MS.218         	13.202         	2.015
MS.219         	13.175         	1.988
MS.220         	13.15          	2.073
MS.221         	13.122         	1.985
MS.222         	13.097         	2.01
MS.223         	13.07          	1.938
MS.224         	13.045         	1.931
MS.225         	13.02          	1.971
MS.226         	12.992         	1.986
MS.227         	12.967         	1.777
MS.228         	12.94          	1.852
MS.229         	12.915         	1.799
MS.230         	12.89          	1.757
MS.231         	12.865         	1.608
MS.232         	12.837         	1.675
MS.233         	12.812         	1.691
MS.234         	12.787         	1.624
MS.235         	12.762         	1.747
MS.236         	12.735         	1.69
MS.237         	12.71          	1.499
MS.238         	12.685         	1.6
MS.239         	12.66          	1.613
MS.240         	12.635         	1.483
MS.241         	12.61          	1.525
MS.242         	12.585         	1.467
MS.243         	12.557         	1.431
MS.244         	12.532         	1.525
MS.245         	12.507         	1.405
MS.246         	12.483         	1.309
MS.247         	12.457         	1.27
MS.248         	12.432         	1.183
MS.249         	12.41          	1.312
MS.250         	12.385         	1.315
MS.251         	12.36          	1.342
MS.252         	12.335         	1.273
MS.253         	12.31          	1.37
MS.254         	12.285         	1.253
MS.255         	12.26          	1.233
MS.256         	12.238         	1.135
MS.257         	12.212         	1.063
MS.258         	12.188         	1.067
MS.259         	12.162         	1.106
MS.260         	12.14          	1.147
MS.261         	12.115         	1.181
MS.262         	12.09          	1.237
MS.263         	12.068         	1.133
MS.264         	12.042         	1.083
MS.265         	12.017         	1.078
MS.266         	11.995         	1.076
MS.267         	11.97          	0.969
MS.268         	11.945         	0.909
MS.269         	11.922         	0.955
MS.270         	11.898         	0.862
MS.271         	11.875         	0.932
MS.272         	11.85          	0.828
MS.273         	11.827         	0.767
MS.274         	11.802         	0.825
MS.275         	11.78          	0.854
MS.276         	11.757         	0.815
MS.277         	11.733         	0.795
MS.278         	11.71          	0.788
MS.279         	11.688         	0.84
MS.280         	11.662         	0.806
MS.281         	11.64          	0.693
MS.282         	11.617         	0.754
MS.283         	11.592         	0.778
MS.284         	11.57          	0.666
MS.285         	11.547         	0.717
MS.286         	11.525         	0.692
MS.287         	11.5           	0.697
MS.288         	11.477         	0.632
MS.289         	11.455         	0.674
MS.290         	11.432         	0.651
MS.291         	11.41          	0.696
MS.292         	11.387         	0.596
MS.293         	11.363         	0.62
MS.294         	11.34          	0.671
MS.295         	11.318         	0.587
MS.296         	11.295         	0.688
MS.297         	11.273         	0.641
MS.298         	11.25          	0.565
MS.299         	11.227         	0.577
MS.300         	11.205         	0.505
MS.301         	11.182         	0.543
MS.302         	11.16          	0.532
MS.303         	11.137         	0.542
MS.304         	11.117         	0.5
MS.305         	11.095         	0.536
MS.306         	11.073         	0.472
MS.307         	11.05          	0.469
MS.308         	11.028         	0.463
MS.309         	11.005         	0.549
MS.310         	10.983         	0.511
MS.311         	10.962         	0.444
MS.312         	10.94          	0.456
MS.313         	10.917         	0.451
MS.314         	10.895         	0.473
MS.315         	10.875         	0.416
MS.316         	10.852         	0.409
MS.317         	10.83          	0.421
MS.318         	10.81          	0.416
MS.319         	10.787         	0.384
MS.320         	10.765         	0.374
MS.321         	10.745         	0.369
MS.322         	10.722         	0.402
MS.323         	10.702         	0.334
MS.324         	10.68          	0.41
MS.325         	10.66          	0.322
MS.326         	10.637         	0.396
MS.327         	10.617         	0.389
MS.328         	10.595         	0.351
MS.329         	10.575         	0.284
MS.330         	10.552         	0.291
MS.331         	10.532         	0.316
MS.332         	10.51          	0.33
MS.333         	10.49          	0.333
MS.334         	10.47          	0.324
MS.335         	10.448         	0.286
MS.336         	10.427         	0.28
MS.337         	10.407         	0.331
MS.338         	10.385         	0.323
MS.339         	10.365         	0.266
MS.340         	10.345         	0.279
MS.341         	10.323         	0.232
MS.342         	10.302         	0.264
MS.343         	10.282         	0.263
MS.344         	10.262         	0.222
MS.345         	10.24          	0.243
MS.346         	10.22          	0.239
MS.347         	10.2           	0.193
MS.348         	10.18          	0.23
MS.349         	10.16          	0.189
MS.350         	10.14          	0.222
MS.351         	10.12          	0.231
MS.352         	10.1           	0.159
MS.353         	10.077         	0.251
MS.354         	10.057         	0.18
MS.355         	10.037         	0.197
MS.356         	10.017         	0.186
MS.357         	9.997          	0.159
MS.358         	9.977          	0.17
MS.359         	9.957          	0.184
MS.360         	9.938          	0.198
MS.361         	9.917          	0.182
MS.362         	9.9            	0.148
MS.363         	9.88           	0.157
MS.364         	9.86           	0.18
MS.365         	9.84           	0.165
MS.366         	9.82           	0.161
MS.367         	9.8            	0.145
MS.368         	9.78           	0.096
MS.369         	9.76           	0.123
MS.370         	9.742          	0.169
MS.371         	9.722          	0.13
MS.372         	9.702          	0.14
MS.373         	9.682          	0.177
MS.374         	9.665          	0.11
MS.375         	9.645          	0.097
MS.376         	9.625          	0.098
MS.377         	9.608          	0.071
MS.378         	9.587          	0.126
MS.379         	9.568          	0.109
MS.380         	9.55           	0.146
MS.381         	9.53           	0.102
MS.382         	9.51           	0.091
MS.383         	9.492          	0.052
MS.384         	9.472          	0.114
MS.385         	9.455          	0.092
MS.386         	9.435          	0.117
MS.387         	9.415          	0.078
MS.388         	9.398          	0.051
MS.389         	9.377          	0.049
MS.390         	9.36           	0.091
MS.391         	9.34           	0.062
MS.392         	9.323          	0.049
MS.393         	9.302          	0.000
MS.394         	9.285          	-0.004
MS.395         	9.267          	0.036
MS.396         	9.247          	0.068
MS.397         	9.23           	0.054
MS.398         	9.21           	0.006
MS.399         	9.193          	0.041
MS.400         	9.175          	0.057
MS.401         	9.155          	0.036
MS.402         	9.137          	0.025
MS.403         	9.12           	0.012
MS.404         	9.102          	0.021
MS.405         	9.082          	0.042
MS.406         	9.065          	0.024
MS.407         	9.047          	0.004
MS.408         	9.03           	0.043
MS.409         	9.01           	0.042
MS.410         	8.992          	0.014
MS.411         	8.975          	0.005
MS.412         	8.957          	-0.005
MS.413         	8.94           	0.035
MS.414         	8.92           	0.022
MS.415         	8.903          	-0.001
MS.416         	8.885          	0.031
MS.417         	8.867          	-0.004
MS.418         	8.85           	-0.002
MS.419         	8.832          	-0.001
MS.420         	8.815          	-0.007
MS.421         	8.797          	0.003
MS.422         	8.78           	-0.001
MS.423         	8.762          	-0.002
MS.424         	8.745          	0.002
MS.425         	8.727          	-0.008
MS.426         	8.71           	-0.005
MS.427         	8.693          	0.001
MS.428         	8.675          	-0.001
MS.429         	8.658          	-0.002
MS.430         	8.64           	-0.009
MS.431         	8.622          	-0.004
MS.432         	8.605          	0.000
MS.433         	8.587          	0.000
MS.434         	8.573          	-0.006
MS.435         	8.555          	0.001
MS.436         	8.537          	-0.003
MS.437         	8.52           	-0.005
MS.438         	8.502          	-0.007
MS.439         	8.485          	0.003
MS.440         	8.47           	-0.002
MS.441         	8.452          	-0.001
MS.442         	8.435          	-0.002
MS.443         	8.417          	-0.002
MS.444         	8.403          	-0.005
MS.445         	8.385          	0.000
MS.446         	8.367          	-0.002
MS.447         	8.352          	-0.002
MS.448         	8.335          	-0.001
MS.449         	8.318          	0.001
MS.450         	8.302          	-0.001
MS.451         	8.285          	-0.003
MS.452         	8.267          	-0.002
MS.453         	8.252          	-0.001
MS.454         	8.235          	-0.001
MS.455         	8.217          	0.000
MS.456         	8.202          	0.000
MS.457         	8.185          	-0.005
MS.458         	8.17           	0.002
MS.459         	8.153          	-0.002
MS.460         	8.137          	0.001
MS.461         	8.12           	-0.001
MS.462         	8.105          	-0.001
MS.463         	8.087          	-0.001
MS.464         	8.073          	0.005
MS.465         	8.055          	0.002
MS.466         	8.04           	0.004
MS.467         	8.025          	-0.002
MS.468         	8.007          	-0.001
MS.469         	7.992          	-0.003
MS.470         	7.975          	-0.012
MS.471         	7.96           	-0.006
MS.472         	7.945          	0.004
MS.473         	7.927          	0.000
MS.474         	7.912          	0.003
MS.475         	7.898          	-0.001
MS.476         	7.88           	0.004
MS.477         	7.865          	0.000
MS.478         	7.85           	0.001
MS.479         	7.832          	-0.001
MS.480         	7.817          	0.003
MS.481         	7.802          	-0.004
MS.482         	7.787          	0.004
MS.483         	7.77           	-0.001
MS.484         	7.755          	-0.002
MS.485         	7.74           	0.000
MS.486         	7.725          	0.003
MS.487         	7.71           	0.005
MS.488         	7.695          	0.000
MS.489         	7.677          	-0.001
MS.490         	7.662          	-0.001
MS.491         	7.648          	-0.002
MS.492         	7.632          	-0.002
MS.493         	7.617          	-0.003
MS.494         	7.602          	-0.002
MS.495         	7.587          	0.001
MS.496         	7.572          	-0.005
MS.497         	7.557          	0.000
MS.498         	7.543          	0.000
MS.499         	7.527          	-0.004
MS.500         	7.512          	-0.002
MS.501         	7.497          	-0.001
