File:              	C:\Qtrac\Data\ME2C30626A.QZD
Name:              	 HU17A
Protocol:          	MSCAN-MV
Date:              	26/6/23
Date of birth:     	17/9/88
Age:               	34
Sex:               	F
Temperature:       	32.4
S/R sites:         	Knee CF-TA
NC/disease:        	NC
Operator:          	BY
Comments:
M-SCAN DATA (Repeat 3/3, 30.9-23.6m)
Scanpts: 1, 27, 554, 591
Stim. (mA)     	Amp. (mV)
MS.1           	45             	3.618
MS.2           	45             	3.637
MS.3           	45             	3.621
MS.4           	45             	3.632
MS.5           	45             	3.592
MS.6           	45             	3.646
MS.7           	45             	3.62
MS.8           	45             	3.632
MS.9           	45             	3.635
MS.10          	45             	3.605
MS.11          	45             	3.624
MS.12          	45             	3.658
MS.13          	45             	3.618
MS.14          	45             	3.625
MS.15          	45             	3.604
MS.16          	45             	3.633
MS.17          	45             	3.632
MS.18          	45             	3.589
MS.19          	45             	3.641
MS.20          	45             	3.649
MS.21          	45             	3.607
MS.22          	45             	3.634
MS.23          	45             	3.632
MS.24          	44.91          	3.641
MS.25          	44.82          	3.621
MS.26          	44.73          	3.604
MS.27          	44.642         	3.628
MS.28          	44.552         	3.638
MS.29          	44.462         	3.619
MS.30          	44.375         	3.597
MS.31          	44.285         	3.602
MS.32          	44.197         	3.569
MS.33          	44.11          	3.613
MS.34          	44.02          	3.575
MS.35          	43.932         	3.624
MS.36          	43.845         	3.618
MS.37          	43.757         	3.616
MS.38          	43.67          	3.567
MS.39          	43.583         	3.574
MS.40          	43.495         	3.564
MS.41          	43.41          	3.572
MS.42          	43.322         	3.577
MS.43          	43.235         	3.557
MS.44          	43.15          	3.566
MS.45          	43.062         	3.613
MS.46          	42.978         	3.571
MS.47          	42.89          	3.599
MS.48          	42.805         	3.601
MS.49          	42.72          	3.547
MS.50          	42.635         	3.561
MS.51          	42.55          	3.565
MS.52          	42.465         	3.575
MS.53          	42.38          	3.56
MS.54          	42.295         	3.569
MS.55          	42.21          	3.531
MS.56          	42.125         	3.55
MS.57          	42.042         	3.582
MS.58          	41.958         	3.53
MS.59          	41.875         	3.557
MS.60          	41.79          	3.504
MS.61          	41.708         	3.557
MS.62          	41.622         	3.511
MS.63          	41.54          	3.512
MS.64          	41.458         	3.51
MS.65          	41.375         	3.523
MS.66          	41.292         	3.494
MS.67          	41.21          	3.491
MS.68          	41.127         	3.487
MS.69          	41.045         	3.508
MS.70          	40.962         	3.49
MS.71          	40.88          	3.483
MS.72          	40.8           	3.492
MS.73          	40.717         	3.494
MS.74          	40.638         	3.473
MS.75          	40.555         	3.458
MS.76          	40.475         	3.481
MS.77          	40.392         	3.439
MS.78          	40.312         	3.488
MS.79          	40.232         	3.407
MS.80          	40.153         	3.419
MS.81          	40.072         	3.443
MS.82          	39.993         	3.427
MS.83          	39.912         	3.4
MS.84          	39.833         	3.437
MS.85          	39.752         	3.406
MS.86          	39.673         	3.383
MS.87          	39.592         	3.374
MS.88          	39.515         	3.358
MS.89          	39.435         	3.381
MS.90          	39.357         	3.332
MS.91          	39.278         	3.355
MS.92          	39.2           	3.364
MS.93          	39.12          	3.352
MS.94          	39.042         	3.374
MS.95          	38.965         	3.374
MS.96          	38.888         	3.283
MS.97          	38.81          	3.293
MS.98          	38.732         	3.353
MS.99          	38.655         	3.354
MS.100         	38.577         	3.327
MS.101         	38.5           	3.309
MS.102         	38.423         	3.297
MS.103         	38.347         	3.31
MS.104         	38.27          	3.334
MS.105         	38.192         	3.245
MS.106         	38.118         	3.265
MS.107         	38.04          	3.259
MS.108         	37.965         	3.235
MS.109         	37.89          	3.223
MS.110         	37.812         	3.21
MS.111         	37.737         	3.2
MS.112         	37.662         	3.135
MS.113         	37.587         	3.201
MS.114         	37.513         	3.157
MS.115         	37.438         	3.259
MS.116         	37.362         	3.168
MS.117         	37.287         	3.163
MS.118         	37.212         	3.165
MS.119         	37.14          	3.184
MS.120         	37.065         	3.162
MS.121         	36.99          	3.073
MS.122         	36.917         	3.068
MS.123         	36.842         	3.103
MS.124         	36.77          	3.151
MS.125         	36.695         	3.103
MS.126         	36.622         	3.063
MS.127         	36.55          	3.082
MS.128         	36.478         	3.075
MS.129         	36.403         	3.035
MS.130         	36.33          	3.06
MS.131         	36.257         	3.026
MS.132         	36.185         	3.033
MS.133         	36.112         	3.047
MS.134         	36.04          	3.005
MS.135         	35.97          	3.008
MS.136         	35.897         	2.999
MS.137         	35.825         	3.029
MS.138         	35.755         	2.993
MS.139         	35.682         	2.992
MS.140         	35.612         	2.994
MS.141         	35.54          	2.992
MS.142         	35.47          	2.922
MS.143         	35.397         	2.947
MS.144         	35.327         	2.949
MS.145         	35.257         	2.938
MS.146         	35.188         	2.947
MS.147         	35.115         	2.9
MS.148         	35.045         	2.895
MS.149         	34.975         	2.906
MS.150         	34.905         	2.896
MS.151         	34.837         	2.901
MS.152         	34.767         	2.873
MS.153         	34.697         	2.911
MS.154         	34.627         	2.896
MS.155         	34.56          	2.856
MS.156         	34.49          	2.86
MS.157         	34.42          	2.904
MS.158         	34.353         	2.859
MS.159         	34.282         	2.848
MS.160         	34.215         	2.853
MS.161         	34.147         	2.808
MS.162         	34.077         	2.773
MS.163         	34.01          	2.764
MS.164         	33.943         	2.816
MS.165         	33.875         	2.838
MS.166         	33.807         	2.745
MS.167         	33.74          	2.761
MS.168         	33.673         	2.791
MS.169         	33.605         	2.72
MS.170         	33.537         	2.747
MS.171         	33.47          	2.684
MS.172         	33.403         	2.699
MS.173         	33.337         	2.736
MS.174         	33.27          	2.724
MS.175         	33.202         	2.69
MS.176         	33.138         	2.745
MS.177         	33.07          	2.722
MS.178         	33.005         	2.632
MS.179         	32.94          	2.658
MS.180         	32.872         	2.635
MS.181         	32.807         	2.656
MS.182         	32.743         	2.643
MS.183         	32.677         	2.604
MS.184         	32.612         	2.571
MS.185         	32.548         	2.597
MS.186         	32.48          	2.593
MS.187         	32.417         	2.59
MS.188         	32.353         	2.59
MS.189         	32.287         	2.551
MS.190         	32.222         	2.524
MS.191         	32.157         	2.551
MS.192         	32.095         	2.488
MS.193         	32.03          	2.524
MS.194         	31.965         	2.477
MS.195         	31.903         	2.48
MS.196         	31.837         	2.516
MS.197         	31.775         	2.526
MS.198         	31.71          	2.478
MS.199         	31.647         	2.499
MS.200         	31.585         	2.514
MS.201         	31.522         	2.504
MS.202         	31.457         	2.459
MS.203         	31.395         	2.458
MS.204         	31.332         	2.482
MS.205         	31.27          	2.419
MS.206         	31.207         	2.426
MS.207         	31.145         	2.385
MS.208         	31.082         	2.267
MS.209         	31.02          	2.352
MS.210         	30.96          	2.332
MS.211         	30.897         	2.355
MS.212         	30.835         	2.333
MS.213         	30.775         	2.225
MS.214         	30.712         	2.263
MS.215         	30.65          	2.291
MS.216         	30.59          	2.168
MS.217         	30.528         	2.123
MS.218         	30.467         	2.075
MS.219         	30.407         	2.089
MS.220         	30.345         	2.212
MS.221         	30.285         	2.219
MS.222         	30.225         	2.046
MS.223         	30.165         	2.186
MS.224         	30.105         	2.125
MS.225         	30.045         	2.042
MS.226         	29.985         	1.936
MS.227         	29.925         	1.985
MS.228         	29.865         	1.966
MS.229         	29.805         	1.949
MS.230         	29.745         	1.899
MS.231         	29.685         	1.954
MS.232         	29.627         	1.932
MS.233         	29.567         	1.987
MS.234         	29.507         	1.855
MS.235         	29.45          	1.902
MS.236         	29.39          	1.9
MS.237         	29.332         	1.859
MS.238         	29.272         	1.796
MS.239         	29.215         	1.883
MS.240         	29.155         	1.912
MS.241         	29.097         	1.913
MS.242         	29.04          	1.727
MS.243         	28.983         	1.91
MS.244         	28.922         	1.728
MS.245         	28.865         	1.904
MS.246         	28.807         	1.738
MS.247         	28.75          	1.755
MS.248         	28.692         	1.736
MS.249         	28.635         	1.834
MS.250         	28.577         	1.684
MS.251         	28.522         	1.781
MS.252         	28.465         	1.77
MS.253         	28.407         	1.785
MS.254         	28.35          	1.742
MS.255         	28.295         	1.734
MS.256         	28.237         	1.769
MS.257         	28.182         	1.642
MS.258         	28.125         	1.67
MS.259         	28.07          	1.623
MS.260         	28.012         	1.625
MS.261         	27.957         	1.582
MS.262         	27.9           	1.626
MS.263         	27.845         	1.547
MS.264         	27.79          	1.713
MS.265         	27.735         	1.631
MS.266         	27.677         	1.597
MS.267         	27.622         	1.495
MS.268         	27.567         	1.558
MS.269         	27.512         	1.489
MS.270         	27.457         	1.536
MS.271         	27.403         	1.484
MS.272         	27.347         	1.533
MS.273         	27.295         	1.487
MS.274         	27.24          	1.494
MS.275         	27.185         	1.503
MS.276         	27.13          	1.456
MS.277         	27.077         	1.462
MS.278         	27.022         	1.475
MS.279         	26.967         	1.451
MS.280         	26.915         	1.461
MS.281         	26.86          	1.471
MS.282         	26.807         	1.459
MS.283         	26.752         	1.437
MS.284         	26.7           	1.456
MS.285         	26.647         	1.448
MS.286         	26.592         	1.361
MS.287         	26.54          	1.396
MS.288         	26.487         	1.464
MS.289         	26.435         	1.454
MS.290         	26.382         	1.391
MS.291         	26.33          	1.431
MS.292         	26.275         	1.4
MS.293         	26.222         	1.347
MS.294         	26.172         	1.328
MS.295         	26.12          	1.362
MS.296         	26.067         	1.353
MS.297         	26.015         	1.326
MS.298         	25.962         	1.334
MS.299         	25.91          	1.317
MS.300         	25.86          	1.365
MS.301         	25.807         	1.299
MS.302         	25.755         	1.338
MS.303         	25.705         	1.304
MS.304         	25.653         	1.306
MS.305         	25.602         	1.284
MS.306         	25.55          	1.302
MS.307         	25.5           	1.298
MS.308         	25.448         	1.216
MS.309         	25.397         	1.263
MS.310         	25.347         	1.295
MS.311         	25.297         	1.254
MS.312         	25.245         	1.263
MS.313         	25.195         	1.259
MS.314         	25.145         	1.283
MS.315         	25.095         	1.287
MS.316         	25.045         	1.206
MS.317         	24.995         	1.214
MS.318         	24.945         	1.225
MS.319         	24.895         	1.272
MS.320         	24.845         	1.245
MS.321         	24.795         	1.232
MS.322         	24.745         	1.154
MS.323         	24.698         	1.149
MS.324         	24.647         	1.103
MS.325         	24.597         	1.24
MS.326         	24.55          	1.146
MS.327         	24.5           	1.021
MS.328         	24.45          	1.243
MS.329         	24.403         	1.194
MS.330         	24.352         	1.172
MS.331         	24.305         	1.204
MS.332         	24.255         	1.14
MS.333         	24.207         	1.111
MS.334         	24.16          	1.088
MS.335         	24.11          	1.056
MS.336         	24.062         	1.049
MS.337         	24.015         	1.058
MS.338         	23.967         	1.088
MS.339         	23.917         	1.096
MS.340         	23.87          	1.075
MS.341         	23.823         	0.975
MS.342         	23.775         	0.987
MS.343         	23.727         	0.969
MS.344         	23.68          	0.942
MS.345         	23.632         	0.983
MS.346         	23.585         	0.959
MS.347         	23.54          	1.036
MS.348         	23.493         	0.909
MS.349         	23.445         	0.96
MS.350         	23.397         	0.87
MS.351         	23.352         	0.903
MS.352         	23.305         	0.828
MS.353         	23.257         	0.911
MS.354         	23.212         	0.879
MS.355         	23.165         	0.756
MS.356         	23.12          	0.767
MS.357         	23.073         	0.716
MS.358         	23.028         	0.672
MS.359         	22.98          	0.833
MS.360         	22.935         	0.688
MS.361         	22.89          	0.77
MS.362         	22.842         	0.684
MS.363         	22.797         	0.687
MS.364         	22.752         	0.767
MS.365         	22.707         	0.7
MS.366         	22.663         	0.71
MS.367         	22.615         	0.648
MS.368         	22.57          	0.587
MS.369         	22.525         	0.569
MS.370         	22.48          	0.651
MS.371         	22.435         	0.646
MS.372         	22.39          	0.623
MS.373         	22.347         	0.624
MS.374         	22.302         	0.593
MS.375         	22.257         	0.62
MS.376         	22.212         	0.584
MS.377         	22.167         	0.586
MS.378         	22.125         	0.601
MS.379         	22.08          	0.669
MS.380         	22.035         	0.565
MS.381         	21.993         	0.654
MS.382         	21.948         	0.558
MS.383         	21.905         	0.607
MS.384         	21.86          	0.499
MS.385         	21.817         	0.602
MS.386         	21.772         	0.493
MS.387         	21.73          	0.571
MS.388         	21.685         	0.599
MS.389         	21.642         	0.546
MS.390         	21.6           	0.508
MS.391         	21.555         	0.516
MS.392         	21.512         	0.517
MS.393         	21.47          	0.494
MS.394         	21.427         	0.488
MS.395         	21.385         	0.53
MS.396         	21.342         	0.551
MS.397         	21.3           	0.466
MS.398         	21.257         	0.514
MS.399         	21.215         	0.513
MS.400         	21.172         	0.475
MS.401         	21.13          	0.535
MS.402         	21.087         	0.496
MS.403         	21.045         	0.453
MS.404         	21.002         	0.425
MS.405         	20.96          	0.508
MS.406         	20.92          	0.413
MS.407         	20.877         	0.333
MS.408         	20.835         	0.342
MS.409         	20.795         	0.462
MS.410         	20.752         	0.41
MS.411         	20.71          	0.416
MS.412         	20.67          	0.522
MS.413         	20.627         	0.405
MS.414         	20.587         	0.389
MS.415         	20.545         	0.356
MS.416         	20.505         	0.428
MS.417         	20.465         	0.325
MS.418         	20.422         	0.405
MS.419         	20.382         	0.309
MS.420         	20.342         	0.358
MS.421         	20.3           	0.254
MS.422         	20.26          	0.383
MS.423         	20.22          	0.272
MS.424         	20.18          	0.251
MS.425         	20.14          	0.358
MS.426         	20.1           	0.28
MS.427         	20.057         	0.267
MS.428         	20.017         	0.266
MS.429         	19.977         	0.276
MS.430         	19.938         	0.28
MS.431         	19.9           	0.248
MS.432         	19.86          	0.283
MS.433         	19.82          	0.259
MS.434         	19.78          	0.27
MS.435         	19.74          	0.274
MS.436         	19.7           	0.272
MS.437         	19.663         	0.23
MS.438         	19.622         	0.273
MS.439         	19.583         	0.286
MS.440         	19.545         	0.191
MS.441         	19.505         	0.22
MS.442         	19.465         	0.21
MS.443         	19.427         	0.093
MS.444         	19.387         	0.205
MS.445         	19.35          	0.197
MS.446         	19.31          	0.25
MS.447         	19.272         	0.205
MS.448         	19.233         	0.177
MS.449         	19.195         	0.1
MS.450         	19.157         	0.137
MS.451         	19.118         	0.113
MS.452         	19.08          	0.145
MS.453         	19.042         	0.118
MS.454         	19.005         	0.118
MS.455         	18.967         	0.1
MS.456         	18.927         	0.148
MS.457         	18.89          	0.063
MS.458         	18.852         	0.057
MS.459         	18.815         	0.064
MS.460         	18.778         	0.102
MS.461         	18.74          	0.054
MS.462         	18.702         	0.06
MS.463         	18.665         	0.154
MS.464         	18.628         	-0.001
MS.465         	18.59          	0.082
MS.466         	18.552         	-0.037
MS.467         	18.517         	0.115
MS.468         	18.48          	-0.017
MS.469         	18.442         	-0.043
MS.470         	18.405         	0.009
MS.471         	18.37          	0.006
MS.472         	18.333         	0.009
MS.473         	18.295         	0.02
MS.474         	18.26          	-0.031
MS.475         	18.222         	-0.035
MS.476         	18.185         	-0.002
MS.477         	18.15          	-0.016
MS.478         	18.112         	-0.031
MS.479         	18.077         	-0.073
MS.480         	18.042         	-0.001
MS.481         	18.005         	-0.024
MS.482         	17.97          	-0.088
MS.483         	17.932         	-0.02
MS.484         	17.897         	-0.17
MS.485         	17.862         	-0.057
MS.486         	17.825         	-0.139
MS.487         	17.79          	-0.137
MS.488         	17.755         	-0.09
MS.489         	17.72          	-0.082
MS.490         	17.685         	-0.1
MS.491         	17.647         	-0.155
MS.492         	17.612         	-0.146
MS.493         	17.577         	-0.129
MS.494         	17.542         	-0.186
MS.495         	17.507         	-0.184
MS.496         	17.472         	-0.144
MS.497         	17.438         	-0.155
MS.498         	17.403         	-0.137
MS.499         	17.368         	-0.219
MS.500         	17.335         	-0.184
MS.501         	17.3           	-0.19
MS.502         	17.265         	-0.188
