File:              	C:\Qtrac\Data\ME2C30608A.QZD
Name:              	 ME18D
Protocol:          	MSCAN-R2
Date:              	8/6/23
Date of birth:     	18/11/01
Age:               	21
Sex:               	M
Temperature:       	33.6
S/R sites:         	KNEE CF-TA
NC/disease:        	NC
Operator:          	BY
Comments:
M-SCAN DATA (Repeat 1/3, 21.2-10.9m)
Scanpts: 1, 46, 793, 820
Stim. (mA)     	Amp. (mV)
MS.1           	14             	5.637
MS.2           	14             	5.626
MS.3           	14             	5.636
MS.4           	14             	5.63
MS.5           	14             	5.615
MS.6           	14             	5.621
MS.7           	14             	5.638
MS.8           	14             	5.623
MS.9           	14             	5.621
MS.10          	14             	5.629
MS.11          	14             	5.634
MS.12          	14             	5.617
MS.13          	14             	5.633
MS.14          	14             	5.621
MS.15          	14             	5.625
MS.16          	14             	5.637
MS.17          	14             	5.631
MS.18          	14             	5.624
MS.19          	14             	5.622
MS.20          	14             	5.634
MS.21          	14             	5.62
MS.22          	14             	5.622
MS.23          	14             	5.647
MS.24          	13.945         	5.626
MS.25          	13.915         	5.636
MS.26          	13.887         	5.631
MS.27          	13.86          	5.636
MS.28          	13.832         	5.593
MS.29          	13.805         	5.606
MS.30          	13.778         	5.623
MS.31          	13.75          	5.632
MS.32          	13.722         	5.624
MS.33          	13.695         	5.61
MS.34          	13.667         	5.616
MS.35          	13.64          	5.624
MS.36          	13.612         	5.637
MS.37          	13.585         	5.617
MS.38          	13.56          	5.634
MS.39          	13.532         	5.654
MS.40          	13.505         	5.637
MS.41          	13.477         	5.627
MS.42          	13.45          	5.628
MS.43          	13.425         	5.616
MS.44          	13.398         	5.618
MS.45          	13.37          	5.634
MS.46          	13.345         	5.62
MS.47          	13.318         	5.62
MS.48          	13.29          	5.63
MS.49          	13.265         	5.609
MS.50          	13.237         	5.627
MS.51          	13.21          	5.617
MS.52          	13.185         	5.616
MS.53          	13.157         	5.621
MS.54          	13.132         	5.597
MS.55          	13.105         	5.612
MS.56          	13.08          	5.606
MS.57          	13.052         	5.591
MS.58          	13.028         	5.615
MS.59          	13.002         	5.605
MS.60          	12.975         	5.61
MS.61          	12.95          	5.61
MS.62          	12.922         	5.616
MS.63          	12.898         	5.609
MS.64          	12.872         	5.61
MS.65          	12.847         	5.605
MS.66          	12.82          	5.592
MS.67          	12.795         	5.615
MS.68          	12.77          	5.612
MS.69          	12.745         	5.599
MS.70          	12.717         	5.605
MS.71          	12.693         	5.594
MS.72          	12.667         	5.59
MS.73          	12.642         	5.609
MS.74          	12.617         	5.596
MS.75          	12.592         	5.599
MS.76          	12.568         	5.594
MS.77          	12.542         	5.607
MS.78          	12.517         	5.602
MS.79          	12.492         	5.585
MS.80          	12.467         	5.602
MS.81          	12.443         	5.62
MS.82          	12.417         	5.6
MS.83          	12.392         	5.622
MS.84          	12.367         	5.611
MS.85          	12.342         	5.607
MS.86          	12.318         	5.597
MS.87          	12.292         	5.587
MS.88          	12.267         	5.583
MS.89          	12.245         	5.603
MS.90          	12.22          	5.591
MS.91          	12.195         	5.589
MS.92          	12.17          	5.593
MS.93          	12.148         	5.592
MS.94          	12.122         	5.596
MS.95          	12.097         	5.596
MS.96          	12.075         	5.59
MS.97          	12.05          	5.588
MS.98          	12.025         	5.59
MS.99          	12.002         	5.591
MS.100         	11.977         	5.589
MS.101         	11.955         	5.59
MS.102         	11.93          	5.587
MS.103         	11.905         	5.58
MS.104         	11.882         	5.591
MS.105         	11.858         	5.571
MS.106         	11.835         	5.573
MS.107         	11.812         	5.593
MS.108         	11.787         	5.585
MS.109         	11.765         	5.596
MS.110         	11.74          	5.602
MS.111         	11.717         	5.582
MS.112         	11.693         	5.582
MS.113         	11.67          	5.585
MS.114         	11.648         	5.57
MS.115         	11.625         	5.583
MS.116         	11.6           	5.587
MS.117         	11.577         	5.576
MS.118         	11.555         	5.58
MS.119         	11.53          	5.582
MS.120         	11.507         	5.585
MS.121         	11.485         	5.577
MS.122         	11.462         	5.58
MS.123         	11.44          	5.59
MS.124         	11.417         	5.596
MS.125         	11.392         	5.579
MS.126         	11.37          	5.583
MS.127         	11.347         	5.587
MS.128         	11.325         	5.585
MS.129         	11.302         	5.574
MS.130         	11.28          	5.576
MS.131         	11.257         	5.58
MS.132         	11.235         	5.587
MS.133         	11.212         	5.571
MS.134         	11.19          	5.576
MS.135         	11.167         	5.583
MS.136         	11.145         	5.573
MS.137         	11.122         	5.568
MS.138         	11.1           	5.573
MS.139         	11.08          	5.577
MS.140         	11.057         	5.571
MS.141         	11.035         	5.58
MS.142         	11.012         	5.558
MS.143         	10.99          	5.538
MS.144         	10.97          	5.547
MS.145         	10.948         	5.557
MS.146         	10.925         	5.577
MS.147         	10.903         	5.557
MS.148         	10.882         	5.551
MS.149         	10.86          	5.571
MS.150         	10.837         	5.569
MS.151         	10.818         	5.553
MS.152         	10.795         	5.566
MS.153         	10.773         	5.563
MS.154         	10.752         	5.576
MS.155         	10.73          	5.56
MS.156         	10.707         	5.56
MS.157         	10.688         	5.56
MS.158         	10.665         	5.575
MS.159         	10.645         	5.549
MS.160         	10.622         	5.555
MS.161         	10.602         	5.557
MS.162         	10.58          	5.58
MS.163         	10.56          	5.562
MS.164         	10.537         	5.571
MS.165         	10.517         	5.574
MS.166         	10.497         	5.577
MS.167         	10.475         	5.568
MS.168         	10.455         	5.551
MS.169         	10.435         	5.555
MS.170         	10.412         	5.552
MS.171         	10.392         	5.535
MS.172         	10.372         	5.547
MS.173         	10.35          	5.549
MS.174         	10.33          	5.557
MS.175         	10.31          	5.521
MS.176         	10.29          	5.54
MS.177         	10.267         	5.537
MS.178         	10.247         	5.535
MS.179         	10.227         	5.532
MS.180         	10.207         	5.543
MS.181         	10.188         	5.517
MS.182         	10.165         	5.516
MS.183         	10.145         	5.546
MS.184         	10.125         	5.524
MS.185         	10.105         	5.532
MS.186         	10.085         	5.508
MS.187         	10.065         	5.531
MS.188         	10.045         	5.521
MS.189         	10.025         	5.509
MS.190         	10.005         	5.532
MS.191         	9.985          	5.533
MS.192         	9.965          	5.532
MS.193         	9.945          	5.513
MS.194         	9.925          	5.508
MS.195         	9.905          	5.506
MS.196         	9.885          	5.516
MS.197         	9.865          	5.513
MS.198         	9.845          	5.494
MS.199         	9.825          	5.528
MS.200         	9.807          	5.505
MS.201         	9.787          	5.493
MS.202         	9.767          	5.529
MS.203         	9.747          	5.48
MS.204         	9.727          	5.519
MS.205         	9.71           	5.52
MS.206         	9.69           	5.497
MS.207         	9.67           	5.513
MS.208         	9.65           	5.513
MS.209         	9.632          	5.51
MS.210         	9.613          	5.497
MS.211         	9.592          	5.519
MS.212         	9.575          	5.511
MS.213         	9.555          	5.5
MS.214         	9.535          	5.477
MS.215         	9.517          	5.48
MS.216         	9.497          	5.513
MS.217         	9.48           	5.482
MS.218         	9.46           	5.497
MS.219         	9.44           	5.464
MS.220         	9.422          	5.496
MS.221         	9.403          	5.492
MS.222         	9.385          	5.489
MS.223         	9.365          	5.475
MS.224         	9.347          	5.485
MS.225         	9.327          	5.48
MS.226         	9.31           	5.45
MS.227         	9.29           	5.446
MS.228         	9.273          	5.478
MS.229         	9.255          	5.491
MS.230         	9.235          	5.463
MS.231         	9.217          	5.488
MS.232         	9.198          	5.474
MS.233         	9.18           	5.5
MS.234         	9.162          	5.472
MS.235         	9.142          	5.45
MS.236         	9.125          	5.478
MS.237         	9.108          	5.456
MS.238         	9.09           	5.453
MS.239         	9.07           	5.428
MS.240         	9.052          	5.438
MS.241         	9.035          	5.438
MS.242         	9.017          	5.446
MS.243         	8.997          	5.442
MS.244         	8.98           	5.518
MS.245         	8.962          	5.462
MS.246         	8.945          	5.436
MS.247         	8.927          	5.489
MS.248         	8.91           	5.48
MS.249         	8.89           	5.476
MS.250         	8.872          	5.472
MS.251         	8.855          	5.473
MS.252         	8.837          	5.433
MS.253         	8.82           	5.433
MS.254         	8.802          	5.486
MS.255         	8.785          	5.443
MS.256         	8.767          	5.443
MS.257         	8.75           	5.434
MS.258         	8.733          	5.433
MS.259         	8.715          	5.461
MS.260         	8.698          	5.435
MS.261         	8.68           	5.446
MS.262         	8.662          	5.435
MS.263         	8.645          	5.441
MS.264         	8.627          	5.437
MS.265         	8.61           	5.433
MS.266         	8.595          	5.446
MS.267         	8.577          	5.431
MS.268         	8.56           	5.43
MS.269         	8.542          	5.425
MS.270         	8.525          	5.427
MS.271         	8.507          	5.428
MS.272         	8.492          	5.406
MS.273         	8.475          	5.392
MS.274         	8.457          	5.418
MS.275         	8.44           	5.424
MS.276         	8.422          	5.431
MS.277         	8.408          	5.435
MS.278         	8.39           	5.416
MS.279         	8.372          	5.429
MS.280         	8.358          	5.416
MS.281         	8.34           	5.426
MS.282         	8.323          	5.405
MS.283         	8.307          	5.429
MS.284         	8.29           	5.447
MS.285         	8.273          	5.443
MS.286         	8.257          	5.414
MS.287         	8.24           	5.402
MS.288         	8.225          	5.408
MS.289         	8.207          	5.418
MS.290         	8.19           	5.452
MS.291         	8.175          	5.436
MS.292         	8.158          	5.424
MS.293         	8.142          	5.407
MS.294         	8.125          	5.43
MS.295         	8.11           	5.403
MS.296         	8.092          	5.428
MS.297         	8.077          	5.399
MS.298         	8.06           	5.402
MS.299         	8.045          	5.408
MS.300         	8.03           	5.434
MS.301         	8.012          	5.387
MS.302         	7.997          	5.398
MS.303         	7.98           	5.389
MS.304         	7.965          	5.39
MS.305         	7.95           	5.394
MS.306         	7.932          	5.392
MS.307         	7.918          	5.405
MS.308         	7.902          	5.406
MS.309         	7.885          	5.374
MS.310         	7.87           	5.384
MS.311         	7.855          	5.388
MS.312         	7.837          	5.396
MS.313         	7.822          	5.369
MS.314         	7.807          	5.376
MS.315         	7.793          	5.357
MS.316         	7.775          	5.338
MS.317         	7.76           	5.365
MS.318         	7.745          	5.338
MS.319         	7.73           	5.358
MS.320         	7.715          	5.338
MS.321         	7.697          	5.361
MS.322         	7.682          	5.309
MS.323         	7.668          	5.291
MS.324         	7.652          	5.314
MS.325         	7.637          	5.316
MS.326         	7.622          	5.319
MS.327         	7.607          	5.327
MS.328         	7.592          	5.292
MS.329         	7.577          	5.275
MS.330         	7.562          	5.274
MS.331         	7.547          	5.273
MS.332         	7.53           	5.204
MS.333         	7.515          	5.305
MS.334         	7.5            	5.275
MS.335         	7.485          	5.237
MS.336         	7.47           	5.237
MS.337         	7.457          	5.213
MS.338         	7.442          	5.286
MS.339         	7.427          	5.162
MS.340         	7.412          	5.204
MS.341         	7.398          	5.209
MS.342         	7.382          	5.153
MS.343         	7.367          	5.124
MS.344         	7.352          	5.179
MS.345         	7.337          	5.212
MS.346         	7.322          	5.185
MS.347         	7.307          	5.143
MS.348         	7.295          	5.195
MS.349         	7.28           	5.161
MS.350         	7.265          	5.169
MS.351         	7.25           	5.192
MS.352         	7.235          	5.046
MS.353         	7.222          	5.115
MS.354         	7.207          	5.07
MS.355         	7.192          	5.069
MS.356         	7.177          	5.054
MS.357         	7.165          	5.032
MS.358         	7.15           	5.02
MS.359         	7.135          	5.089
MS.360         	7.12           	5.019
MS.361         	7.108          	5.048
MS.362         	7.092          	5.031
MS.363         	7.077          	5.05
MS.364         	7.065          	5.01
MS.365         	7.05           	4.974
MS.366         	7.035          	5.003
MS.367         	7.023          	4.986
MS.368         	7.007          	4.964
MS.369         	6.995          	4.994
MS.370         	6.98           	4.951
MS.371         	6.965          	4.951
MS.372         	6.952          	4.938
MS.373         	6.938          	5.004
MS.374         	6.925          	4.979
MS.375         	6.91           	4.999
MS.376         	6.898          	4.879
MS.377         	6.882          	4.882
MS.378         	6.87           	4.865
MS.379         	6.855          	4.91
MS.380         	6.842          	4.856
MS.381         	6.827          	4.872
MS.382         	6.815          	4.904
MS.383         	6.8            	4.9
MS.384         	6.787          	4.911
MS.385         	6.773          	4.87
MS.386         	6.76           	4.901
MS.387         	6.747          	4.865
MS.388         	6.733          	4.92
MS.389         	6.72           	4.89
MS.390         	6.707          	4.976
MS.391         	6.692          	4.899
MS.392         	6.68           	4.839
MS.393         	6.665          	4.845
MS.394         	6.652          	4.94
MS.395         	6.64           	4.941
MS.396         	6.628          	4.838
MS.397         	6.612          	4.844
MS.398         	6.6            	4.812
MS.399         	6.587          	4.789
MS.400         	6.572          	4.926
MS.401         	6.56           	4.814
MS.402         	6.547          	4.872
MS.403         	6.535          	4.936
MS.404         	6.52           	4.89
MS.405         	6.507          	4.879
MS.406         	6.495          	4.862
MS.407         	6.483          	4.818
MS.408         	6.47           	4.814
MS.409         	6.457          	4.859
MS.410         	6.442          	4.732
MS.411         	6.43           	4.773
MS.412         	6.418          	4.781
MS.413         	6.405          	4.89
MS.414         	6.392          	4.789
MS.415         	6.38           	4.768
MS.416         	6.367          	4.703
MS.417         	6.355          	4.735
MS.418         	6.34           	4.705
MS.419         	6.327          	4.723
MS.420         	6.315          	4.636
MS.421         	6.302          	4.703
MS.422         	6.29           	4.665
MS.423         	6.277          	4.7
MS.424         	6.265          	4.69
MS.425         	6.253          	4.698
MS.426         	6.24           	4.691
MS.427         	6.227          	4.666
MS.428         	6.215          	4.684
MS.429         	6.202          	4.661
MS.430         	6.19           	4.644
MS.431         	6.177          	4.595
MS.432         	6.165          	4.543
MS.433         	6.152          	4.557
MS.434         	6.142          	4.621
MS.435         	6.13           	4.533
MS.436         	6.117          	4.518
MS.437         	6.105          	4.512
MS.438         	6.092          	4.551
MS.439         	6.08           	4.337
MS.440         	6.067          	4.418
MS.441         	6.055          	4.529
MS.442         	6.045          	4.413
MS.443         	6.032          	4.439
MS.444         	6.02           	4.299
MS.445         	6.007          	4.354
MS.446         	5.995          	4.201
MS.447         	5.985          	4.321
MS.448         	5.972          	4.08
MS.449         	5.96           	4.481
MS.450         	5.947          	4.209
MS.451         	5.935          	4.084
MS.452         	5.925          	4.272
MS.453         	5.912          	4.14
MS.454         	5.9            	4.141
MS.455         	5.89           	3.951
MS.456         	5.878          	3.951
MS.457         	5.865          	3.953
MS.458         	5.852          	3.9
MS.459         	5.842          	3.925
MS.460         	5.83           	3.82
MS.461         	5.817          	4.011
MS.462         	5.807          	4.083
MS.463         	5.795          	3.87
MS.464         	5.785          	3.895
MS.465         	5.773          	3.674
MS.466         	5.76           	3.943
MS.467         	5.75           	3.811
MS.468         	5.737          	3.593
MS.469         	5.725          	3.659
MS.470         	5.715          	3.89
MS.471         	5.702          	3.408
MS.472         	5.692          	3.632
MS.473         	5.68           	3.4
MS.474         	5.67           	3.666
MS.475         	5.657          	3.539
MS.476         	5.648          	3.544
MS.477         	5.635          	3.411
MS.478         	5.625          	3.539
MS.479         	5.612          	3.461
MS.480         	5.602          	3.47
MS.481         	5.59           	3.425
MS.482         	5.58           	3.389
MS.483         	5.567          	3.638
MS.484         	5.557          	3.414
MS.485         	5.545          	3.439
MS.486         	5.535          	3.321
MS.487         	5.523          	3.266
MS.488         	5.512          	3.302
MS.489         	5.503          	3.43
MS.490         	5.49           	3.183
MS.491         	5.48           	3.181
MS.492         	5.47           	3.231
MS.493         	5.457          	3.135
MS.494         	5.447          	3.243
MS.495         	5.435          	3.294
MS.496         	5.425          	3.19
MS.497         	5.415          	3.118
MS.498         	5.402          	3.173
MS.499         	5.392          	3.156
MS.500         	5.382          	2.967
MS.501         	5.37           	3.085
MS.502         	5.36           	2.944
MS.503         	5.35           	3.107
