File:              	C:\Qtrac\Data\Daniel M Sørensen\MScan multicentre study\Data from centres\Toronto\Processed data\MSCC01209E.QZD
Name:              	CA.TOR.NC.9.1
Protocol:          	MSCAN-R2
Date:              	9/12/20
Start time:        	12:30:45
Age:               	51
Sex:               	F
Temperature:       	31.6
S/R sites:         	ADM
NC/disease:        	NC
Operator:          	LP
Comments:          	MFF60ON
M-SCAN DATA (6.1-1m)
Scanpts: 18, 25, 534, 555
Stim. (mA)     	Amp. (mV)
MS.1           	17             	11.44
MS.2           	17             	11.463
MS.3           	17             	11.475
MS.4           	17             	11.451
MS.5           	17             	11.424
MS.6           	17             	11.39
MS.7           	17             	11.442
MS.8           	17             	11.463
MS.9           	17             	11.388
MS.10          	17             	11.406
MS.11          	17             	11.414
MS.12          	17             	11.428
MS.13          	17             	11.422
MS.14          	17             	11.41
MS.15          	17             	11.428
MS.16          	17             	11.408
MS.17          	17             	11.394
MS.18          	17             	11.451
MS.19          	17             	11.388
MS.20          	17             	11.444
MS.21          	17             	11.467
MS.22          	17             	11.442
MS.23          	17             	11.402
MS.24          	16.932         	11.44
MS.25          	16.897         	11.434
MS.26          	16.865         	11.446
MS.27          	16.83          	11.448
MS.28          	16.797         	11.465
MS.29          	16.762         	11.463
MS.30          	16.73          	11.455
MS.31          	16.698         	11.461
MS.32          	16.663         	11.483
MS.33          	16.63          	11.432
MS.34          	16.597         	11.438
MS.35          	16.562         	11.414
MS.36          	16.53          	11.358
MS.37          	16.497         	11.477
MS.38          	16.465         	11.465
MS.39          	16.432         	11.402
MS.40          	16.4           	11.318
MS.41          	16.365         	11.446
MS.42          	16.333         	11.38
MS.43          	16.3           	11.418
MS.44          	16.267         	11.384
MS.45          	16.235         	11.432
MS.46          	16.202         	11.416
MS.47          	16.17          	11.386
MS.48          	16.137         	11.346
MS.49          	16.108         	11.261
MS.50          	16.075         	11.203
MS.51          	16.042         	11.336
MS.52          	16.01          	11.285
MS.53          	15.977         	11.201
MS.54          	15.945         	11.191
MS.55          	15.915         	10.949
MS.56          	15.882         	11.074
MS.57          	15.85          	11.08
MS.58          	15.82          	11.267
MS.59          	15.787         	11.074
MS.60          	15.755         	10.899
MS.61          	15.725         	11.098
MS.62          	15.693         	11.028
MS.63          	15.662         	11.173
MS.64          	15.63          	10.913
MS.65          	15.6           	11.001
MS.66          	15.568         	10.891
MS.67          	15.537         	10.965
MS.68          	15.505         	11.03
MS.69          	15.475         	11.044
MS.70          	15.445         	10.915
MS.71          	15.412         	10.951
MS.72          	15.382         	10.973
MS.73          	15.352         	11.175
MS.74          	15.32          	10.967
MS.75          	15.29          	10.784
MS.76          	15.26          	10.842
MS.77          	15.23          	10.893
MS.78          	15.197         	10.852
MS.79          	15.167         	10.828
MS.80          	15.137         	11.005
MS.81          	15.108         	10.79
MS.82          	15.077         	10.921
MS.83          	15.047         	10.742
MS.84          	15.017         	10.758
MS.85          	14.987         	10.866
MS.86          	14.957         	10.83
MS.87          	14.927         	10.717
MS.88          	14.898         	10.83
MS.89          	14.867         	10.792
MS.90          	14.837         	10.645
MS.91          	14.807         	10.885
MS.92          	14.78          	10.693
MS.93          	14.75          	10.709
MS.94          	14.72          	10.58
MS.95          	14.69          	10.748
MS.96          	14.662         	10.582
MS.97          	14.632         	10.723
MS.98          	14.602         	10.615
MS.99          	14.572         	10.621
MS.100         	14.545         	10.58
MS.101         	14.515         	10.085
MS.102         	14.487         	10.206
MS.103         	14.457         	10.315
MS.104         	14.427         	10.417
MS.105         	14.4           	10.504
MS.106         	14.37          	9.926
MS.107         	14.342         	10.399
MS.108         	14.312         	10.258
MS.109         	14.285         	10.425
MS.110         	14.257         	10.582
MS.111         	14.227         	9.898
MS.112         	14.2           	10.468
MS.113         	14.17          	9.571
MS.114         	14.142         	10.045
MS.115         	14.115         	9.434
MS.116         	14.087         	10.053
MS.117         	14.057         	9.454
MS.118         	14.03          	9.757
MS.119         	14.002         	9.902
MS.120         	13.975         	9.271
MS.121         	13.945         	9.489
MS.122         	13.917         	9.352
MS.123         	13.89          	9.69
MS.124         	13.862         	9.366
MS.125         	13.835         	9.461
MS.126         	13.807         	9.378
MS.127         	13.78          	9.303
MS.128         	13.752         	9.416
MS.129         	13.725         	9.575
MS.130         	13.697         	9.338
MS.131         	13.67          	9.058
MS.132         	13.642         	9.376
MS.133         	13.615         	9.362
MS.134         	13.587         	9.023
MS.135         	13.56          	9.372
MS.136         	13.535         	8.705
MS.137         	13.507         	9.263
MS.138         	13.48          	8.828
MS.139         	13.452         	8.967
MS.140         	13.425         	9.142
MS.141         	13.4           	8.945
MS.142         	13.372         	8.967
MS.143         	13.345         	8.278
MS.144         	13.32          	9.003
MS.145         	13.292         	8.109
MS.146         	13.265         	8.905
MS.147         	13.24          	8.51
MS.148         	13.212         	8.186
MS.149         	13.188         	8.836
MS.150         	13.16          	8.681
MS.151         	13.135         	8.435
MS.152         	13.108         	8.196
MS.153         	13.082         	8.592
MS.154         	13.055         	7.881
MS.155         	13.03          	8.411
MS.156         	13.002         	8.48
MS.157         	12.977         	8.695
MS.158         	12.952         	7.861
MS.159         	12.925         	7.416
MS.160         	12.9           	8.226
MS.161         	12.875         	7.603
MS.162         	12.847         	7.757
MS.163         	12.822         	7.734
MS.164         	12.797         	7.569
MS.165         	12.773         	7.726
MS.166         	12.745         	7.605
MS.167         	12.72          	7.672
MS.168         	12.695         	7.432
MS.169         	12.67          	7.162
MS.170         	12.645         	7.029
MS.171         	12.62          	6.935
MS.172         	12.595         	7.283
MS.173         	12.568         	6.947
MS.174         	12.542         	7.227
MS.175         	12.517         	7.112
MS.176         	12.492         	6.913
MS.177         	12.467         	6.689
MS.178         	12.443         	7.176
MS.179         	12.42          	6.784
MS.180         	12.395         	7.011
MS.181         	12.37          	6.606
MS.182         	12.345         	6.28
MS.183         	12.32          	6.651
MS.184         	12.295         	5.996
MS.185         	12.27          	6.457
MS.186         	12.245         	6.351
MS.187         	12.222         	6.083
MS.188         	12.197         	6.306
MS.189         	12.172         	5.926
MS.190         	12.148         	6.163
MS.191         	12.125         	5.658
MS.192         	12.1           	5.746
MS.193         	12.075         	5.68
MS.194         	12.052         	5.325
MS.195         	12.028         	6.051
MS.196         	12.002         	5.084
MS.197         	11.98          	5.408
MS.198         	11.955         	5.321
MS.199         	11.932         	5.571
MS.200         	11.907         	5.632
MS.201         	11.885         	5.263
MS.202         	11.86          	5.448
MS.203         	11.837         	5.313
MS.204         	11.812         	5.043
MS.205         	11.79          	4.61
MS.206         	11.765         	4.782
MS.207         	11.742         	4.713
MS.208         	11.72          	4.606
MS.209         	11.695         	4.713
MS.210         	11.672         	4.343
MS.211         	11.65          	4.989
MS.212         	11.625         	4.345
MS.213         	11.602         	4.306
MS.214         	11.58          	4.081
MS.215         	11.555         	4.113
MS.216         	11.532         	4.218
MS.217         	11.51          	4.149
MS.218         	11.488         	4.27
MS.219         	11.465         	4.105
MS.220         	11.44          	4.189
MS.221         	11.417         	3.756
MS.222         	11.395         	4.189
MS.223         	11.372         	3.73
MS.224         	11.35          	3.658
MS.225         	11.327         	3.821
MS.226         	11.305         	3.726
MS.227         	11.282         	4.002
MS.228         	11.26          	3.555
MS.229         	11.238         	3.781
MS.230         	11.215         	3.289
MS.231         	11.193         	3.559
MS.232         	11.17          	3.39
MS.233         	11.148         	3.307
MS.234         	11.125         	3.464
MS.235         	11.102         	2.949
MS.236         	11.08          	3.356
MS.237         	11.057         	2.824
MS.238         	11.037         	3.011
MS.239         	11.015         	2.701
MS.240         	10.992         	2.917
MS.241         	10.97          	2.677
MS.242         	10.948         	2.816
MS.243         	10.927         	2.796
MS.244         	10.905         	2.763
MS.245         	10.882         	2.598
MS.246         	10.863         	2.516
MS.247         	10.84          	2.55
MS.248         	10.818         	2.02
MS.249         	10.797         	2.385
MS.250         	10.775         	2.139
MS.251         	10.752         	2.423
MS.252         	10.733         	2.254
MS.253         	10.71          	2.153
MS.254         	10.69          	2.353
MS.255         	10.667         	2.054
MS.256         	10.648         	1.893
MS.257         	10.625         	1.845
MS.258         	10.605         	1.813
MS.259         	10.582         	1.776
MS.260         	10.562         	1.803
MS.261         	10.54          	2.022
MS.262         	10.52          	1.686
MS.263         	10.497         	1.71
MS.264         	10.477         	1.376
MS.265         	10.457         	1.617
MS.266         	10.435         	1.476
MS.267         	10.415         	1.541
MS.268         	10.395         	1.525
MS.269         	10.372         	1.261
MS.270         	10.352         	1.48
MS.271         	10.332         	1.202
MS.272         	10.31          	1.241
MS.273         	10.29          	0.935
MS.274         	10.27          	1.295
MS.275         	10.25          	1.204
MS.276         	10.23          	1.122
MS.277         	10.207         	1.17
MS.278         	10.188         	0.935
MS.279         	10.167         	1.293
MS.280         	10.148         	1.015
MS.281         	10.127         	0.997
MS.282         	10.108         	0.864
MS.283         	10.087         	0.894
MS.284         	10.068         	0.92
MS.285         	10.047         	0.826
MS.286         	10.028         	0.985
MS.287         	10.005         	0.58
MS.288         	9.988          	0.729
MS.289         	9.967          	0.707
MS.290         	9.948          	0.775
MS.291         	9.927          	0.62
MS.292         	9.907          	0.761
MS.293         	9.887          	0.85
MS.294         	9.867          	0.616
MS.295         	9.847          	0.794
MS.296         	9.827          	0.546
MS.297         	9.807          	0.532
MS.298         	9.787          	0.62
MS.299         	9.77           	0.606
MS.300         	9.75           	0.779
MS.301         	9.73           	0.594
MS.302         	9.71           	0.596
MS.303         	9.69           	0.526
MS.304         	9.672          	0.59
MS.305         	9.653          	0.459
MS.306         	9.632          	0.56
MS.307         	9.615          	0.558
MS.308         	9.595          	0.506
MS.309         	9.575          	0.504
MS.310         	9.557          	0.518
MS.311         	9.537          	0.5
MS.312         	9.517          	0.475
MS.313         	9.5            	0.526
MS.314         	9.48           	0.449
MS.315         	9.462          	0.455
MS.316         	9.443          	0.423
MS.317         	9.422          	0.407
MS.318         	9.405          	0.419
MS.319         	9.385          	0.455
MS.320         	9.367          	0.471
MS.321         	9.347          	0.379
MS.322         	9.33           	0.463
MS.323         	9.31           	0.437
MS.324         	9.292          	0.383
MS.325         	9.275          	0.427
MS.326         	9.255          	0.389
MS.327         	9.238          	0.344
MS.328         	9.217          	0.393
MS.329         	9.2            	0.399
MS.330         	9.182          	0.359
MS.331         	9.162          	0.425
MS.332         	9.145          	0.363
MS.333         	9.127          	0.324
MS.334         	9.108          	0.34
MS.335         	9.09           	0.395
MS.336         	9.073          	0.363
MS.337         	9.055          	0.266
MS.338         	9.035          	0.296
MS.339         	9.017          	0.354
MS.340         	9              	0.342
MS.341         	8.983          	0.383
MS.342         	8.965          	0.318
MS.343         	8.945          	0.302
MS.344         	8.927          	0.292
MS.345         	8.91           	0.324
MS.346         	8.892          	0.332
MS.347         	8.875          	0.298
MS.348         	8.858          	0.266
MS.349         	8.84           	0.224
MS.350         	8.823          	0.29
MS.351         	8.805          	0.228
MS.352         	8.787          	0.31
MS.353         	8.77           	0.288
MS.354         	8.752          	0.234
MS.355         	8.735          	0.203
MS.356         	8.717          	0.286
MS.357         	8.7            	0.306
MS.358         	8.682          	0.282
MS.359         	8.665          	0.28
MS.360         	8.648          	0.306
MS.361         	8.63           	0.244
MS.362         	8.613          	0.256
MS.363         	8.595          	0.207
MS.364         	8.577          	0.195
MS.365         	8.56           	0.278
MS.366         	8.545          	0.236
MS.367         	8.528          	0.205
MS.368         	8.51           	0.288
MS.369         	8.492          	0.199
MS.370         	8.475          	0.193
MS.371         	8.46           	0.189
MS.372         	8.443          	0.214
MS.373         	8.425          	0.189
MS.374         	8.408          	0.209
MS.375         	8.392          	0.288
MS.376         	8.375          	0.29
MS.377         	8.358          	0.201
MS.378         	8.34           	0.203
MS.379         	8.325          	0.199
MS.380         	8.307          	0.207
MS.381         	8.292          	0.258
MS.382         	8.275          	0.197
MS.383         	8.257          	0.189
MS.384         	8.242          	0.203
MS.385         	8.225          	0.197
MS.386         	8.21           	0.187
MS.387         	8.193          	0.201
MS.388         	8.175          	0.193
MS.389         	8.16           	0.205
MS.390         	8.142          	0.189
MS.391         	8.127          	0.203
MS.392         	8.11           	0.197
MS.393         	8.095          	0.199
MS.394         	8.077          	0.197
MS.395         	8.062          	0.187
MS.396         	8.047          	0.203
MS.397         	8.03           	0.205
MS.398         	8.015          	0.195
MS.399         	7.997          	0.187
MS.400         	7.982          	0.173
MS.401         	7.965          	0.165
MS.402         	7.95           	0.201
MS.403         	7.935          	0.193
MS.404         	7.918          	0.191
MS.405         	7.902          	0.211
MS.406         	7.887          	0.159
MS.407         	7.87           	0.191
MS.408         	7.855          	0.139
MS.409         	7.84           	0.187
MS.410         	7.825          	0.157
MS.411         	7.807          	0.195
MS.412         	7.793          	0.193
MS.413         	7.777          	0.155
MS.414         	7.762          	0.161
MS.415         	7.747          	0.179
MS.416         	7.73           	0.145
MS.417         	7.715          	0.155
MS.418         	7.7            	0.119
MS.419         	7.685          	0.119
MS.420         	7.67           	0.149
MS.421         	7.655          	0.147
MS.422         	7.637          	0.119
MS.423         	7.622          	0.131
MS.424         	7.607          	0.143
MS.425         	7.592          	0.113
MS.426         	7.577          	0.093
MS.427         	7.562          	0.117
MS.428         	7.547          	0.111
MS.429         	7.532          	0.131
MS.430         	7.517          	0.113
MS.431         	7.503          	0.099
MS.432         	7.487          	0.133
MS.433         	7.472          	0.093
MS.434         	7.457          	0.137
MS.435         	7.442          	0.091
MS.436         	7.427          	0.091
MS.437         	7.412          	0.083
MS.438         	7.398          	0.119
MS.439         	7.382          	0.089
MS.440         	7.367          	0.085
MS.441         	7.352          	0.095
MS.442         	7.34           	0.091
MS.443         	7.325          	0.101
MS.444         	7.31           	0.079
MS.445         	7.295          	0.091
MS.446         	7.28           	0.068
MS.447         	7.265          	0.095
MS.448         	7.253          	0.048
MS.449         	7.237          	0.083
MS.450         	7.222          	0.068
MS.451         	7.207          	0.07
MS.452         	7.192          	0.087
MS.453         	7.18           	0.079
MS.454         	7.165          	0.06
MS.455         	7.15           	0.052
MS.456         	7.137          	0.064
MS.457         	7.122          	0.05
MS.458         	7.108          	0.018
MS.459         	7.092          	0.077
MS.460         	7.08           	0.05
MS.461         	7.065          	0.087
MS.462         	7.052          	0.05
MS.463         	7.037          	0.026
MS.464         	7.023          	0.064
MS.465         	7.01           	0.06
MS.466         	6.995          	0.054
MS.467         	6.98           	0.062
MS.468         	6.967          	0.068
MS.469         	6.952          	0.03
MS.470         	6.94           	0.028
MS.471         	6.925          	0.02
MS.472         	6.912          	0.05
MS.473         	6.898          	0.068
MS.474         	6.885          	0.022
MS.475         	6.87           	0.052
MS.476         	6.858          	0.042
MS.477         	6.842          	0.081
MS.478         	6.83           	0.016
MS.479         	6.815          	0.018
MS.480         	6.802          	0.02
MS.481         	6.787          	0.024
MS.482         	6.775          	0.018
MS.483         	6.762          	0.024
MS.484         	6.747          	0.024
MS.485         	6.735          	0.024
MS.486         	6.72           	0.04
MS.487         	6.707          	0.02
MS.488         	6.695          	0.02
MS.489         	6.68           	0.014
MS.490         	6.668          	0.022
MS.491         	6.655          	0.02
MS.492         	6.64           	0.024
MS.493         	6.628          	0.024
MS.494         	6.615          	0.02
MS.495         	6.6            	0.022
MS.496         	6.587          	0.022
MS.497         	6.575          	0.02
MS.498         	6.562          	0.016
