File:              	C:\Qtrac\Data\Daniel M Sørensen\MScan multicentre study\Data from centres\Toronto\Processed data\MSCC01216C.QZD
Name:              	CA.TOR.NC.9.2
Protocol:          	MSCAN-R2
Date:              	16/12/20
Start time:        	12:33:10
Age:               	51
Sex:               	F
Temperature:       	30.4
S/R sites:         	TA
NC/disease:        	NC
Operator:          	LP
Comments:          	MFF60ON
M-SCAN DATA (6.8-1.3m)
Scanpts: 75, 88, 571, 593
Stim. (mA)     	Amp. (mV)
MS.1           	20             	6.317
MS.2           	20             	6.304
MS.3           	20             	6.318
MS.4           	20             	6.304
MS.5           	20             	6.263
MS.6           	20             	6.263
MS.7           	20             	6.23
MS.8           	20             	6.234
MS.9           	20             	6.261
MS.10          	20             	6.227
MS.11          	20             	6.226
MS.12          	20             	6.213
MS.13          	20             	6.237
MS.14          	20             	6.254
MS.15          	20             	6.252
MS.16          	20             	6.246
MS.17          	20             	6.251
MS.18          	20             	6.251
MS.19          	20             	6.235
MS.20          	20             	6.25
MS.21          	20             	6.262
MS.22          	20             	6.267
MS.23          	20             	6.293
MS.24          	19.92          	6.274
MS.25          	19.88          	6.262
MS.26          	19.84          	6.265
MS.27          	19.8           	6.262
MS.28          	19.762         	6.273
MS.29          	19.722         	6.278
MS.30          	19.682         	6.274
MS.31          	19.642         	6.279
MS.32          	19.605         	6.252
MS.33          	19.565         	6.277
MS.34          	19.525         	6.298
MS.35          	19.487         	6.282
MS.36          	19.448         	6.299
MS.37          	19.41          	6.305
MS.38          	19.37          	6.29
MS.39          	19.333         	6.284
MS.40          	19.292         	6.273
MS.41          	19.255         	6.302
MS.42          	19.215         	6.283
MS.43          	19.177         	6.285
MS.44          	19.14          	6.296
MS.45          	19.1           	6.3
MS.46          	19.062         	6.278
MS.47          	19.025         	6.281
MS.48          	18.987         	6.277
MS.49          	18.948         	6.281
MS.50          	18.91          	6.31
MS.51          	18.872         	6.289
MS.52          	18.835         	6.292
MS.53          	18.797         	6.268
MS.54          	18.76          	6.289
MS.55          	18.722         	6.283
MS.56          	18.685         	6.285
MS.57          	18.647         	6.282
MS.58          	18.61          	6.29
MS.59          	18.573         	6.289
MS.60          	18.535         	6.288
MS.61          	18.5           	6.278
MS.62          	18.462         	6.294
MS.63          	18.425         	6.307
MS.64          	18.387         	6.289
MS.65          	18.352         	6.289
MS.66          	18.315         	6.289
MS.67          	18.278         	6.31
MS.68          	18.243         	6.292
MS.69          	18.205         	6.287
MS.70          	18.17          	6.299
MS.71          	18.132         	6.293
MS.72          	18.097         	6.301
MS.73          	18.06          	6.307
MS.74          	18.025         	6.281
MS.75          	17.987         	6.307
MS.76          	17.952         	6.302
MS.77          	17.917         	6.3
MS.78          	17.88          	6.302
MS.79          	17.845         	6.304
MS.80          	17.81          	6.294
MS.81          	17.775         	6.305
MS.82          	17.737         	6.3
MS.83          	17.702         	6.299
MS.84          	17.667         	6.299
MS.85          	17.632         	6.304
MS.86          	17.597         	6.292
MS.87          	17.562         	6.299
MS.88          	17.528         	6.272
MS.89          	17.493         	6.294
MS.90          	17.458         	6.284
MS.91          	17.422         	6.283
MS.92          	17.387         	6.31
MS.93          	17.352         	6.277
MS.94          	17.317         	6.276
MS.95          	17.282         	6.246
MS.96          	17.247         	6.287
MS.97          	17.215         	6.288
MS.98          	17.18          	6.245
MS.99          	17.145         	6.278
MS.100         	17.11          	6.266
MS.101         	17.077         	6.259
MS.102         	17.042         	6.249
MS.103         	17.01          	6.254
MS.104         	16.975         	6.299
MS.105         	16.94          	6.26
MS.106         	16.907         	6.244
MS.107         	16.872         	6.213
MS.108         	16.84          	6.229
MS.109         	16.805         	6.249
MS.110         	16.772         	6.252
MS.111         	16.74          	6.238
MS.112         	16.705         	6.229
MS.113         	16.672         	6.215
MS.114         	16.637         	6.212
MS.115         	16.605         	6.207
MS.116         	16.573         	6.221
MS.117         	16.54          	6.212
MS.118         	16.505         	6.19
MS.119         	16.472         	6.219
MS.120         	16.44          	6.212
MS.121         	16.407         	6.184
MS.122         	16.375         	6.188
MS.123         	16.342         	6.195
MS.124         	16.31          	6.188
MS.125         	16.278         	6.151
MS.126         	16.245         	6.132
MS.127         	16.212         	6.16
MS.128         	16.18          	6.134
MS.129         	16.147         	6.161
MS.130         	16.115         	6.127
MS.131         	16.083         	6.099
MS.132         	16.05          	6.118
MS.133         	16.017         	6.094
MS.134         	15.985         	6.086
MS.135         	15.955         	6.104
MS.136         	15.922         	6.079
MS.137         	15.89          	6.073
MS.138         	15.86          	6.067
MS.139         	15.827         	6.073
MS.140         	15.795         	6.068
MS.141         	15.765         	6.045
MS.142         	15.733         	6.021
MS.143         	15.7           	6.069
MS.144         	15.67          	6.036
MS.145         	15.637         	6.01
MS.146         	15.608         	6.007
MS.147         	15.575         	6.069
MS.148         	15.545         	6.011
MS.149         	15.515         	6.033
MS.150         	15.483         	5.994
MS.151         	15.452         	5.981
MS.152         	15.42          	5.964
MS.153         	15.39          	5.975
MS.154         	15.36          	5.935
MS.155         	15.327         	5.911
MS.156         	15.297         	5.879
MS.157         	15.267         	5.945
MS.158         	15.237         	5.863
MS.159         	15.207         	5.875
MS.160         	15.175         	5.906
MS.161         	15.145         	5.869
MS.162         	15.115         	5.872
MS.163         	15.085         	5.906
MS.164         	15.055         	5.923
MS.165         	15.025         	5.881
MS.166         	14.995         	5.83
MS.167         	14.965         	5.85
MS.168         	14.935         	5.764
MS.169         	14.905         	5.833
MS.170         	14.875         	5.762
MS.171         	14.845         	5.797
MS.172         	14.818         	5.769
MS.173         	14.787         	5.787
MS.174         	14.757         	5.707
MS.175         	14.727         	5.729
MS.176         	14.697         	5.719
MS.177         	14.67          	5.752
MS.178         	14.64          	5.632
MS.179         	14.61          	5.681
MS.180         	14.58          	5.624
MS.181         	14.552         	5.587
MS.182         	14.523         	5.605
MS.183         	14.495         	5.543
MS.184         	14.465         	5.599
MS.185         	14.435         	5.53
MS.186         	14.407         	5.53
MS.187         	14.377         	5.516
MS.188         	14.35          	5.447
MS.189         	14.32          	5.485
MS.190         	14.292         	5.416
MS.191         	14.265         	5.441
MS.192         	14.235         	5.404
MS.193         	14.207         	5.358
MS.194         	14.177         	5.435
MS.195         	14.15          	5.348
MS.196         	14.122         	5.392
MS.197         	14.092         	5.333
MS.198         	14.065         	5.32
MS.199         	14.037         	5.297
MS.200         	14.01          	5.289
MS.201         	13.983         	5.305
MS.202         	13.952         	5.276
MS.203         	13.925         	5.22
MS.204         	13.898         	5.272
MS.205         	13.87          	5.216
MS.206         	13.842         	5.177
MS.207         	13.815         	5.187
MS.208         	13.787         	5.077
MS.209         	13.76          	5.137
MS.210         	13.733         	5.105
MS.211         	13.705         	5.139
MS.212         	13.677         	5.065
MS.213         	13.65          	5.035
MS.214         	13.622         	5.049
MS.215         	13.595         	5.016
MS.216         	13.568         	5.012
MS.217         	13.54          	4.972
MS.218         	13.515         	4.919
MS.219         	13.487         	4.91
MS.220         	13.46          	4.868
MS.221         	13.432         	4.836
MS.222         	13.407         	4.796
MS.223         	13.38          	4.779
MS.224         	13.352         	4.705
MS.225         	13.325         	4.719
MS.226         	13.3           	4.73
MS.227         	13.273         	4.689
MS.228         	13.247         	4.591
MS.229         	13.22          	4.59
MS.230         	13.193         	4.617
MS.231         	13.167         	4.689
MS.232         	13.14          	4.589
MS.233         	13.115         	4.55
MS.234         	13.087         	4.534
MS.235         	13.062         	4.518
MS.236         	13.035         	4.48
MS.237         	13.01          	4.491
MS.238         	12.985         	4.469
MS.239         	12.957         	4.426
MS.240         	12.932         	4.403
MS.241         	12.907         	4.357
MS.242         	12.88          	4.384
MS.243         	12.855         	4.32
MS.244         	12.83          	4.296
MS.245         	12.802         	4.327
MS.246         	12.778         	4.25
MS.247         	12.752         	4.312
MS.248         	12.727         	4.266
MS.249         	12.702         	4.259
MS.250         	12.675         	4.218
MS.251         	12.65          	4.258
MS.252         	12.625         	4.226
MS.253         	12.6           	4.192
MS.254         	12.575         	4.088
MS.255         	12.55          	4.158
MS.256         	12.525         	4.164
MS.257         	12.5           	4.052
MS.258         	12.475         	4.093
MS.259         	12.45          	4.06
MS.260         	12.425         	4.05
MS.261         	12.4           	4.027
MS.262         	12.375         	4
MS.263         	12.35          	3.989
MS.264         	12.325         	3.975
MS.265         	12.302         	3.931
MS.266         	12.278         	3.983
MS.267         	12.252         	3.914
MS.268         	12.227         	3.85
MS.269         	12.202         	3.788
MS.270         	12.18          	3.822
MS.271         	12.155         	3.81
MS.272         	12.13          	3.784
MS.273         	12.108         	3.693
MS.274         	12.082         	3.665
MS.275         	12.057         	3.701
MS.276         	12.035         	3.679
MS.277         	12.01          	3.698
MS.278         	11.985         	3.701
MS.279         	11.962         	3.611
MS.280         	11.938         	3.661
MS.281         	11.915         	3.56
MS.282         	11.89          	3.635
MS.283         	11.867         	3.523
MS.284         	11.842         	3.61
MS.285         	11.82          	3.411
MS.286         	11.795         	3.49
MS.287         	11.773         	3.353
MS.288         	11.747         	3.411
MS.289         	11.725         	3.386
MS.290         	11.702         	3.4
MS.291         	11.677         	3.209
MS.292         	11.655         	3.312
MS.293         	11.632         	3.219
MS.294         	11.608         	3.197
MS.295         	11.585         	3.279
MS.296         	11.562         	3.113
MS.297         	11.54          	3.107
MS.298         	11.515         	3.058
MS.299         	11.492         	3.127
MS.300         	11.47          	3.153
MS.301         	11.447         	3.093
MS.302         	11.425         	3.055
MS.303         	11.403         	3.011
MS.304         	11.377         	3.068
MS.305         	11.355         	2.976
MS.306         	11.332         	3.076
MS.307         	11.31          	3.007
MS.308         	11.287         	2.926
MS.309         	11.265         	2.927
MS.310         	11.242         	2.88
MS.311         	11.22          	2.882
MS.312         	11.197         	2.834
MS.313         	11.175         	2.725
MS.314         	11.153         	2.805
MS.315         	11.13          	2.697
MS.316         	11.108         	2.726
MS.317         	11.087         	2.71
MS.318         	11.065         	2.665
MS.319         	11.042         	2.678
MS.320         	11.02          	2.601
MS.321         	10.997         	2.715
MS.322         	10.975         	2.635
MS.323         	10.955         	2.637
MS.324         	10.932         	2.604
MS.325         	10.91          	2.379
MS.326         	10.887         	2.411
MS.327         	10.867         	2.41
MS.328         	10.845         	2.349
MS.329         	10.823         	2.267
MS.330         	10.802         	2.411
MS.331         	10.78          	2.308
MS.332         	10.76          	2.278
MS.333         	10.738         	2.329
MS.334         	10.715         	2.283
MS.335         	10.695         	2.161
MS.336         	10.672         	2.23
MS.337         	10.653         	2.191
MS.338         	10.63          	2.139
MS.339         	10.61          	2.094
MS.340         	10.587         	2.097
MS.341         	10.568         	2.059
MS.342         	10.545         	2.003
MS.343         	10.525         	1.99
MS.344         	10.502         	1.991
MS.345         	10.483         	1.917
MS.346         	10.462         	1.948
MS.347         	10.44          	1.843
MS.348         	10.42          	1.932
MS.349         	10.4           	1.92
MS.350         	10.377         	1.871
MS.351         	10.358         	1.947
MS.352         	10.337         	1.807
MS.353         	10.318         	1.653
MS.354         	10.295         	1.82
MS.355         	10.275         	1.76
MS.356         	10.255         	1.725
MS.357         	10.235         	1.769
MS.358         	10.212         	1.736
MS.359         	10.193         	1.671
MS.360         	10.172         	1.686
MS.361         	10.153         	1.696
MS.362         	10.132         	1.554
MS.363         	10.113         	1.654
MS.364         	10.092         	1.555
MS.365         	10.073         	1.594
MS.366         	10.052         	1.5
MS.367         	10.032         	1.615
MS.368         	10.012         	1.604
MS.369         	9.992          	1.454
MS.370         	9.972          	1.512
MS.371         	9.952          	1.542
MS.372         	9.932          	1.473
MS.373         	9.912          	1.471
MS.374         	9.892          	1.415
MS.375         	9.872          	1.381
MS.376         	9.852          	1.378
MS.377         	9.832          	1.316
MS.378         	9.812          	1.381
MS.379         	9.792          	1.322
MS.380         	9.775          	1.362
MS.381         	9.755          	1.32
MS.382         	9.735          	1.331
MS.383         	9.715          	1.284
MS.384         	9.695          	1.29
MS.385         	9.677          	1.15
MS.386         	9.657          	1.266
MS.387         	9.637          	1.235
MS.388         	9.62           	1.277
MS.389         	9.6            	1.171
MS.390         	9.58           	1.113
MS.391         	9.562          	1.158
MS.392         	9.542          	1.086
MS.393         	9.523          	1.069
MS.394         	9.505          	1.083
MS.395         	9.485          	1.036
MS.396         	9.465          	1.095
MS.397         	9.448          	1.073
MS.398         	9.427          	1.017
MS.399         	9.41           	0.977
MS.400         	9.39           	0.952
MS.401         	9.372          	0.936
MS.402         	9.352          	0.944
MS.403         	9.335          	0.878
MS.404         	9.315          	0.903
MS.405         	9.297          	0.911
MS.406         	9.28           	0.854
MS.407         	9.26           	0.834
MS.408         	9.242          	0.842
MS.409         	9.222          	0.728
MS.410         	9.205          	0.769
MS.411         	9.188          	0.837
MS.412         	9.167          	0.774
MS.413         	9.15           	0.657
MS.414         	9.132          	0.677
MS.415         	9.113          	0.648
MS.416         	9.095          	0.68
MS.417         	9.077          	0.702
MS.418         	9.057          	0.719
MS.419         	9.04           	0.623
MS.420         	9.023          	0.679
MS.421         	9.005          	0.646
MS.422         	8.988          	0.635
MS.423         	8.967          	0.542
MS.424         	8.95           	0.582
MS.425         	8.932          	0.621
MS.426         	8.915          	0.51
MS.427         	8.898          	0.56
MS.428         	8.88           	0.514
MS.429         	8.863          	0.536
MS.430         	8.845          	0.485
MS.431         	8.825          	0.5
MS.432         	8.807          	0.485
MS.433         	8.79           	0.426
MS.434         	8.773          	0.461
MS.435         	8.755          	0.425
MS.436         	8.738          	0.409
MS.437         	8.72           	0.431
MS.438         	8.702          	0.413
MS.439         	8.685          	0.361
MS.440         	8.67           	0.393
MS.441         	8.653          	0.372
MS.442         	8.635          	0.319
MS.443         	8.617          	0.315
MS.444         	8.6            	0.333
MS.445         	8.582          	0.259
MS.446         	8.565          	0.326
MS.447         	8.547          	0.264
MS.448         	8.53           	0.304
MS.449         	8.515          	0.256
MS.450         	8.497          	0.21
MS.451         	8.48           	0.336
MS.452         	8.462          	0.3
MS.453         	8.448          	0.264
MS.454         	8.43           	0.237
MS.455         	8.412          	0.222
MS.456         	8.395          	0.205
MS.457         	8.38           	0.199
MS.458         	8.363          	0.232
MS.459         	8.345          	0.195
MS.460         	8.33           	0.155
MS.461         	8.312          	0.204
MS.462         	8.295          	0.154
MS.463         	8.28           	0.187
MS.464         	8.262          	0.126
MS.465         	8.245          	0.171
MS.466         	8.23           	0.123
MS.467         	8.212          	0.149
MS.468         	8.198          	0.123
MS.469         	8.18           	0.151
MS.470         	8.165          	0.098
MS.471         	8.148          	0.12
MS.472         	8.132          	0.093
MS.473         	8.115          	0.105
MS.474         	8.1            	0.133
MS.475         	8.082          	0.125
MS.476         	8.068          	0.077
MS.477         	8.05           	0.088
MS.478         	8.035          	0.09
MS.479         	8.017          	0.074
MS.480         	8.002          	0.123
MS.481         	7.987          	0.081
MS.482         	7.97           	0.076
MS.483         	7.955          	0.076
MS.484         	7.938          	0.051
MS.485         	7.922          	0.051
MS.486         	7.907          	0.055
MS.487         	7.89           	0.1
MS.488         	7.875          	0.045
MS.489         	7.86           	0.046
MS.490         	7.845          	0.046
MS.491         	7.827          	0.05
MS.492         	7.812          	0.024
MS.493         	7.797          	0.04
MS.494         	7.782          	0.038
MS.495         	7.765          	0.037
MS.496         	7.75           	0.056
MS.497         	7.735          	0.028
MS.498         	7.72           	0.032
MS.499         	7.705          	0.027
MS.500         	7.688          	0.044
MS.501         	7.672          	0.028
