File:              	C:\Qtrac\Data\Daniel M Sørensen\MScan multicentre study\Data from centres\Toronto\Processed data\MSCC01210C.QZD
Name:              	CA.TOR.NC.8.2
Protocol:          	MSCAN-R2
Date:              	10/12/20
Start time:        	16:03:50
Age:               	29
Sex:               	F
Temperature:       	32.2
S/R sites:         	TA
NC/disease:        	NC
Operator:          	LP
Comments:          	MFF60ON
M-SCAN DATA (6.7-1.8m)
Scanpts: 4, 8, 514, 535
Stim. (mA)     	Amp. (mV)
MS.1           	23             	6.738
MS.2           	23             	6.75
MS.3           	23             	6.742
MS.4           	23             	6.736
MS.5           	23             	6.729
MS.6           	23             	6.746
MS.7           	23             	6.753
MS.8           	23             	6.749
MS.9           	23             	6.746
MS.10          	23             	6.733
MS.11          	23             	6.727
MS.12          	23             	6.719
MS.13          	23             	6.694
MS.14          	23             	6.733
MS.15          	23             	6.736
MS.16          	23             	6.733
MS.17          	23             	6.731
MS.18          	23             	6.722
MS.19          	23             	6.71
MS.20          	23             	6.743
MS.21          	23             	6.727
MS.22          	23             	6.721
MS.23          	23             	6.732
MS.24          	22.907         	6.721
MS.25          	22.862         	6.733
MS.26          	22.817         	6.708
MS.27          	22.77          	6.699
MS.28          	22.725         	6.711
MS.29          	22.68          	6.708
MS.30          	22.635         	6.711
MS.31          	22.59          	6.731
MS.32          	22.545         	6.687
MS.33          	22.5           	6.707
MS.34          	22.455         	6.689
MS.35          	22.41          	6.681
MS.36          	22.365         	6.691
MS.37          	22.32          	6.644
MS.38          	22.275         	6.713
MS.39          	22.23          	6.687
MS.40          	22.188         	6.688
MS.41          	22.142         	6.66
MS.42          	22.097         	6.659
MS.43          	22.055         	6.666
MS.44          	22.01          	6.678
MS.45          	21.965         	6.647
MS.46          	21.922         	6.639
MS.47          	21.877         	6.672
MS.48          	21.835         	6.647
MS.49          	21.79          	6.637
MS.50          	21.747         	6.61
MS.51          	21.705         	6.613
MS.52          	21.66          	6.65
MS.53          	21.618         	6.632
MS.54          	21.575         	6.624
MS.55          	21.53          	6.642
MS.56          	21.487         	6.616
MS.57          	21.445         	6.621
MS.58          	21.403         	6.61
MS.59          	21.36          	6.616
MS.60          	21.317         	6.628
MS.61          	21.275         	6.647
MS.62          	21.233         	6.622
MS.63          	21.19          	6.617
MS.64          	21.147         	6.605
MS.65          	21.105         	6.625
MS.66          	21.062         	6.558
MS.67          	21.02          	6.589
MS.68          	20.977         	6.576
MS.69          	20.938         	6.62
MS.70          	20.895         	6.588
MS.71          	20.852         	6.56
MS.72          	20.81          	6.562
MS.73          	20.77          	6.559
MS.74          	20.727         	6.554
MS.75          	20.688         	6.536
MS.76          	20.645         	6.53
MS.77          	20.605         	6.543
MS.78          	20.562         	6.56
MS.79          	20.522         	6.533
MS.80          	20.48          	6.538
MS.81          	20.44          	6.526
MS.82          	20.4           	6.538
MS.83          	20.358         	6.521
MS.84          	20.317         	6.515
MS.85          	20.278         	6.499
MS.86          	20.237         	6.498
MS.87          	20.195         	6.516
MS.88          	20.155         	6.494
MS.89          	20.115         	6.488
MS.90          	20.075         	6.472
MS.91          	20.035         	6.45
MS.92          	19.995         	6.458
MS.93          	19.955         	6.449
MS.94          	19.915         	6.499
MS.95          	19.875         	6.473
MS.96          	19.835         	6.436
MS.97          	19.795         	6.449
MS.98          	19.757         	6.438
MS.99          	19.717         	6.417
MS.100         	19.677         	6.407
MS.101         	19.637         	6.415
MS.102         	19.6           	6.35
MS.103         	19.56          	6.412
MS.104         	19.52          	6.411
MS.105         	19.483         	6.387
MS.106         	19.442         	6.372
MS.107         	19.405         	6.313
MS.108         	19.365         	6.315
MS.109         	19.327         	6.305
MS.110         	19.288         	6.349
MS.111         	19.25          	6.296
MS.112         	19.21          	6.285
MS.113         	19.172         	6.281
MS.114         	19.135         	6.241
MS.115         	19.095         	6.235
MS.116         	19.057         	6.229
MS.117         	19.02          	6.222
MS.118         	18.983         	6.173
MS.119         	18.945         	6.187
MS.120         	18.905         	6.178
MS.121         	18.868         	6.128
MS.122         	18.83          	6.158
MS.123         	18.792         	6.095
MS.124         	18.755         	6.104
MS.125         	18.717         	6.163
MS.126         	18.68          	6.108
MS.127         	18.642         	6.119
MS.128         	18.605         	6.113
MS.129         	18.57          	6.063
MS.130         	18.532         	6.04
MS.131         	18.495         	6.027
MS.132         	18.458         	5.995
MS.133         	18.42          	5.955
MS.134         	18.385         	5.978
MS.135         	18.347         	5.902
MS.136         	18.31          	5.942
MS.137         	18.275         	5.985
MS.138         	18.237         	5.93
MS.139         	18.202         	5.898
MS.140         	18.165         	5.88
MS.141         	18.128         	5.897
MS.142         	18.092         	5.852
MS.143         	18.055         	5.889
MS.144         	18.02          	5.835
MS.145         	17.985         	5.792
MS.146         	17.948         	5.896
MS.147         	17.913         	5.757
MS.148         	17.878         	5.782
MS.149         	17.84          	5.775
MS.150         	17.805         	5.714
MS.151         	17.77          	5.707
MS.152         	17.735         	5.751
MS.153         	17.698         	5.668
MS.154         	17.663         	5.706
MS.155         	17.628         	5.625
MS.156         	17.592         	5.634
MS.157         	17.557         	5.677
MS.158         	17.522         	5.651
MS.159         	17.487         	5.574
MS.160         	17.452         	5.607
MS.161         	17.417         	5.549
MS.162         	17.382         	5.5
MS.163         	17.347         	5.47
MS.164         	17.312         	5.503
MS.165         	17.28          	5.463
MS.166         	17.245         	5.464
MS.167         	17.21          	5.392
MS.168         	17.175         	5.41
MS.169         	17.142         	5.416
MS.170         	17.108         	5.321
MS.171         	17.073         	5.404
MS.172         	17.04          	5.349
MS.173         	17.005         	5.323
MS.174         	16.97          	5.304
MS.175         	16.938         	5.272
MS.176         	16.903         	5.304
MS.177         	16.87          	5.229
MS.178         	16.835         	5.264
MS.179         	16.802         	5.314
MS.180         	16.767         	5.231
MS.181         	16.735         	5.184
MS.182         	16.702         	5.168
MS.183         	16.667         	5.228
MS.184         	16.635         	5.21
MS.185         	16.602         	5.087
MS.186         	16.567         	5.062
MS.187         	16.535         	5.104
MS.188         	16.503         	5.089
MS.189         	16.47          	5.048
MS.190         	16.438         	5.029
MS.191         	16.403         	4.99
MS.192         	16.37          	4.999
MS.193         	16.337         	4.96
MS.194         	16.305         	4.911
MS.195         	16.272         	4.897
MS.196         	16.24          	4.799
MS.197         	16.208         	4.861
MS.198         	16.175         	4.819
MS.199         	16.142         	4.833
MS.200         	16.11          	4.866
MS.201         	16.077         	4.828
MS.202         	16.047         	4.772
MS.203         	16.015         	4.747
MS.204         	15.983         	4.73
MS.205         	15.95          	4.727
MS.206         	15.917         	4.623
MS.207         	15.887         	4.586
MS.208         	15.855         	4.672
MS.209         	15.822         	4.55
MS.210         	15.792         	4.604
MS.211         	15.76          	4.525
MS.212         	15.73          	4.523
MS.213         	15.697         	4.528
MS.214         	15.665         	4.447
MS.215         	15.635         	4.396
MS.216         	15.602         	4.429
MS.217         	15.572         	4.39
MS.218         	15.54          	4.432
MS.219         	15.51          	4.404
MS.220         	15.48          	4.275
MS.221         	15.447         	4.338
MS.222         	15.417         	4.266
MS.223         	15.387         	4.216
MS.224         	15.355         	4.246
MS.225         	15.325         	4.164
MS.226         	15.295         	4.127
MS.227         	15.265         	4.185
MS.228         	15.233         	4.142
MS.229         	15.202         	4.122
MS.230         	15.172         	4.138
MS.231         	15.142         	4.081
MS.232         	15.112         	4.021
MS.233         	15.082         	4.038
MS.234         	15.052         	3.988
MS.235         	15.023         	4.026
MS.236         	14.992         	3.925
MS.237         	14.962         	3.922
MS.238         	14.932         	3.855
MS.239         	14.902         	3.816
MS.240         	14.872         	3.816
MS.241         	14.842         	3.744
MS.242         	14.812         	3.73
MS.243         	14.782         	3.683
MS.244         	14.752         	3.728
MS.245         	14.725         	3.678
MS.246         	14.695         	3.575
MS.247         	14.665         	3.591
MS.248         	14.635         	3.531
MS.249         	14.608         	3.589
MS.250         	14.577         	3.461
MS.251         	14.547         	3.448
MS.252         	14.52          	3.354
MS.253         	14.49          	3.363
MS.254         	14.462         	3.314
MS.255         	14.432         	3.337
MS.256         	14.405         	3.351
MS.257         	14.375         	3.289
MS.258         	14.347         	3.263
MS.259         	14.318         	3.171
MS.260         	14.29          	3.145
MS.261         	14.26          	3.096
MS.262         	14.233         	3.026
MS.263         	14.202         	3.038
MS.264         	14.175         	3.129
MS.265         	14.148         	3.025
MS.266         	14.117         	2.894
MS.267         	14.09          	2.983
MS.268         	14.062         	2.944
MS.269         	14.035         	2.867
MS.270         	14.005         	2.864
MS.271         	13.977         	2.817
MS.272         	13.95          	2.766
MS.273         	13.922         	2.76
MS.274         	13.895         	2.726
MS.275         	13.867         	2.759
MS.276         	13.84          	2.627
MS.277         	13.812         	2.605
MS.278         	13.785         	2.638
MS.279         	13.755         	2.551
MS.280         	13.727         	2.588
MS.281         	13.702         	2.529
MS.282         	13.675         	2.482
MS.283         	13.648         	2.46
MS.284         	13.62          	2.45
MS.285         	13.592         	2.428
MS.286         	13.565         	2.441
MS.287         	13.537         	2.46
MS.288         	13.51          	2.39
MS.289         	13.485         	2.354
MS.290         	13.457         	2.351
MS.291         	13.43          	2.4
MS.292         	13.403         	2.291
MS.293         	13.377         	2.273
MS.294         	13.35          	2.225
MS.295         	13.322         	2.212
MS.296         	13.297         	2.181
MS.297         	13.27          	2.146
MS.298         	13.242         	2.068
MS.299         	13.217         	2.103
MS.300         	13.19          	2.101
MS.301         	13.165         	2.051
MS.302         	13.137         	2.079
MS.303         	13.112         	2.035
MS.304         	13.085         	2.008
MS.305         	13.06          	1.975
MS.306         	13.032         	1.926
MS.307         	13.007         	1.876
MS.308         	12.98          	1.965
MS.309         	12.955         	1.786
MS.310         	12.93          	1.863
MS.311         	12.903         	1.825
MS.312         	12.877         	1.771
MS.313         	12.852         	1.703
MS.314         	12.825         	1.757
MS.315         	12.8           	1.727
MS.316         	12.775         	1.617
MS.317         	12.75          	1.578
MS.318         	12.725         	1.648
MS.319         	12.697         	1.6
MS.320         	12.672         	1.698
MS.321         	12.648         	1.541
MS.322         	12.622         	1.537
MS.323         	12.597         	1.488
MS.324         	12.572         	1.531
MS.325         	12.547         	1.454
MS.326         	12.523         	1.454
MS.327         	12.497         	1.45
MS.328         	12.472         	1.361
MS.329         	12.447         	1.422
MS.330         	12.422         	1.389
MS.331         	12.398         	1.372
MS.332         	12.372         	1.304
MS.333         	12.347         	1.343
MS.334         	12.322         	1.382
MS.335         	12.297         	1.318
MS.336         	12.275         	1.283
MS.337         	12.25          	1.223
MS.338         	12.225         	1.262
MS.339         	12.2           	1.13
MS.340         	12.177         	1.115
MS.341         	12.153         	1.205
MS.342         	12.127         	1.152
MS.343         	12.102         	1.147
MS.344         	12.08          	1.085
MS.345         	12.055         	1.154
MS.346         	12.03          	1.051
MS.347         	12.007         	0.966
MS.348         	11.983         	1.042
MS.349         	11.96          	0.959
MS.350         	11.935         	1.001
MS.351         	11.912         	1.044
MS.352         	11.887         	0.942
MS.353         	11.865         	0.858
MS.354         	11.84          	0.903
MS.355         	11.818         	0.946
MS.356         	11.792         	0.922
MS.357         	11.77          	0.925
MS.358         	11.745         	0.858
MS.359         	11.722         	0.858
MS.360         	11.7           	0.801
MS.361         	11.675         	0.778
MS.362         	11.653         	0.789
MS.363         	11.63          	0.77
MS.364         	11.605         	0.765
MS.365         	11.582         	0.699
MS.366         	11.56          	0.742
MS.367         	11.535         	0.681
MS.368         	11.512         	0.732
MS.369         	11.49          	0.696
MS.370         	11.467         	0.667
MS.371         	11.445         	0.645
MS.372         	11.422         	0.642
MS.373         	11.398         	0.646
MS.374         	11.375         	0.704
MS.375         	11.352         	0.612
MS.376         	11.33          	0.619
MS.377         	11.307         	0.612
MS.378         	11.285         	0.61
MS.379         	11.262         	0.547
MS.380         	11.24          	0.575
MS.381         	11.217         	0.568
MS.382         	11.195         	0.607
MS.383         	11.172         	0.577
MS.384         	11.15          	0.558
MS.385         	11.127         	0.532
MS.386         	11.105         	0.571
MS.387         	11.085         	0.499
MS.388         	11.062         	0.505
MS.389         	11.04          	0.472
MS.390         	11.017         	0.521
MS.391         	10.995         	0.457
MS.392         	10.972         	0.442
MS.393         	10.952         	0.425
MS.394         	10.93          	0.425
MS.395         	10.907         	0.426
MS.396         	10.885         	0.414
MS.397         	10.865         	0.389
MS.398         	10.842         	0.433
MS.399         	10.82          	0.388
MS.400         	10.8           	0.344
MS.401         	10.778         	0.378
MS.402         	10.757         	0.394
MS.403         	10.735         	0.388
MS.404         	10.712         	0.416
MS.405         	10.693         	0.397
MS.406         	10.67          	0.354
MS.407         	10.65          	0.316
MS.408         	10.627         	0.353
MS.409         	10.608         	0.309
MS.410         	10.585         	0.292
MS.411         	10.565         	0.281
MS.412         	10.542         	0.288
MS.413         	10.523         	0.273
MS.414         	10.5           	0.33
MS.415         	10.48          	0.308
MS.416         	10.46          	0.31
MS.417         	10.438         	0.269
MS.418         	10.417         	0.266
MS.419         	10.398         	0.269
MS.420         	10.375         	0.283
MS.421         	10.355         	0.256
MS.422         	10.335         	0.259
MS.423         	10.315         	0.253
MS.424         	10.292         	0.225
MS.425         	10.273         	0.244
MS.426         	10.252         	0.273
MS.427         	10.233         	0.219
MS.428         	10.212         	0.223
MS.429         	10.19          	0.201
MS.430         	10.17          	0.173
MS.431         	10.15          	0.194
MS.432         	10.13          	0.197
MS.433         	10.11          	0.189
MS.434         	10.09          	0.21
MS.435         	10.07          	0.166
MS.436         	10.05          	0.176
MS.437         	10.03          	0.176
MS.438         	10.01          	0.144
MS.439         	9.99           	0.181
MS.440         	9.97           	0.154
MS.441         	9.95           	0.157
MS.442         	9.93           	0.156
MS.443         	9.91           	0.14
MS.444         	9.89           	0.11
MS.445         	9.87           	0.11
MS.446         	9.85           	0.117
MS.447         	9.83           	0.105
MS.448         	9.81           	0.11
MS.449         	9.792          	0.094
MS.450         	9.773          	0.118
MS.451         	9.752          	0.11
MS.452         	9.733          	0.139
MS.453         	9.712          	0.144
MS.454         	9.695          	0.132
MS.455         	9.675          	0.139
MS.456         	9.655          	0.138
MS.457         	9.635          	0.1
MS.458         	9.617          	0.116
MS.459         	9.597          	0.107
MS.460         	9.577          	0.106
MS.461         	9.56           	0.095
MS.462         	9.54           	0.094
MS.463         	9.52           	0.078
MS.464         	9.502          	0.087
MS.465         	9.483          	0.094
MS.466         	9.465          	0.095
MS.467         	9.445          	0.083
MS.468         	9.425          	0.076
MS.469         	9.407          	0.093
MS.470         	9.387          	0.09
MS.471         	9.37           	0.1
MS.472         	9.35           	0.057
MS.473         	9.332          	0.093
MS.474         	9.312          	0.079
MS.475         	9.295          	0.07
MS.476         	9.278          	0.071
MS.477         	9.257          	0.076
MS.478         	9.24           	0.05
MS.479         	9.22           	0.045
MS.480         	9.202          	0.054
MS.481         	9.185          	0.065
MS.482         	9.165          	0.054
MS.483         	9.148          	0.049
MS.484         	9.13           	0.051
MS.485         	9.11           	0.051
MS.486         	9.092          	0.066
MS.487         	9.075          	0.072
MS.488         	9.057          	0.05
MS.489         	9.037          	0.042
MS.490         	9.02           	0.045
MS.491         	9.002          	0.046
MS.492         	8.985          	0.039
MS.493         	8.967          	0.056
MS.494         	8.948          	0.04
MS.495         	8.93           	0.044
MS.496         	8.912          	0.044
MS.497         	8.895          	0.039
MS.498         	8.877          	0.04
MS.499         	8.86           	0.042
MS.500         	8.842          	0.044
MS.501         	8.825          	0.037
