File:              	C:\Qtrac\Data\Daniel M Sørensen\MScan multicentre study\Data from centres\Toronto\Processed data\MSCC01112A.QZD
Name:              	CA.TOR.NC.1.1
Protocol:          	MSCAN-R2
Date:              	12/11/20
Start time:        	13:07:32
Age:               	36
Sex:               	M
Temperature:       	29.6
S/R sites:         	APB
NC/disease:        	NC
Operator:          	LP
Comments:
M-SCAN DATA (7.5-1.1m)
Scanpts: 106, 118, 666, 688
Stim. (mA)     	Amp. (mV)
MS.1           	28.5           	13.104
MS.2           	28.5           	13.076
MS.3           	28.5           	13.092
MS.4           	28.5           	13.052
MS.5           	28.5           	13.044
MS.6           	28.5           	13.042
MS.7           	28.5           	13.06
MS.8           	28.5           	13.062
MS.9           	28.5           	13.06
MS.10          	28.5           	13.072
MS.11          	28.5           	13.05
MS.12          	28.5           	13.068
MS.13          	28.5           	13.06
MS.14          	28.5           	13.074
MS.15          	28.5           	13.068
MS.16          	28.5           	13.072
MS.17          	28.5           	13.07
MS.18          	28.5           	13.074
MS.19          	28.5           	13.06
MS.20          	28.5           	13.07
MS.21          	28.5           	13.068
MS.22          	28.5           	13.06
MS.23          	28.5           	13.078
MS.24          	28.385         	13.054
MS.25          	28.33          	13.062
MS.26          	28.272         	13.066
MS.27          	28.217         	13.07
MS.28          	28.16          	13.082
MS.29          	28.102         	13.082
MS.30          	28.047         	13.09
MS.31          	27.993         	13.076
MS.32          	27.935         	13.088
MS.33          	27.88          	13.086
MS.34          	27.825         	13.086
MS.35          	27.767         	13.076
MS.36          	27.712         	13.09
MS.37          	27.657         	13.086
MS.38          	27.602         	13.08
MS.39          	27.547         	13.086
MS.40          	27.493         	13.074
MS.41          	27.438         	13.082
MS.42          	27.382         	13.074
MS.43          	27.327         	13.108
MS.44          	27.272         	13.088
MS.45          	27.217         	13.08
MS.46          	27.165         	13.084
MS.47          	27.11          	13.104
MS.48          	27.055         	13.088
MS.49          	27.002         	13.086
MS.50          	26.948         	13.094
MS.51          	26.895         	13.086
MS.52          	26.84          	13.098
MS.53          	26.787         	13.086
MS.54          	26.733         	13.082
MS.55          	26.68          	13.098
MS.56          	26.627         	13.096
MS.57          	26.573         	13.088
MS.58          	26.52          	13.088
MS.59          	26.467         	13.098
MS.60          	26.415         	13.104
MS.61          	26.362         	13.1
MS.62          	26.307         	13.088
MS.63          	26.255         	13.102
MS.64          	26.202         	13.102
MS.65          	26.153         	13.078
MS.66          	26.1           	13.084
MS.67          	26.047         	13.09
MS.68          	25.995         	13.084
MS.69          	25.942         	13.072
MS.70          	25.89          	13.03
MS.71          	25.84          	13.094
MS.72          	25.787         	13.096
MS.73          	25.735         	13.062
MS.74          	25.685         	13.074
MS.75          	25.632         	13.086
MS.76          	25.582         	13.044
MS.77          	25.53          	13.044
MS.78          	25.48          	13.078
MS.79          	25.43          	13.11
MS.80          	25.377         	13.052
MS.81          	25.327         	13.068
MS.82          	25.278         	13.076
MS.83          	25.227         	13.056
MS.84          	25.175         	13.07
MS.85          	25.125         	13.048
MS.86          	25.075         	13.048
MS.87          	25.025         	13.068
MS.88          	24.975         	13.066
MS.89          	24.925         	13.066
MS.90          	24.875         	13.07
MS.91          	24.825         	13.07
MS.92          	24.778         	13.06
MS.93          	24.727         	13.08
MS.94          	24.677         	13.06
MS.95          	24.627         	13.072
MS.96          	24.58          	13.06
MS.97          	24.53          	13.056
MS.98          	24.48          	13.05
MS.99          	24.432         	13.058
MS.100         	24.382         	13.062
MS.101         	24.335         	13.052
MS.102         	24.285         	13.066
MS.103         	24.237         	13.054
MS.104         	24.19          	13.054
MS.105         	24.14          	13.062
MS.106         	24.092         	13.05
MS.107         	24.045         	13.066
MS.108         	23.997         	13.064
MS.109         	23.948         	13.068
MS.110         	23.9           	13.062
MS.111         	23.852         	13.066
MS.112         	23.805         	13.054
MS.113         	23.757         	13.066
MS.114         	23.71          	13.058
MS.115         	23.663         	13.062
MS.116         	23.615         	13.062
MS.117         	23.567         	13.086
MS.118         	23.52          	13.064
MS.119         	23.475         	13.09
MS.120         	23.427         	13.078
MS.121         	23.38          	13.066
MS.122         	23.332         	13.074
MS.123         	23.288         	13.074
MS.124         	23.24          	13.076
MS.125         	23.195         	13.084
MS.126         	23.147         	13.07
MS.127         	23.102         	13.068
MS.128         	23.055         	13.076
MS.129         	23.01          	13.088
MS.130         	22.962         	13.084
MS.131         	22.917         	13.062
MS.132         	22.872         	13.072
MS.133         	22.825         	13.064
MS.134         	22.78          	13.058
MS.135         	22.735         	13.052
MS.136         	22.69          	13.05
MS.137         	22.645         	13.06
MS.138         	22.6           	13.044
MS.139         	22.552         	13.044
MS.140         	22.507         	13.048
MS.141         	22.462         	13.056
MS.142         	22.42          	13.062
MS.143         	22.375         	13.042
MS.144         	22.33          	13.03
MS.145         	22.285         	13.03
MS.146         	22.24          	13.042
MS.147         	22.195         	13.048
MS.148         	22.153         	13.058
MS.149         	22.108         	13.058
MS.150         	22.062         	13.054
MS.151         	22.02          	13.04
MS.152         	21.975         	13.046
MS.153         	21.93          	13.06
MS.154         	21.887         	13.04
MS.155         	21.842         	13.056
MS.156         	21.8           	13.078
MS.157         	21.755         	13.074
MS.158         	21.712         	13.064
MS.159         	21.67          	13.056
MS.160         	21.625         	13.056
MS.161         	21.583         	13.052
MS.162         	21.54          	13.052
MS.163         	21.497         	13.042
MS.164         	21.455         	13.05
MS.165         	21.41          	13.044
MS.166         	21.368         	13.062
MS.167         	21.325         	13.058
MS.168         	21.282         	13.052
MS.169         	21.24          	13.056
MS.170         	21.198         	13.046
MS.171         	21.155         	13.046
MS.172         	21.112         	13.036
MS.173         	21.07          	13.046
MS.174         	21.03          	13.058
MS.175         	20.987         	13.048
MS.176         	20.945         	13.058
MS.177         	20.903         	13.058
MS.178         	20.862         	13.058
MS.179         	20.82          	13.06
MS.180         	20.778         	13.072
MS.181         	20.737         	13.054
MS.182         	20.695         	13.054
MS.183         	20.655         	13.066
MS.184         	20.612         	13.044
MS.185         	20.573         	13.058
MS.186         	20.53          	13.052
MS.187         	20.49          	13.064
MS.188         	20.448         	13.048
MS.189         	20.407         	12.947
MS.190         	20.368         	12.939
MS.191         	20.325         	13.06
MS.192         	20.285         	13.056
MS.193         	20.245         	13.028
MS.194         	20.205         	13.038
MS.195         	20.165         	13.064
MS.196         	20.122         	13.064
MS.197         	20.083         	13.048
MS.198         	20.042         	12.661
MS.199         	20.002         	13.058
MS.200         	19.962         	12.943
MS.201         	19.922         	12.969
MS.202         	19.882         	12.963
MS.203         	19.845         	13.072
MS.204         	19.805         	12.977
MS.205         	19.765         	12.959
MS.206         	19.725         	12.967
MS.207         	19.685         	12.947
MS.208         	19.647         	12.786
MS.209         	19.608         	12.965
MS.210         	19.567         	12.657
MS.211         	19.53          	12.665
MS.212         	19.49          	12.965
MS.213         	19.45          	12.961
MS.214         	19.413         	12.949
MS.215         	19.372         	12.667
MS.216         	19.335         	12.663
MS.217         	19.295         	12.953
MS.218         	19.257         	12.653
MS.219         	19.22          	12.657
MS.220         	19.18          	12.645
MS.221         	19.142         	12.671
MS.222         	19.105         	12.967
MS.223         	19.065         	12.665
MS.224         	19.028         	12.665
MS.225         	18.99          	12.665
MS.226         	18.952         	12.665
MS.227         	18.915         	12.669
MS.228         	18.875         	12.671
MS.229         	18.837         	12.671
MS.230         	18.8           	12.657
MS.231         	18.762         	12.661
MS.232         	18.725         	12.657
MS.233         	18.688         	12.643
MS.234         	18.65          	12.468
MS.235         	18.612         	12.665
MS.236         	18.577         	12.669
MS.237         	18.54          	12.669
MS.238         	18.503         	12.655
MS.239         	18.465         	12.536
MS.240         	18.427         	12.522
MS.241         	18.392         	12.5
MS.242         	18.355         	12.659
MS.243         	18.317         	12.649
MS.244         	18.282         	12.633
MS.245         	18.245         	12.506
MS.246         	18.208         	12.472
MS.247         	18.172         	12.516
MS.248         	18.135         	12.431
MS.249         	18.1           	12.232
MS.250         	18.062         	12.216
MS.251         	18.028         	12.317
MS.252         	17.993         	12.192
MS.253         	17.955         	12.061
MS.254         	17.92          	12.178
MS.255         	17.885         	12.065
MS.256         	17.847         	12.105
MS.257         	17.812         	12.065
MS.258         	17.778         	12.063
MS.259         	17.743         	12.059
MS.260         	17.705         	12.119
MS.261         	17.67          	12.079
MS.262         	17.635         	12.081
MS.263         	17.6           	12.083
MS.264         	17.565         	12.051
MS.265         	17.53          	12.069
MS.266         	17.495         	12.071
MS.267         	17.46          	12.055
MS.268         	17.425         	12.063
MS.269         	17.39          	12.059
MS.270         	17.355         	12.079
MS.271         	17.32          	12.025
MS.272         	17.285         	12.021
MS.273         	17.253         	11.986
MS.274         	17.217         	12.061
MS.275         	17.182         	12.033
MS.276         	17.147         	11.97
MS.277         	17.115         	11.938
MS.278         	17.08          	11.823
MS.279         	17.045         	11.88
MS.280         	17.012         	11.596
MS.281         	16.977         	11.976
MS.282         	16.945         	11.696
MS.283         	16.91          	11.636
MS.284         	16.875         	11.598
MS.285         	16.842         	11.763
MS.286         	16.81          	11.63
MS.287         	16.775         	11.314
MS.288         	16.743         	11.459
MS.289         	16.708         	11.855
MS.290         	16.675         	11.614
MS.291         	16.642         	11.63
MS.292         	16.608         	11.585
MS.293         	16.575         	11.696
MS.294         	16.542         	11.197
MS.295         	16.51          	11.455
MS.296         	16.475         	11.072
MS.297         	16.442         	11.453
MS.298         	16.41          	11.215
MS.299         	16.378         	11.322
MS.300         	16.345         	11.324
MS.301         	16.312         	10.929
MS.302         	16.28          	10.715
MS.303         	16.247         	10.907
MS.304         	16.215         	11.094
MS.305         	16.182         	10.949
MS.306         	16.15          	10.631
MS.307         	16.118         	10.822
MS.308         	16.085         	10.653
MS.309         	16.052         	10.651
MS.310         	16.02          	10.993
MS.311         	15.99          	10.925
MS.312         	15.957         	10.858
MS.313         	15.925         	10.635
MS.314         	15.892         	10.647
MS.315         	15.862         	10.647
MS.316         	15.83          	10.542
MS.317         	15.797         	10.3
MS.318         	15.767         	10.397
MS.319         	15.735         	10.407
MS.320         	15.705         	10.482
MS.321         	15.672         	9.738
MS.322         	15.64          	10.206
MS.323         	15.61          	9.924
MS.324         	15.577         	10.065
MS.325         	15.547         	10.387
MS.326         	15.517         	9.69
MS.327         	15.485         	9.549
MS.328         	15.455         	9.614
MS.329         	15.422         	10.135
MS.330         	15.392         	9.839
MS.331         	15.362         	9.221
MS.332         	15.332         	9.295
MS.333         	15.3           	9.404
MS.334         	15.27          	9.211
MS.335         	15.24          	9.374
MS.336         	15.21          	9.144
MS.337         	15.18          	9.146
MS.338         	15.148         	8.808
MS.339         	15.117         	8.741
MS.340         	15.087         	8.844
MS.341         	15.057         	8.53
MS.342         	15.027         	8.848
MS.343         	14.997         	8.721
MS.344         	14.967         	8.623
MS.345         	14.938         	8.778
MS.346         	14.907         	8.411
MS.347         	14.877         	8.212
MS.348         	14.847         	8.278
MS.349         	14.82          	8.137
MS.350         	14.79          	7.793
MS.351         	14.76          	8.262
MS.352         	14.73          	7.847
MS.353         	14.7           	8.131
MS.354         	14.672         	7.855
MS.355         	14.642         	8.024
MS.356         	14.612         	7.644
MS.357         	14.582         	7.509
MS.358         	14.555         	7.769
MS.359         	14.525         	7.33
MS.360         	14.497         	7.348
MS.361         	14.467         	7.148
MS.362         	14.438         	7.225
MS.363         	14.41          	6.806
MS.364         	14.38          	6.532
MS.365         	14.352         	6.711
MS.366         	14.322         	7.174
MS.367         	14.295         	6.463
MS.368         	14.267         	6.232
MS.369         	14.237         	6.145
MS.370         	14.21          	6.149
MS.371         	14.18          	5.694
MS.372         	14.153         	5.91
MS.373         	14.125         	5.889
MS.374         	14.095         	5.732
MS.375         	14.068         	5.535
MS.376         	14.04          	5.63
MS.377         	14.012         	5.38
MS.378         	13.985         	4.981
MS.379         	13.955         	5.066
MS.380         	13.927         	4.999
MS.381         	13.9           	5.166
MS.382         	13.872         	5.275
MS.383         	13.845         	5.007
MS.384         	13.818         	4.667
MS.385         	13.79          	4.862
MS.386         	13.762         	4.449
MS.387         	13.735         	4.202
MS.388         	13.707         	4.465
MS.389         	13.68          	4.592
MS.390         	13.653         	4.661
MS.391         	13.625         	4.266
MS.392         	13.597         	3.74
MS.393         	13.57          	4.445
MS.394         	13.542         	3.948
MS.395         	13.517         	4.248
MS.396         	13.49          	3.621
MS.397         	13.462         	3.984
MS.398         	13.435         	3.779
MS.399         	13.407         	3.509
MS.400         	13.382         	3.65
MS.401         	13.355         	3.42
MS.402         	13.327         	3.331
MS.403         	13.302         	3.188
MS.404         	13.275         	3.364
MS.405         	13.247         	3.11
MS.406         	13.222         	2.967
MS.407         	13.195         	2.814
MS.408         	13.17          	2.816
MS.409         	13.142         	2.848
MS.410         	13.117         	2.626
MS.411         	13.09          	2.737
MS.412         	13.065         	2.653
MS.413         	13.037         	2.598
MS.414         	13.012         	2.473
MS.415         	12.987         	2.624
MS.416         	12.96          	2.647
MS.417         	12.935         	2.518
MS.418         	12.907         	2.447
MS.419         	12.882         	2.056
MS.420         	12.858         	2.032
MS.421         	12.832         	2.163
MS.422         	12.805         	2.091
MS.423         	12.78          	1.972
MS.424         	12.755         	1.873
MS.425         	12.73          	1.994
MS.426         	12.705         	1.817
MS.427         	12.677         	1.64
MS.428         	12.653         	1.75
MS.429         	12.627         	1.692
MS.430         	12.602         	1.42
MS.431         	12.577         	1.442
MS.432         	12.552         	1.557
MS.433         	12.528         	1.525
MS.434         	12.502         	1.501
MS.435         	12.477         	1.41
MS.436         	12.452         	1.48
MS.437         	12.427         	1.076
MS.438         	12.403         	1.43
MS.439         	12.377         	1.253
MS.440         	12.352         	1.18
MS.441         	12.327         	1.19
MS.442         	12.302         	1.19
MS.443         	12.28          	1.164
MS.444         	12.255         	1.124
MS.445         	12.23          	1.158
MS.446         	12.205         	1.061
MS.447         	12.182         	1.037
MS.448         	12.157         	1.122
MS.449         	12.132         	1.114
MS.450         	12.108         	1.031
MS.451         	12.085         	0.965
MS.452         	12.06          	0.965
MS.453         	12.035         	0.965
MS.454         	12.012         	0.856
MS.455         	11.988         	1.021
MS.456         	11.965         	0.729
MS.457         	11.94          	0.81
MS.458         	11.915         	0.751
MS.459         	11.892         	0.761
MS.460         	11.867         	0.81
MS.461         	11.845         	0.834
MS.462         	11.822         	0.659
MS.463         	11.797         	0.679
MS.464         	11.775         	0.725
MS.465         	11.75          	0.775
MS.466         	11.727         	0.723
MS.467         	11.702         	0.709
MS.468         	11.68          	0.749
MS.469         	11.657         	0.683
MS.470         	11.632         	0.735
MS.471         	11.61          	0.691
MS.472         	11.587         	0.596
MS.473         	11.565         	0.643
MS.474         	11.54          	0.63
MS.475         	11.517         	0.671
MS.476         	11.495         	0.544
MS.477         	11.472         	0.52
MS.478         	11.45          	0.522
MS.479         	11.425         	0.548
MS.480         	11.403         	0.578
MS.481         	11.38          	0.542
MS.482         	11.358         	0.6
MS.483         	11.335         	0.514
MS.484         	11.312         	0.528
MS.485         	11.29          	0.636
MS.486         	11.267         	0.497
MS.487         	11.245         	0.506
MS.488         	11.222         	0.457
MS.489         	11.2           	0.473
MS.490         	11.177         	0.463
MS.491         	11.155         	0.52
MS.492         	11.132         	0.467
MS.493         	11.11          	0.524
