File:              	C:\Qtrac\Data\Daniel M Sørensen\MScan multicentre study\Data from centres\Toronto\Processed data\MSCC01216E.QZD
Name:              	CA.TOR.NC.10.2
Protocol:          	MSCAN-R2
Date:              	16/12/20
Start time:        	14:26:42
Age:               	49
Sex:               	M
Temperature:       	32.6
S/R sites:         	ADM
NC/disease:        	NC
Operator:          	LP
Comments:          	MFF60ON, last trial
M-SCAN DATA (8.5-3.7m)
Scanpts: 4, 8, 505, 527
Stim. (mA)     	Amp. (mV)
MS.1           	23             	10.703
MS.2           	23             	10.621
MS.3           	23             	10.673
MS.4           	23             	10.633
MS.5           	23             	10.727
MS.6           	23             	10.717
MS.7           	23             	10.715
MS.8           	23             	10.685
MS.9           	23             	10.627
MS.10          	23             	10.615
MS.11          	23             	10.635
MS.12          	23             	10.635
MS.13          	23             	10.623
MS.14          	23             	10.518
MS.15          	23             	10.532
MS.16          	23             	10.54
MS.17          	23             	10.53
MS.18          	23             	10.544
MS.19          	23             	10.536
MS.20          	23             	10.58
MS.21          	23             	10.639
MS.22          	23             	10.5
MS.23          	23             	10.609
MS.24          	22.907         	10.512
MS.25          	22.862         	10.562
MS.26          	22.817         	10.582
MS.27          	22.77          	10.592
MS.28          	22.725         	10.558
MS.29          	22.68          	10.484
MS.30          	22.635         	10.47
MS.31          	22.59          	10.409
MS.32          	22.545         	10.472
MS.33          	22.5           	10.445
MS.34          	22.455         	10.474
MS.35          	22.41          	10.435
MS.36          	22.365         	10.468
MS.37          	22.32          	10.407
MS.38          	22.275         	10.415
MS.39          	22.23          	10.347
MS.40          	22.188         	10.369
MS.41          	22.142         	10.262
MS.42          	22.097         	10.272
MS.43          	22.055         	10.339
MS.44          	22.01          	10.286
MS.45          	21.965         	10.266
MS.46          	21.922         	10.286
MS.47          	21.877         	10.248
MS.48          	21.835         	10.26
MS.49          	21.79          	10.264
MS.50          	21.747         	10.238
MS.51          	21.705         	10.266
MS.52          	21.66          	10.258
MS.53          	21.618         	10.131
MS.54          	21.575         	10.226
MS.55          	21.53          	10.137
MS.56          	21.487         	10.145
MS.57          	21.445         	10.083
MS.58          	21.403         	10.049
MS.59          	21.36          	10.012
MS.60          	21.317         	9.996
MS.61          	21.275         	10
MS.62          	21.233         	10.012
MS.63          	21.19          	9.93
MS.64          	21.147         	9.958
MS.65          	21.105         	9.952
MS.66          	21.062         	9.918
MS.67          	21.02          	9.849
MS.68          	20.977         	9.881
MS.69          	20.938         	9.825
MS.70          	20.895         	9.841
MS.71          	20.852         	9.815
MS.72          	20.81          	9.861
MS.73          	20.77          	9.763
MS.74          	20.727         	9.706
MS.75          	20.688         	9.618
MS.76          	20.645         	9.581
MS.77          	20.605         	9.533
MS.78          	20.562         	9.521
MS.79          	20.522         	9.452
MS.80          	20.48          	9.527
MS.81          	20.44          	9.366
MS.82          	20.4           	9.15
MS.83          	20.358         	9.207
MS.84          	20.317         	9.33
MS.85          	20.278         	9.211
MS.86          	20.237         	9.034
MS.87          	20.195         	8.81
MS.88          	20.155         	8.949
MS.89          	20.115         	8.782
MS.90          	20.075         	8.522
MS.91          	20.035         	8.59
MS.92          	19.995         	8.357
MS.93          	19.955         	8.236
MS.94          	19.915         	8.31
MS.95          	19.875         	8.165
MS.96          	19.835         	8.327
MS.97          	19.795         	7.881
MS.98          	19.757         	7.867
MS.99          	19.717         	7.92
MS.100         	19.677         	7.531
MS.101         	19.637         	7.577
MS.102         	19.6           	7.769
MS.103         	19.56          	7.366
MS.104         	19.52          	7.317
MS.105         	19.483         	7.233
MS.106         	19.442         	7.231
MS.107         	19.405         	7.148
MS.108         	19.365         	7.126
MS.109         	19.327         	7.122
MS.110         	19.288         	7.18
MS.111         	19.25          	7.108
MS.112         	19.21          	7.154
MS.113         	19.172         	6.969
MS.114         	19.135         	7.015
MS.115         	19.095         	7.076
MS.116         	19.057         	6.977
MS.117         	19.02          	7.07
MS.118         	18.983         	6.894
MS.119         	18.945         	6.796
MS.120         	18.905         	6.804
MS.121         	18.868         	6.717
MS.122         	18.83          	6.697
MS.123         	18.792         	6.625
MS.124         	18.755         	6.673
MS.125         	18.717         	6.673
MS.126         	18.68          	6.602
MS.127         	18.642         	6.651
MS.128         	18.605         	6.582
MS.129         	18.57          	6.427
MS.130         	18.532         	6.554
MS.131         	18.495         	6.627
MS.132         	18.458         	6.512
MS.133         	18.42          	6.534
MS.134         	18.385         	6.53
MS.135         	18.347         	6.296
MS.136         	18.31          	6.476
MS.137         	18.275         	6.308
MS.138         	18.237         	6.242
MS.139         	18.202         	6.26
MS.140         	18.165         	6.03
MS.141         	18.128         	6.234
MS.142         	18.092         	6.218
MS.143         	18.055         	6.157
MS.144         	18.02          	6.187
MS.145         	17.985         	6.055
MS.146         	17.948         	5.736
MS.147         	17.913         	6.157
MS.148         	17.878         	5.773
MS.149         	17.84          	5.857
MS.150         	17.805         	5.166
MS.151         	17.77          	5.333
MS.152         	17.735         	5.688
MS.153         	17.698         	5.158
MS.154         	17.663         	5.195
MS.155         	17.628         	5.39
MS.156         	17.592         	5.041
MS.157         	17.557         	5.078
MS.158         	17.522         	5.138
MS.159         	17.487         	4.878
MS.160         	17.452         	5.033
MS.161         	17.417         	4.707
MS.162         	17.382         	4.9
MS.163         	17.347         	4.838
MS.164         	17.312         	4.713
MS.165         	17.28          	4.834
MS.166         	17.245         	4.52
MS.167         	17.21          	4.709
MS.168         	17.175         	4.606
MS.169         	17.142         	4.475
MS.170         	17.108         	4.56
MS.171         	17.073         	4.641
MS.172         	17.04          	4.671
MS.173         	17.005         	4.685
MS.174         	16.97          	4.266
MS.175         	16.938         	4.475
MS.176         	16.903         	4.224
MS.177         	16.87          	3.922
MS.178         	16.835         	3.696
MS.179         	16.802         	3.952
MS.180         	16.767         	3.903
MS.181         	16.735         	3.634
MS.182         	16.702         	3.734
MS.183         	16.667         	3.44
MS.184         	16.635         	3.686
MS.185         	16.602         	3.901
MS.186         	16.567         	3.196
MS.187         	16.535         	3.666
MS.188         	16.503         	3.277
MS.189         	16.47          	3.209
MS.190         	16.438         	3.215
MS.191         	16.403         	3.12
MS.192         	16.37          	3.118
MS.193         	16.337         	3.15
MS.194         	16.305         	3.053
MS.195         	16.272         	2.969
MS.196         	16.24          	2.894
MS.197         	16.208         	2.971
MS.198         	16.175         	2.695
MS.199         	16.142         	2.729
MS.200         	16.11          	2.826
MS.201         	16.077         	2.687
MS.202         	16.047         	2.786
MS.203         	16.015         	2.912
MS.204         	15.983         	2.739
MS.205         	15.95          	2.701
MS.206         	15.917         	2.53
MS.207         	15.887         	2.494
MS.208         	15.855         	2.647
MS.209         	15.822         	2.502
MS.210         	15.792         	2.526
MS.211         	15.76          	2.318
MS.212         	15.73          	2.26
MS.213         	15.697         	2.506
MS.214         	15.665         	2.367
MS.215         	15.635         	2.369
MS.216         	15.602         	2.292
MS.217         	15.572         	2.32
MS.218         	15.54          	2.349
MS.219         	15.51          	2.139
MS.220         	15.48          	2.387
MS.221         	15.447         	2.071
MS.222         	15.417         	2.145
MS.223         	15.387         	2.103
MS.224         	15.355         	1.968
MS.225         	15.325         	2.113
MS.226         	15.295         	1.966
MS.227         	15.265         	2.052
MS.228         	15.233         	2.046
MS.229         	15.202         	1.968
MS.230         	15.172         	2.069
MS.231         	15.142         	1.966
MS.232         	15.112         	1.95
MS.233         	15.082         	1.911
MS.234         	15.052         	1.96
MS.235         	15.023         	1.74
MS.236         	14.992         	1.805
MS.237         	14.962         	1.772
MS.238         	14.932         	1.869
MS.239         	14.902         	1.841
MS.240         	14.872         	1.72
MS.241         	14.842         	1.676
MS.242         	14.812         	1.658
MS.243         	14.782         	1.545
MS.244         	14.752         	1.492
MS.245         	14.725         	1.523
MS.246         	14.695         	1.396
MS.247         	14.665         	1.438
MS.248         	14.635         	1.541
MS.249         	14.608         	1.629
MS.250         	14.577         	1.507
MS.251         	14.547         	1.358
MS.252         	14.52          	1.482
MS.253         	14.49          	1.307
MS.254         	14.462         	1.257
MS.255         	14.432         	1.426
MS.256         	14.405         	1.333
MS.257         	14.375         	1.299
MS.258         	14.347         	1.225
MS.259         	14.318         	1.229
MS.260         	14.29          	1.219
MS.261         	14.26          	1.158
MS.262         	14.233         	1.269
MS.263         	14.202         	1.192
MS.264         	14.175         	1.11
MS.265         	14.148         	1.102
MS.266         	14.117         	1.082
MS.267         	14.09          	1.148
MS.268         	14.062         	1.088
MS.269         	14.035         	1.072
MS.270         	14.005         	1.09
MS.271         	13.977         	1.078
MS.272         	13.95          	1.094
MS.273         	13.922         	1.072
MS.274         	13.895         	1.023
MS.275         	13.867         	1.092
MS.276         	13.84          	1.041
MS.277         	13.812         	1.037
MS.278         	13.785         	1.059
MS.279         	13.755         	0.997
MS.280         	13.727         	0.999
MS.281         	13.702         	1.023
MS.282         	13.675         	1.025
MS.283         	13.648         	0.941
MS.284         	13.62          	0.955
MS.285         	13.592         	0.981
MS.286         	13.565         	0.953
MS.287         	13.537         	0.933
MS.288         	13.51          	1.001
MS.289         	13.485         	0.896
MS.290         	13.457         	0.953
MS.291         	13.43          	0.945
MS.292         	13.403         	0.931
MS.293         	13.377         	0.912
MS.294         	13.35          	0.979
MS.295         	13.322         	0.922
MS.296         	13.297         	0.87
MS.297         	13.27          	0.949
MS.298         	13.242         	0.88
MS.299         	13.217         	0.88
MS.300         	13.19          	0.87
MS.301         	13.165         	0.902
MS.302         	13.137         	0.848
MS.303         	13.112         	0.737
MS.304         	13.085         	0.794
MS.305         	13.06          	0.866
MS.306         	13.032         	0.731
MS.307         	13.007         	0.844
MS.308         	12.98          	0.731
MS.309         	12.955         	0.872
MS.310         	12.93          	0.796
MS.311         	12.903         	0.725
MS.312         	12.877         	0.673
MS.313         	12.852         	0.689
MS.314         	12.825         	0.727
MS.315         	12.8           	0.655
MS.316         	12.775         	0.62
MS.317         	12.75          	0.638
MS.318         	12.725         	0.612
MS.319         	12.697         	0.665
MS.320         	12.672         	0.614
MS.321         	12.648         	0.62
MS.322         	12.622         	0.675
MS.323         	12.597         	0.616
MS.324         	12.572         	0.608
MS.325         	12.547         	0.612
MS.326         	12.523         	0.576
MS.327         	12.497         	0.604
MS.328         	12.472         	0.61
MS.329         	12.447         	0.58
MS.330         	12.422         	0.602
MS.331         	12.398         	0.502
MS.332         	12.372         	0.602
MS.333         	12.347         	0.514
MS.334         	12.322         	0.608
MS.335         	12.297         	0.574
MS.336         	12.275         	0.465
MS.337         	12.25          	0.5
MS.338         	12.225         	0.461
MS.339         	12.2           	0.497
MS.340         	12.177         	0.574
MS.341         	12.153         	0.538
MS.342         	12.127         	0.576
MS.343         	12.102         	0.512
MS.344         	12.08          	0.558
MS.345         	12.055         	0.497
MS.346         	12.03          	0.455
MS.347         	12.007         	0.469
MS.348         	11.983         	0.536
MS.349         	11.96          	0.433
MS.350         	11.935         	0.504
MS.351         	11.912         	0.479
MS.352         	11.887         	0.443
MS.353         	11.865         	0.465
MS.354         	11.84          	0.445
MS.355         	11.818         	0.433
MS.356         	11.792         	0.443
MS.357         	11.77          	0.467
MS.358         	11.745         	0.435
MS.359         	11.722         	0.437
MS.360         	11.7           	0.431
MS.361         	11.675         	0.433
MS.362         	11.653         	0.395
MS.363         	11.63          	0.387
MS.364         	11.605         	0.387
MS.365         	11.582         	0.391
MS.366         	11.56          	0.387
MS.367         	11.535         	0.431
MS.368         	11.512         	0.395
MS.369         	11.49          	0.391
MS.370         	11.467         	0.387
MS.371         	11.445         	0.395
MS.372         	11.422         	0.427
MS.373         	11.398         	0.401
MS.374         	11.375         	0.399
MS.375         	11.352         	0.391
MS.376         	11.33          	0.417
MS.377         	11.307         	0.395
MS.378         	11.285         	0.383
MS.379         	11.262         	0.387
MS.380         	11.24          	0.385
MS.381         	11.217         	0.363
MS.382         	11.195         	0.357
MS.383         	11.172         	0.385
MS.384         	11.15          	0.373
MS.385         	11.127         	0.359
MS.386         	11.105         	0.391
MS.387         	11.085         	0.379
MS.388         	11.062         	0.357
MS.389         	11.04          	0.359
MS.390         	11.017         	0.328
MS.391         	10.995         	0.361
MS.392         	10.972         	0.365
MS.393         	10.952         	0.332
MS.394         	10.93          	0.361
MS.395         	10.907         	0.365
MS.396         	10.885         	0.336
MS.397         	10.865         	0.354
MS.398         	10.842         	0.348
MS.399         	10.82          	0.357
MS.400         	10.8           	0.352
MS.401         	10.778         	0.298
MS.402         	10.757         	0.298
MS.403         	10.735         	0.359
MS.404         	10.712         	0.35
MS.405         	10.693         	0.308
MS.406         	10.67          	0.359
MS.407         	10.65          	0.336
MS.408         	10.627         	0.361
MS.409         	10.608         	0.32
MS.410         	10.585         	0.324
MS.411         	10.565         	0.308
MS.412         	10.542         	0.326
MS.413         	10.523         	0.308
MS.414         	10.5           	0.306
MS.415         	10.48          	0.304
MS.416         	10.46          	0.298
MS.417         	10.438         	0.332
MS.418         	10.417         	0.318
MS.419         	10.398         	0.302
MS.420         	10.375         	0.296
MS.421         	10.355         	0.268
MS.422         	10.335         	0.288
MS.423         	10.315         	0.304
MS.424         	10.292         	0.27
MS.425         	10.273         	0.286
MS.426         	10.252         	0.292
MS.427         	10.233         	0.234
MS.428         	10.212         	0.27
MS.429         	10.19          	0.244
MS.430         	10.17          	0.236
MS.431         	10.15          	0.236
MS.432         	10.13          	0.244
MS.433         	10.11          	0.264
MS.434         	10.09          	0.23
MS.435         	10.07          	0.214
MS.436         	10.05          	0.189
MS.437         	10.03          	0.216
MS.438         	10.01          	0.103
MS.439         	9.99           	0.209
MS.440         	9.97           	0.185
MS.441         	9.95           	0.181
MS.442         	9.93           	0.209
MS.443         	9.91           	0.157
MS.444         	9.89           	0.064
MS.445         	9.87           	0.185
MS.446         	9.85           	0.149
MS.447         	9.83           	0.119
MS.448         	9.81           	0.058
MS.449         	9.792          	0.044
MS.450         	9.773          	0.081
MS.451         	9.752          	0.089
MS.452         	9.733          	0.079
MS.453         	9.712          	0.062
MS.454         	9.695          	0.042
MS.455         	9.675          	0.121
MS.456         	9.655          	0.032
MS.457         	9.635          	0.052
MS.458         	9.617          	0.058
MS.459         	9.597          	0.034
MS.460         	9.577          	0.032
MS.461         	9.56           	0.058
MS.462         	9.54           	0.081
MS.463         	9.52           	0.038
MS.464         	9.502          	0.042
MS.465         	9.483          	0.036
MS.466         	9.465          	0.032
MS.467         	9.445          	0.036
MS.468         	9.425          	0.03
MS.469         	9.407          	0.022
MS.470         	9.387          	0.034
MS.471         	9.37           	0.03
MS.472         	9.35           	0.04
MS.473         	9.332          	0.032
MS.474         	9.312          	0.028
MS.475         	9.295          	0.036
MS.476         	9.278          	0.042
MS.477         	9.257          	0.032
MS.478         	9.24           	0.024
MS.479         	9.22           	0.022
MS.480         	9.202          	0.024
MS.481         	9.185          	0.02
MS.482         	9.165          	0.022
MS.483         	9.148          	0.022
MS.484         	9.13           	0.024
MS.485         	9.11           	0.016
MS.486         	9.092          	0.042
MS.487         	9.075          	0.02
MS.488         	9.057          	0.016
MS.489         	9.037          	0.012
MS.490         	9.02           	0.036
MS.491         	9.002          	0.024
MS.492         	8.985          	0.012
MS.493         	8.967          	0.012
MS.494         	8.948          	0.024
MS.495         	8.93           	0.024
MS.496         	8.912          	0.014
MS.497         	8.895          	0.018
MS.498         	8.877          	0.02
MS.499         	8.86           	0.022
