File:              	C:\Qtrac\Data\Daniel M Sørensen\MScan multicentre study\Data from centres\Toronto\Processed data\MSCC01120D.QZD
Name:              	CA.TOR.NC.5.2
Protocol:          	MSCAN-R2
Date:              	20/11/20
Start time:        	14:00:52
Age:               	53
Sex:               	M
Temperature:       	34.9
S/R sites:         	APB
NC/disease:        	NC
Operator:          	LP
Comments:
M-SCAN DATA (6.6-1.4m)
Scanpts: 42, 50, 508, 535
Stim. (mA)     	Amp. (mV)
MS.1           	25.5           	10.308
MS.2           	25.5           	10.325
MS.3           	25.5           	10.337
MS.4           	25.5           	10.298
MS.5           	25.5           	10.302
MS.6           	25.5           	10.29
MS.7           	25.5           	10.302
MS.8           	25.5           	10.321
MS.9           	25.5           	10.3
MS.10          	25.5           	10.288
MS.11          	25.5           	10.294
MS.12          	25.5           	10.3
MS.13          	25.5           	10.308
MS.14          	25.5           	10.304
MS.15          	25.5           	10.306
MS.16          	25.5           	10.319
MS.17          	25.5           	10.319
MS.18          	25.5           	10.312
MS.19          	25.5           	10.319
MS.20          	25.5           	10.335
MS.21          	25.5           	10.323
MS.22          	25.5           	10.343
MS.23          	25.5           	10.333
MS.24          	25.397         	10.329
MS.25          	25.347         	10.347
MS.26          	25.297         	10.363
MS.27          	25.245         	10.371
MS.28          	25.195         	10.361
MS.29          	25.145         	10.355
MS.30          	25.095         	10.369
MS.31          	25.045         	10.365
MS.32          	24.995         	10.341
MS.33          	24.945         	10.359
MS.34          	24.895         	10.365
MS.35          	24.845         	10.359
MS.36          	24.795         	10.393
MS.37          	24.747         	10.379
MS.38          	24.698         	10.365
MS.39          	24.647         	10.381
MS.40          	24.597         	10.351
MS.41          	24.55          	10.367
MS.42          	24.5           	10.385
MS.43          	24.45          	10.377
MS.44          	24.403         	10.411
MS.45          	24.352         	10.411
MS.46          	24.305         	10.371
MS.47          	24.257         	10.401
MS.48          	24.207         	10.377
MS.49          	24.16          	10.397
MS.50          	24.11          	10.403
MS.51          	24.062         	10.345
MS.52          	24.015         	10.339
MS.53          	23.967         	10.333
MS.54          	23.92          	10.329
MS.55          	23.87          	10.325
MS.56          	23.823         	10.367
MS.57          	23.775         	10.337
MS.58          	23.727         	10.345
MS.59          	23.68          	10.385
MS.60          	23.632         	10.353
MS.61          	23.587         	10.302
MS.62          	23.54          	10.343
MS.63          	23.493         	10.321
MS.64          	23.445         	10.339
MS.65          	23.397         	10.29
MS.66          	23.352         	10.296
MS.67          	23.305         	10.333
MS.68          	23.257         	10.304
MS.69          	23.212         	10.274
MS.70          	23.165         	10.345
MS.71          	23.12          	10.331
MS.72          	23.073         	10.294
MS.73          	23.028         	10.312
MS.74          	22.98          	10.276
MS.75          	22.935         	10.278
MS.76          	22.89          	10.282
MS.77          	22.842         	10.317
MS.78          	22.797         	10.276
MS.79          	22.752         	10.276
MS.80          	22.707         	10.284
MS.81          	22.663         	10.292
MS.82          	22.618         	10.294
MS.83          	22.57          	10.157
MS.84          	22.525         	9.753
MS.85          	22.48          	10.172
MS.86          	22.435         	10.3
MS.87          	22.392         	9.753
MS.88          	22.347         	9.507
MS.89          	22.302         	9.406
MS.90          	22.257         	9.831
MS.91          	22.212         	9.827
MS.92          	22.167         	10.167
MS.93          	22.125         	9.4
MS.94          	22.08          	9.156
MS.95          	22.035         	9.164
MS.96          	21.993         	9.158
MS.97          	21.948         	9.412
MS.98          	21.905         	9.511
MS.99          	21.86          	9.17
MS.100         	21.817         	9.412
MS.101         	21.772         	9.406
MS.102         	21.73          	9.626
MS.103         	21.685         	9.166
MS.104         	21.642         	9.174
MS.105         	21.6           	9.16
MS.106         	21.557         	9.38
MS.107         	21.512         	9.15
MS.108         	21.47          	9.388
MS.109         	21.427         	9.15
MS.110         	21.385         	9.166
MS.111         	21.342         	9.154
MS.112         	21.3           	9.154
MS.113         	21.257         	9.189
MS.114         	21.215         	9.128
MS.115         	21.172         	9.124
MS.116         	21.13          	9.168
MS.117         	21.087         	9.07
MS.118         	21.045         	9.082
MS.119         	21.002         	9.128
MS.120         	20.96          	9.074
MS.121         	20.92          	9.124
MS.122         	20.877         	9.112
MS.123         	20.835         	9.154
MS.124         	20.795         	9.076
MS.125         	20.752         	9.116
MS.126         	20.71          	9.106
MS.127         	20.67          	9.068
MS.128         	20.627         	9.082
MS.129         	20.587         	9.098
MS.130         	20.545         	9.046
MS.131         	20.505         	9.068
MS.132         	20.465         	9.029
MS.133         	20.422         	9.098
MS.134         	20.382         	9.013
MS.135         	20.342         	8.963
MS.136         	20.3           	9.044
MS.137         	20.26          	9.023
MS.138         	20.22          	9.005
MS.139         	20.18          	9.021
MS.140         	20.14          	8.925
MS.141         	20.1           	9.001
MS.142         	20.06          	8.975
MS.143         	20.02          	9.027
MS.144         	19.98          	8.947
MS.145         	19.94          	8.945
MS.146         	19.9           	8.915
MS.147         	19.86          	8.913
MS.148         	19.82          	8.913
MS.149         	19.78          	8.921
MS.150         	19.74          	8.919
MS.151         	19.7           	8.808
MS.152         	19.663         	8.929
MS.153         	19.622         	8.84
MS.154         	19.583         	8.703
MS.155         	19.545         	8.687
MS.156         	19.505         	8.758
MS.157         	19.465         	8.872
MS.158         	19.427         	8.695
MS.159         	19.387         	8.391
MS.160         	19.35          	8.572
MS.161         	19.31          	8.554
MS.162         	19.272         	8.21
MS.163         	19.235         	8.617
MS.164         	19.195         	8.48
MS.165         	19.157         	8.331
MS.166         	19.12          	8.532
MS.167         	19.08          	8.28
MS.168         	19.042         	8.085
MS.169         	19.005         	8.075
MS.170         	18.967         	8.194
MS.171         	18.927         	8.119
MS.172         	18.89          	8.192
MS.173         	18.852         	8.073
MS.174         	18.815         	7.898
MS.175         	18.778         	7.954
MS.176         	18.74          	8.131
MS.177         	18.702         	8.03
MS.178         	18.665         	7.966
MS.179         	18.628         	7.92
MS.180         	18.59          	7.829
MS.181         	18.555         	7.845
MS.182         	18.517         	7.779
MS.183         	18.48          	7.793
MS.184         	18.442         	7.851
MS.185         	18.405         	7.767
MS.186         	18.37          	7.688
MS.187         	18.333         	7.563
MS.188         	18.295         	7.716
MS.189         	18.26          	7.767
MS.190         	18.222         	7.775
MS.191         	18.188         	7.795
MS.192         	18.15          	7.559
MS.193         	18.115         	7.777
MS.194         	18.077         	7.638
MS.195         	18.042         	7.66
MS.196         	18.005         	7.541
MS.197         	17.97          	7.543
MS.198         	17.932         	7.537
MS.199         	17.897         	7.561
MS.200         	17.862         	7.456
MS.201         	17.827         	7.63
MS.202         	17.79          	7.581
MS.203         	17.755         	7.414
MS.204         	17.72          	7.39
MS.205         	17.685         	7.412
MS.206         	17.65          	7.287
MS.207         	17.612         	7.45
MS.208         	17.577         	7.1
MS.209         	17.542         	7.271
MS.210         	17.507         	7.084
MS.211         	17.472         	7.104
MS.212         	17.438         	7.048
MS.213         	17.403         	7.072
MS.214         	17.37          	6.89
MS.215         	17.335         	6.925
MS.216         	17.3           	6.985
MS.217         	17.265         	6.915
MS.218         	17.23          	6.816
MS.219         	17.195         	6.806
MS.220         	17.163         	6.907
MS.221         	17.128         	6.735
MS.222         	17.092         	6.826
MS.223         	17.06          	6.78
MS.224         	17.025         	6.596
MS.225         	16.99          	6.76
MS.226         	16.958         	6.683
MS.227         	16.922         	6.657
MS.228         	16.89          	6.747
MS.229         	16.855         	6.653
MS.230         	16.823         	6.749
MS.231         	16.788         	6.751
MS.232         	16.755         	6.534
MS.233         	16.72          	6.351
MS.234         	16.688         	6.463
MS.235         	16.655         	6.663
MS.236         	16.62          	6.522
MS.237         	16.587         	6.54
MS.238         	16.555         	6.312
MS.239         	16.522         	6.339
MS.240         	16.487         	6.198
MS.241         	16.455         	6.381
MS.242         	16.422         	6.081
MS.243         	16.39          	6.232
MS.244         	16.358         	6.053
MS.245         	16.325         	5.873
MS.246         	16.292         	6.236
MS.247         	16.26          	5.811
MS.248         	16.227         	5.855
MS.249         	16.195         	6.057
MS.250         	16.163         	5.696
MS.251         	16.13          	5.787
MS.252         	16.097         	5.873
MS.253         	16.065         	5.742
MS.254         	16.032         	5.811
MS.255         	16.003         	5.891
MS.256         	15.97          	5.624
MS.257         	15.938         	5.557
MS.258         	15.905         	5.41
MS.259         	15.875         	5.42
MS.260         	15.842         	5.241
MS.261         	15.81          	5.358
MS.262         	15.78          	5.307
MS.263         	15.747         	5.402
MS.264         	15.715         	5.307
MS.265         	15.685         	5.052
MS.266         	15.652         	5.074
MS.267         	15.622         	5.011
MS.268         	15.59          	5.09
MS.269         	15.56          	4.969
MS.270         	15.527         	4.904
MS.271         	15.497         	5.041
MS.272         	15.467         	4.683
MS.273         	15.435         	4.665
MS.274         	15.405         	4.842
MS.275         	15.375         	4.618
MS.276         	15.342         	4.866
MS.277         	15.312         	4.834
MS.278         	15.282         	5.025
MS.279         	15.252         	4.739
MS.280         	15.22          	4.423
MS.281         	15.19          	4.711
MS.282         	15.16          	4.614
MS.283         	15.13          	4.361
MS.284         	15.1           	4.381
MS.285         	15.07          	4.246
MS.286         	15.04          	4.403
MS.287         	15.01          	4.191
MS.288         	14.98          	4.01
MS.289         	14.95          	4.167
MS.290         	14.92          	3.976
MS.291         	14.89          	3.833
MS.292         	14.86          	4.022
MS.293         	14.83          	3.867
MS.294         	14.8           	4.073
MS.295         	14.77          	4.117
MS.296         	14.742         	3.686
MS.297         	14.712         	3.69
MS.298         	14.682         	3.895
MS.299         	14.652         	3.569
MS.300         	14.625         	3.823
MS.301         	14.595         	3.609
MS.302         	14.565         	3.839
MS.303         	14.537         	3.384
MS.304         	14.507         	3.625
MS.305         	14.477         	3.557
MS.306         	14.45          	3.372
MS.307         	14.42          	3.501
MS.308         	14.392         	3.432
MS.309         	14.362         	3.227
MS.310         	14.335         	3.279
MS.311         	14.305         	3.265
MS.312         	14.278         	3.333
MS.313         	14.25          	3.172
MS.314         	14.22          	3.194
MS.315         	14.193         	2.628
MS.316         	14.162         	2.961
MS.317         	14.135         	2.655
MS.318         	14.108         	2.427
MS.319         	14.08          	2.852
MS.320         	14.05          	2.635
MS.321         	14.023         	3.064
MS.322         	13.995         	2.447
MS.323         	13.967         	2.405
MS.324         	13.94          	2.397
MS.325         	13.91          	2.342
MS.326         	13.882         	2.441
MS.327         	13.855         	2.349
MS.328         	13.827         	2.318
MS.329         	13.8           	2.324
MS.330         	13.773         	2.278
MS.331         	13.745         	2.3
MS.332         	13.717         	1.877
MS.333         	13.69          	2.139
MS.334         	13.662         	2.258
MS.335         	13.635         	2.236
MS.336         	13.608         	1.831
MS.337         	13.58          	2.22
MS.338         	13.555         	1.722
MS.339         	13.528         	1.726
MS.340         	13.5           	1.811
MS.341         	13.472         	1.7
MS.342         	13.445         	2.145
MS.343         	13.42          	1.783
MS.344         	13.392         	1.752
MS.345         	13.365         	1.702
MS.346         	13.34          	1.694
MS.347         	13.312         	2
MS.348         	13.285         	1.76
MS.349         	13.26          	1.583
MS.350         	13.233         	1.623
MS.351         	13.205         	1.638
MS.352         	13.18          	1.66
MS.353         	13.153         	1.601
MS.354         	13.127         	1.593
MS.355         	13.1           	1.563
MS.356         	13.075         	1.454
MS.357         	13.047         	1.543
MS.358         	13.023         	1.513
MS.359         	12.997         	1.575
MS.360         	12.97          	1.182
MS.361         	12.945         	1.591
MS.362         	12.917         	1.466
MS.363         	12.892         	1.507
MS.364         	12.867         	1.41
MS.365         	12.842         	1.168
MS.366         	12.815         	1.339
MS.367         	12.79          	1.255
MS.368         	12.765         	1.162
MS.369         	12.74          	1.164
MS.370         	12.712         	1.013
MS.371         	12.688         	0.929
MS.372         	12.662         	0.85
MS.373         	12.637         	1.152
MS.374         	12.613         	0.939
MS.375         	12.587         	1.144
MS.376         	12.562         	0.959
MS.377         	12.537         	0.822
MS.378         	12.512         	0.971
MS.379         	12.488         	0.828
MS.380         	12.462         	0.622
MS.381         	12.438         	0.689
MS.382         	12.412         	0.866
MS.383         	12.387         	0.645
MS.384         	12.363         	0.616
MS.385         	12.337         	0.779
MS.386         	12.312         	0.588
MS.387         	12.287         	0.536
MS.388         	12.265         	0.59
MS.389         	12.24          	0.504
MS.390         	12.215         	0.536
MS.391         	12.19          	0.522
MS.392         	12.167         	0.542
MS.393         	12.142         	0.59
MS.394         	12.117         	0.51
MS.395         	12.092         	0.55
MS.396         	12.07          	0.413
MS.397         	12.045         	0.502
MS.398         	12.02          	0.586
MS.399         	11.997         	0.58
MS.400         	11.972         	0.471
MS.401         	11.95          	0.373
MS.402         	11.925         	0.421
MS.403         	11.903         	0.481
MS.404         	11.877         	0.433
MS.405         	11.855         	0.421
MS.406         	11.83          	0.417
MS.407         	11.807         	0.397
MS.408         	11.782         	0.399
MS.409         	11.76          	0.401
MS.410         	11.735         	0.391
MS.411         	11.712         	0.322
MS.412         	11.69          	0.387
MS.413         	11.665         	0.33
MS.414         	11.642         	0.326
MS.415         	11.62          	0.201
MS.416         	11.595         	0.294
MS.417         	11.572         	0.179
MS.418         	11.55          	0.189
MS.419         	11.528         	0.32
MS.420         	11.505         	0.294
MS.421         	11.48          	0.209
MS.422         	11.457         	0.254
MS.423         	11.435         	0.32
MS.424         	11.412         	0.31
MS.425         	11.39          	0.183
MS.426         	11.367         	0.324
MS.427         	11.345         	0.167
MS.428         	11.32          	0.187
MS.429         	11.297         	0.181
MS.430         	11.275         	0.181
MS.431         	11.252         	0.306
MS.432         	11.23          	0.187
MS.433         	11.207         	0.185
MS.434         	11.185         	0.181
MS.435         	11.165         	0.199
MS.436         	11.142         	0.171
MS.437         	11.12          	0.175
MS.438         	11.097         	0.306
MS.439         	11.075         	0.181
MS.440         	11.052         	0.159
MS.441         	11.03          	0.157
MS.442         	11.007         	0.159
MS.443         	10.988         	0.175
MS.444         	10.965         	0.163
MS.445         	10.943         	0.161
MS.446         	10.92          	0.173
MS.447         	10.9           	0.187
MS.448         	10.877         	0.165
MS.449         	10.855         	0.179
MS.450         	10.835         	0.167
MS.451         	10.812         	0.181
MS.452         	10.79          	0.177
MS.453         	10.77          	0.171
MS.454         	10.747         	0.173
MS.455         	10.725         	0.181
MS.456         	10.705         	0.193
MS.457         	10.682         	0.177
MS.458         	10.662         	0.167
MS.459         	10.64          	0.183
MS.460         	10.62          	0.169
MS.461         	10.597         	0.179
MS.462         	10.577         	0.179
MS.463         	10.555         	0.185
MS.464         	10.535         	0.175
MS.465         	10.512         	0.177
MS.466         	10.492         	0.179
MS.467         	10.472         	0.179
MS.468         	10.45          	0.189
MS.469         	10.43          	0.187
MS.470         	10.41          	0.181
MS.471         	10.387         	0.179
MS.472         	10.367         	0.185
MS.473         	10.347         	0.185
MS.474         	10.325         	0.185
MS.475         	10.305         	0.187
MS.476         	10.285         	0.189
MS.477         	10.265         	0.175
MS.478         	10.245         	0.185
MS.479         	10.222         	0.187
MS.480         	10.202         	0.02
MS.481         	10.182         	0.012
MS.482         	10.162         	0.016
MS.483         	10.142         	0.185
MS.484         	10.122         	0.181
MS.485         	10.102         	0.014
MS.486         	10.08          	0.014
MS.487         	10.06          	0.014
MS.488         	10.04          	0.014
MS.489         	10.02          	0.018
MS.490         	10             	0.179
MS.491         	9.98           	0.014
MS.492         	9.96           	0.018
MS.493         	9.94           	0.016
MS.494         	9.92           	0.02
MS.495         	9.903          	0.014
MS.496         	9.882          	0.014
MS.497         	9.863          	0.014
MS.498         	9.842          	0.014
MS.499         	9.823          	0.012
