File:              	C:\Qtrac\Data\Daniel M Sørensen\MScan multicentre study\Data from centres\Toronto\Processed data\MSCC01209A.QZD
Name:              	CA.TOR.NC.7.2
Protocol:          	MSCAN-R2
Date:              	9/12/20
Start time:        	10:35:58
Age:               	43
Sex:               	F
Temperature:       	31.7
S/R sites:         	APB
NC/disease:        	NC
Operator:          	LP
Comments:          	MFF60ON
M-SCAN DATA (4.5-1.1m)
Scanpts: 32, 36, 364, 386
Stim. (mA)     	Amp. (mV)
MS.1           	16.5           	15.62
MS.2           	16.5           	15.628
MS.3           	16.5           	15.604
MS.4           	16.5           	15.565
MS.5           	16.5           	15.557
MS.6           	16.5           	15.594
MS.7           	16.5           	15.594
MS.8           	16.5           	15.59
MS.9           	16.5           	15.59
MS.10          	16.5           	15.575
MS.11          	16.5           	15.563
MS.12          	16.5           	15.575
MS.13          	16.5           	15.588
MS.14          	16.5           	15.592
MS.15          	16.5           	15.59
MS.16          	16.5           	15.592
MS.17          	16.5           	15.588
MS.18          	16.5           	15.59
MS.19          	16.5           	15.602
MS.20          	16.5           	15.612
MS.21          	16.5           	15.596
MS.22          	16.5           	15.624
MS.23          	16.5           	15.664
MS.24          	16.435         	15.682
MS.25          	16.4           	15.664
MS.26          	16.368         	15.644
MS.27          	16.335         	15.638
MS.28          	16.302         	15.644
MS.29          	16.27          	15.656
MS.30          	16.237         	15.642
MS.31          	16.205         	15.626
MS.32          	16.172         	15.63
MS.33          	16.14          	15.622
MS.34          	16.108         	15.614
MS.35          	16.077         	15.634
MS.36          	16.045         	15.626
MS.37          	16.012         	15.634
MS.38          	15.98          	15.64
MS.39          	15.947         	15.652
MS.40          	15.917         	15.65
MS.41          	15.885         	15.634
MS.42          	15.852         	15.632
MS.43          	15.822         	15.555
MS.44          	15.79          	15.575
MS.45          	15.757         	15.575
MS.46          	15.727         	15.66
MS.47          	15.695         	15.402
MS.48          	15.665         	15.573
MS.49          	15.632         	15.346
MS.50          	15.602         	15.358
MS.51          	15.57          	15.37
MS.52          	15.54          	15.612
MS.53          	15.507         	15.179
MS.54          	15.477         	15.344
MS.55          	15.445         	15.39
MS.56          	15.415         	15.402
MS.57          	15.385         	15.406
MS.58          	15.352         	15.108
MS.59          	15.322         	14.893
MS.60          	15.292         	15.203
MS.61          	15.262         	15.116
MS.62          	15.233         	14.826
MS.63          	15.2           	15.185
MS.64          	15.17          	14.81
MS.65          	15.14          	14.77
MS.66          	15.11          	14.629
MS.67          	15.08          	15.326
MS.68          	15.05          	14.975
MS.69          	15.02          	14.786
MS.70          	14.99          	14.756
MS.71          	14.96          	14.794
MS.72          	14.93          	14.794
MS.73          	14.9           	14.782
MS.74          	14.87          	14.77
MS.75          	14.84          	14.623
MS.76          	14.81          	14.609
MS.77          	14.78          	14.621
MS.78          	14.752         	14.621
MS.79          	14.722         	14.48
MS.80          	14.693         	14.486
MS.81          	14.662         	14.641
MS.82          	14.635         	14.603
MS.83          	14.605         	14.607
MS.84          	14.575         	14.56
MS.85          	14.547         	14.498
MS.86          	14.517         	14.476
MS.87          	14.487         	14.486
MS.88          	14.46          	14.496
MS.89          	14.43          	14.5
MS.90          	14.403         	14.46
MS.91          	14.372         	14.522
MS.92          	14.345         	14.462
MS.93          	14.315         	14.375
MS.94          	14.287         	14.542
MS.95          	14.257         	14.452
MS.96          	14.23          	14.395
MS.97          	14.202         	14.52
MS.98          	14.172         	14.44
MS.99          	14.145         	14.385
MS.100         	14.117         	14.496
MS.101         	14.087         	14.417
MS.102         	14.06          	14.502
MS.103         	14.032         	14.472
MS.104         	14.005         	14.435
MS.105         	13.975         	14.401
MS.106         	13.947         	14.091
MS.107         	13.92          	14.311
MS.108         	13.892         	14.097
MS.109         	13.865         	14.413
MS.110         	13.837         	13.916
MS.111         	13.81          	14.252
MS.112         	13.782         	13.827
MS.113         	13.755         	14.228
MS.114         	13.727         	14.351
MS.115         	13.7           	13.845
MS.116         	13.672         	14.22
MS.117         	13.645         	13.998
MS.118         	13.617         	13.847
MS.119         	13.59          	13.753
MS.120         	13.562         	13.775
MS.121         	13.535         	13.857
MS.122         	13.51          	14.099
MS.123         	13.483         	13.731
MS.124         	13.455         	13.737
MS.125         	13.427         	13.765
MS.126         	13.403         	13.511
MS.127         	13.375         	13.579
MS.128         	13.347         	13.523
MS.129         	13.32          	13.418
MS.130         	13.295         	13.676
MS.131         	13.267         	13.726
MS.132         	13.242         	13.527
MS.133         	13.215         	13.499
MS.134         	13.188         	13.592
MS.135         	13.162         	13.583
MS.136         	13.135         	13.376
MS.137         	13.11          	13.581
MS.138         	13.082         	13.338
MS.139         	13.057         	13.122
MS.140         	13.032         	13.523
MS.141         	13.005         	13.509
MS.142         	12.98          	13.553
MS.143         	12.952         	13.529
MS.144         	12.927         	13.336
MS.145         	12.903         	13.1
MS.146         	12.875         	12.911
MS.147         	12.85          	12.103
MS.148         	12.825         	12.329
MS.149         	12.8           	13.028
MS.150         	12.773         	12.885
MS.151         	12.747         	12.697
MS.152         	12.722         	12.512
MS.153         	12.697         	12.86
MS.154         	12.672         	11.737
MS.155         	12.645         	12.468
MS.156         	12.62          	12.143
MS.157         	12.595         	11.902
MS.158         	12.57          	11.622
MS.159         	12.545         	11.579
MS.160         	12.52          	11.297
MS.161         	12.495         	11.519
MS.162         	12.47          	11.602
MS.163         	12.445         	11.376
MS.164         	12.42          	11.219
MS.165         	12.395         	11.261
MS.166         	12.37          	10.617
MS.167         	12.347         	11.169
MS.168         	12.322         	11.183
MS.169         	12.297         	10.997
MS.170         	12.273         	10.866
MS.171         	12.247         	11.116
MS.172         	12.222         	10.826
MS.173         	12.2           	10.826
MS.174         	12.175         	11.015
MS.175         	12.15          	10.568
MS.176         	12.125         	10.872
MS.177         	12.102         	10.711
MS.178         	12.077         	10.478
MS.179         	12.052         	10.437
MS.180         	12.03          	10.133
MS.181         	12.005         	9.892
MS.182         	11.983         	9.879
MS.183         	11.957         	9.734
MS.184         	11.932         	9.839
MS.185         	11.91          	10.065
MS.186         	11.885         	9.463
MS.187         	11.863         	9.217
MS.188         	11.837         	8.925
MS.189         	11.815         	9.16
MS.190         	11.79          	8.85
MS.191         	11.767         	8.707
MS.192         	11.745         	8.8
MS.193         	11.72          	8.987
MS.194         	11.697         	8.367
MS.195         	11.675         	8.687
MS.196         	11.65          	7.847
MS.197         	11.627         	8.343
MS.198         	11.605         	8.165
MS.199         	11.58          	7.823
MS.200         	11.557         	7.325
MS.201         	11.535         	7.17
MS.202         	11.512         	7.14
MS.203         	11.488         	7.056
MS.204         	11.465         	7.044
MS.205         	11.443         	6.852
MS.206         	11.42          	6.945
MS.207         	11.398         	7.225
MS.208         	11.375         	7.11
MS.209         	11.352         	6.637
MS.210         	11.33          	6.57
MS.211         	11.307         	6.435
MS.212         	11.282         	6.379
MS.213         	11.26          	6.296
MS.214         	11.238         	6.294
MS.215         	11.215         	6.153
MS.216         	11.195         	6.075
MS.217         	11.172         	6.034
MS.218         	11.15          	5.75
MS.219         	11.127         	5.899
MS.220         	11.105         	5.722
MS.221         	11.082         	5.533
MS.222         	11.06          	5.499
MS.223         	11.037         	5.094
MS.224         	11.015         	4.872
MS.225         	10.995         	4.806
MS.226         	10.972         	4.695
MS.227         	10.95          	4.457
MS.228         	10.927         	4.5
MS.229         	10.907         	4.264
MS.230         	10.885         	4.218
MS.231         	10.863         	4.332
MS.232         	10.84          	4.439
MS.233         	10.82          	4.131
MS.234         	10.797         	3.833
MS.235         	10.778         	3.684
MS.236         	10.755         	3.581
MS.237         	10.733         	3.474
MS.238         	10.712         	3.495
MS.239         	10.69          	3.833
MS.240         	10.67          	3.196
MS.241         	10.648         	3.144
MS.242         	10.627         	2.709
MS.243         	10.605         	2.812
MS.244         	10.585         	2.578
MS.245         	10.562         	2.925
MS.246         	10.542         	2.886
MS.247         	10.52          	2.876
MS.248         	10.5           	2.594
MS.249         	10.48          	2.504
MS.250         	10.457         	2.624
MS.251         	10.438         	2.427
MS.252         	10.415         	2.407
MS.253         	10.395         	2.169
MS.254         	10.375         	2.365
MS.255         	10.355         	2.119
MS.256         	10.332         	1.895
MS.257         	10.312         	1.885
MS.258         	10.292         	1.71
MS.259         	10.273         	1.877
MS.260         	10.25          	1.889
MS.261         	10.23          	2.101
MS.262         	10.21          	1.718
MS.263         	10.19          	1.688
MS.264         	10.17          	1.692
MS.265         	10.15          	1.394
MS.266         	10.127         	1.339
MS.267         	10.108         	1.15
MS.268         	10.087         	1.267
MS.269         	10.068         	1.213
MS.270         	10.047         	1.275
MS.271         	10.028         	1.094
MS.272         	10.007         	1.221
MS.273         	9.988          	1.38
MS.274         	9.967          	1.049
MS.275         	9.948          	0.929
MS.276         	9.927          	0.975
MS.277         	9.907          	0.924
MS.278         	9.887          	1.051
MS.279         	9.867          	0.937
MS.280         	9.85           	0.951
MS.281         	9.83           	0.89
MS.282         	9.81           	0.711
MS.283         	9.79           	0.767
MS.284         	9.77           	0.51
MS.285         	9.75           	0.864
MS.286         	9.733          	0.614
MS.287         	9.712          	0.572
MS.288         	9.693          	0.604
MS.289         	9.672          	0.679
MS.290         	9.655          	0.371
MS.291         	9.635          	0.546
MS.292         	9.615          	0.459
MS.293         	9.595          	0.62
MS.294         	9.577          	0.322
MS.295         	9.557          	0.441
MS.296         	9.537          	0.387
MS.297         	9.52           	0.3
MS.298         	9.5            	0.226
MS.299         	9.483          	0.254
MS.300         	9.462          	0.214
MS.301         	9.445          	0.167
MS.302         	9.425          	0.207
MS.303         	9.405          	0.22
MS.304         	9.387          	0.218
MS.305         	9.367          	0.091
MS.306         	9.35           	0.048
MS.307         	9.33           	0.079
MS.308         	9.312          	0.165
MS.309         	9.295          	0.083
MS.310         	9.275          	0.228
MS.311         	9.257          	0.034
MS.312         	9.238          	0.058
MS.313         	9.22           	0.036
MS.314         	9.202          	0.079
MS.315         	9.182          	0.018
MS.316         	9.165          	0.018
MS.317         	9.148          	0.07
MS.318         	9.127          	0.036
MS.319         	9.11           	0.046
MS.320         	9.092          	0.048
MS.321         	9.073          	0.042
MS.322         	9.055          	0.012
MS.323         	9.037          	0.014
MS.324         	9.02           	0.016
MS.325         	9              	0.02
MS.326         	8.983          	0.012
MS.327         	8.965          	0.01
MS.328         	8.948          	0.002
MS.329         	8.93           	0.014
MS.330         	8.912          	0.002
MS.331         	8.895          	0.002
MS.332         	8.875          	-0.004
MS.333         	8.858          	0.004
MS.334         	8.84           	-0.004
MS.335         	8.823          	0.004
MS.336         	8.805          	0.008
MS.337         	8.787          	0.004
MS.338         	8.77           	-0.002
MS.339         	8.752          	0.004
MS.340         	8.735          	0.002
MS.341         	8.717          	-0.004
MS.342         	8.7            	0.006
MS.343         	8.682          	0.004
MS.344         	8.665          	0.008
MS.345         	8.648          	-0.002
MS.346         	8.63           	-0.006
MS.347         	8.613          	0.006
MS.348         	8.597          	0.002
MS.349         	8.58           	0.004
MS.350         	8.562          	0.000
MS.351         	8.545          	-0.002
MS.352         	8.528          	0.004
MS.353         	8.51           	0.004
MS.354         	8.495          	0.006
MS.355         	8.477          	0.004
MS.356         	8.46           	0.006
MS.357         	8.443          	0.000
MS.358         	8.427          	0.002
MS.359         	8.41           	0.004
MS.360         	8.392          	0.006
MS.361         	8.375          	0.004
MS.362         	8.36           	0.004
MS.363         	8.342          	-0.004
MS.364         	8.325          	-0.002
MS.365         	8.31           	0.000
MS.366         	8.292          	0.004
MS.367         	8.275          	0.002
MS.368         	8.26           	0.002
MS.369         	8.242          	0.002
MS.370         	8.227          	0.002
MS.371         	8.21           	0.004
MS.372         	8.193          	0.000
MS.373         	8.177          	0.002
MS.374         	8.16           	0.002
MS.375         	8.145          	0.006
MS.376         	8.127          	0.01
MS.377         	8.113          	0.004
MS.378         	8.095          	0.006
MS.379         	8.08           	-0.002
MS.380         	8.062          	0.004
MS.381         	8.047          	0.01
MS.382         	8.033          	0.002
MS.383         	8.015          	0.008
MS.384         	8              	0.002
MS.385         	7.982          	0.004
MS.386         	7.967          	0.006
DERIVED EXCITABILITY VARIABLES
Program = QTracP 3/4/2020
Threshold method = 6 (optimised for CAP, using data for present condition only)
SR method = 1 (using actual data values)
6.                 	0.000               	Peak response\(mV)
9.                 	31.7                	Temperature ( C)
17.                	43                  	Age (years)
18.                	2                   	Sex (M=1, F=2)

EXTRA VARIABLES

MScPeak(mV) = 15.59
MScS5(mA) = 9.77
MScS50(mA) = 11.58
MScS95(mA) = 15.1
MScNSteps = 2
MScSteps(%) = 4.7
MScStepMax(%) = 2.6
MScD50 = 37
MScSlope = 6.53
MSFPeakAmp(mV) = 15.6
MSFNUnits = 164
MSFMeanUnitAmp(uV) = 95.3
MSFHuntTime(m) = 2.31
MSFError(%) = 5.62
MSFNLarge = 47
MSFMedianAmp(%) = 0.482
MSFMedianAmp(mV) = 0.0753
MSFHalfAmpAmp(%) = 0.655
MSFHalfAmpAmp(mV) = 0.102
MSFLargestAmp(%) = 3.15
MSFLargestAmp(mV) = 0.492
MSFMeanRS(%) = 2
MSFOpts = 10106121
MScDuration(min) = 3.4
MSFTraces = 355
MSFSizeLimit(uV) = 39.1
MSFLimitType = 1
MSFSmallestAmp(uV) = 41.2

EXTRA WAVEFORMS


!MScan Model
!164
	1	9.24	0.4	2
	2	9.36	0.44	2
	3	9.42	0.28	2
	4	9.47	0.47	2
	5	9.5	0.29	2
	6	9.56	0.51	2
	7	9.65	0.97	2
	8	9.7	0.4	2
	9	9.73	0.37	2
	10	9.77	0.48	2
	11	9.81	0.45	2
	12	9.85	0.46	2
	13	9.9	0.61	2
	14	9.95	0.58	2
	15	9.98	0.34	2
	16	10.02	0.36	2
	17	10.05	0.44	2
	18	10.08	0.41	2
	19	10.1	0.32	2
	20	10.12	0.34	2
	21	10.14	0.45	2
	22	10.17	0.62	2
	23	10.21	0.66	2
	24	10.24	0.62	2
	25	10.27	0.57	2
	26	10.3	0.52	2
	27	10.32	0.65	2
	28	10.35	0.57	2
	29	10.38	0.53	2
	30	10.4	0.56	2
	31	10.43	0.58	2
	32	10.46	0.55	2
	33	10.49	0.58	2
	34	10.52	0.91	2
	35	10.56	0.9	2
	36	10.58	0.54	2
	37	10.61	0.53	2
	38	10.63	0.44	2
	39	10.65	0.47	2
	40	10.67	0.69	2
	41	10.69	0.66	2
	42	10.71	0.54	2
	43	10.73	0.67	2
	44	10.75	0.66	2
	45	10.76	0.59	2
	46	10.78	0.49	2
	47	10.79	0.32	2
	48	10.8	0.32	2
	49	10.81	0.32	2
	50	10.82	0.31	2
	51	10.83	0.31	2
	52	10.84	0.3	2
	53	10.85	0.27	2
	54	10.86	0.28	2
	55	10.88	0.32	2
	56	10.89	0.32	2
	57	10.9	0.32	2
	58	10.91	0.32	2
	59	10.92	0.29	2
	60	10.93	0.47	2
	61	10.94	0.36	2
	62	10.95	0.37	2
	63	10.96	0.38	2
	64	10.97	0.38	2
	65	10.98	0.4	2
	66	10.99	0.4	2
	67	11	0.38	2
	68	11.01	0.35	2
	69	11.02	0.44	2
	70	11.03	0.44	2
	71	11.04	0.35	2
	72	11.05	0.3	2
	73	11.06	0.3	2
	74	11.07	0.47	2
	75	11.08	0.31	2
	76	11.09	0.48	2
	77	11.1	0.33	2
	78	11.11	0.33	2
	79	11.12	0.33	2
	80	11.13	0.59	2
	81	11.14	0.36	2
	82	11.15	0.36	2
	83	11.16	0.34	2
	84	11.17	0.34	2
	85	11.18	0.33	2
	86	11.19	0.32	2
	87	11.2	0.3	2
	88	11.21	0.26	2
	89	11.22	0.36	2
	90	11.24	0.58	2
	91	11.26	0.58	2
	92	11.28	0.54	2
	93	11.31	0.48	2
	94	11.33	0.5	2
	95	11.35	0.5	2
	96	11.37	0.58	2
	97	11.4	0.69	2
	98	11.42	0.7	2
	99	11.45	0.75	2
	100	11.47	0.61	2
	101	11.49	0.79	2
	102	11.52	0.36	2
	103	11.53	0.32	2
	104	11.55	0.33	2
	105	11.56	0.42	2
	106	11.57	0.63	2
	107	11.59	0.9	2
	108	11.62	1.07	2
	109	11.64	0.94	2
	110	11.66	0.81	2
	111	11.69	0.77	2
	112	11.71	0.76	2
	113	11.73	0.78	2
	114	11.76	0.97	2
	115	11.78	1.09	2
	116	11.81	0.86	2
	117	11.82	0.52	2
	118	11.84	0.4	2
	119	11.85	0.4	2
	120	11.86	0.4	2
	121	11.87	0.39	2
	122	11.89	0.38	2
	123	11.9	0.34	2
	124	11.91	0.37	2
	125	11.93	0.46	2
	126	11.94	0.46	2
	127	11.95	0.46	2
	128	11.97	0.41	2
	129	11.97	0.71	2
	130	12	0.9	2
	131	12.02	0.85	2
	132	12.05	0.7	2
	133	12.07	0.7	2
	134	12.1	0.73	2
	135	12.13	0.85	2
	136	12.16	0.49	2
	137	12.19	0.6	2
	138	12.24	0.83	2
	139	12.32	0.86	2
	140	12.37	0.64	2
	141	12.42	0.74	2
	142	12.47	0.76	2
	143	12.5	1.08	2
	144	12.54	1.05	2
	145	12.61	2.08	2
	146	12.64	2.22	2
	147	12.75	2.99	2
	148	12.87	3.15	2
	149	13.35	1.73	2
	150	13.42	0.89	2
	151	13.46	0.45	2
	152	13.68	1.71	2
	153	13.86	1.35	2
	154	14.37	1.13	2
	155	14.58	0.35	2
	156	14.68	0.31	2
	157	14.75	0.42	2
	158	14.89	0.66	2
	159	15.21	1.66	2
	160	15.29	0.46	2
	161	15.43	1.24	2
	162	15.6	1.04	2
	163	15.7	0.46	2
	164	15.79	0.29	2

