File:              	C:\Qtrac\Data\Daniel M Sørensen\MScan multicentre study\Data from centres\Toronto\Processed data\MSCC01117B.QZD
Name:              	CA.TOR.NC.2.2
Protocol:          	MSCAN-R2
Date:              	17/11/20
Start time:        	15:30:52
Age:               	25
Sex:               	F
Temperature:       	32.4
S/R sites:         	ADM
NC/disease:        	NC
Operator:          	LP
Comments:
M-SCAN DATA (6.9-1.6m)
Scanpts: 4, 10, 448, 454
Stim. (mA)     	Amp. (mV)
MS.1           	30             	7.674
MS.2           	30             	7.742
MS.3           	30             	7.732
MS.4           	30             	7.704
MS.5           	30             	7.698
MS.6           	30             	7.773
MS.7           	30             	7.781
MS.8           	30             	7.771
MS.9           	30             	7.738
MS.10          	30             	7.75
MS.11          	30             	7.755
MS.12          	30             	7.716
MS.13          	30             	7.789
MS.14          	30             	7.771
MS.15          	30             	7.759
MS.16          	30             	7.813
MS.17          	30             	7.817
MS.18          	30             	7.777
MS.19          	30             	7.658
MS.20          	30             	7.753
MS.21          	30             	7.612
MS.22          	30             	7.646
MS.23          	30             	7.785
MS.24          	29.88          	7.74
MS.25          	29.82          	7.672
MS.26          	29.76          	7.835
MS.27          	29.702         	7.638
MS.28          	29.642         	7.567
MS.29          	29.582         	7.839
MS.30          	29.522         	7.44
MS.31          	29.465         	7.654
MS.32          	29.405         	7.464
MS.33          	29.347         	7.672
MS.34          	29.287         	7.533
MS.35          	29.23          	7.317
MS.36          	29.172         	7.577
MS.37          	29.112         	7.219
MS.38          	29.055         	7.654
MS.39          	28.997         	7.281
MS.40          	28.94          	7.259
MS.41          	28.882         	7.334
MS.42          	28.823         	7.328
MS.43          	28.765         	7.259
MS.44          	28.707         	7.162
MS.45          	28.65          	7.326
MS.46          	28.595         	7.126
MS.47          	28.537         	7.269
MS.48          	28.48          	7.176
MS.49          	28.422         	7.35
MS.50          	28.365         	7.247
MS.51          	28.31          	7.303
MS.52          	28.252         	7.16
MS.53          	28.198         	7.148
MS.54          	28.14          	7.185
MS.55          	28.085         	7.136
MS.56          	28.028         	7.15
MS.57          	27.972         	7.176
MS.58          	27.915         	7.11
MS.59          	27.86          	7.158
MS.60          	27.805         	7.108
MS.61          	27.75          	7.203
MS.62          	27.692         	7.096
MS.63          	27.637         	7.098
MS.64          	27.582         	6.965
MS.65          	27.528         	7.088
MS.66          	27.472         	6.945
MS.67          	27.417         	6.995
MS.68          	27.362         	7.06
MS.69          	27.307         	6.935
MS.70          	27.255         	6.917
MS.71          	27.2           	7.037
MS.72          	27.145         	7.142
MS.73          	27.09          	6.951
MS.74          	27.037         	6.953
MS.75          	26.983         	6.888
MS.76          	26.927         	7.013
MS.77          	26.875         	6.977
MS.78          	26.82          	6.909
MS.79          	26.767         	7.019
MS.80          	26.715         	6.911
MS.81          	26.66          	6.884
MS.82          	26.608         	6.947
MS.83          	26.555         	6.973
MS.84          	26.502         	6.935
MS.85          	26.448         	6.892
MS.86          	26.395         	6.864
MS.87          	26.342         	6.816
MS.88          	26.29          	6.945
MS.89          	26.237         	6.957
MS.90          	26.185         	6.794
MS.91          	26.132         	6.884
MS.92          	26.08          	6.83
MS.93          	26.028         	6.794
MS.94          	25.977         	6.856
MS.95          	25.925         	6.858
MS.96          	25.872         	6.816
MS.97          	25.82          	6.816
MS.98          	25.77          	6.792
MS.99          	25.717         	6.848
MS.100         	25.667         	6.812
MS.101         	25.615         	6.792
MS.102         	25.565         	6.707
MS.103         	25.512         	6.731
MS.104         	25.462         	6.772
MS.105         	25.413         	6.735
MS.106         	25.36          	6.747
MS.107         	25.31          	6.711
MS.108         	25.26          	6.649
MS.109         	25.21          	6.836
MS.110         	25.157         	6.703
MS.111         	25.108         	6.689
MS.112         	25.057         	6.494
MS.113         	25.007         	6.52
MS.114         	24.957         	6.657
MS.115         	24.907         	6.709
MS.116         	24.858         	6.469
MS.117         	24.807         	6.502
MS.118         	24.76          	6.61
MS.119         	24.71          	6.494
MS.120         	24.66          	6.504
MS.121         	24.61          	6.631
MS.122         	24.562         	6.457
MS.123         	24.512         	6.411
MS.124         	24.465         	6.679
MS.125         	24.415         	6.371
MS.126         	24.365         	6.363
MS.127         	24.317         	6.395
MS.128         	24.27          	6.377
MS.129         	24.22          	6.544
MS.130         	24.172         	6.222
MS.131         	24.122         	6.568
MS.132         	24.075         	6.548
MS.133         	24.028         	6.347
MS.134         	23.98          	6.482
MS.135         	23.932         	6.435
MS.136         	23.882         	6.266
MS.137         	23.835         	6.296
MS.138         	23.788         	6.218
MS.139         	23.74          	6.212
MS.140         	23.692         	6.393
MS.141         	23.645         	6.349
MS.142         	23.597         	6.2
MS.143         	23.552         	6.272
MS.144         	23.505         	6.238
MS.145         	23.457         	6.129
MS.146         	23.41          	6.381
MS.147         	23.365         	6.167
MS.148         	23.317         	6.091
MS.149         	23.27          	5.98
MS.150         	23.225         	6.188
MS.151         	23.177         	5.871
MS.152         	23.132         	6.083
MS.153         	23.085         	6.069
MS.154         	23.04          	5.881
MS.155         	22.993         	5.708
MS.156         	22.948         	5.787
MS.157         	22.903         	6.093
MS.158         	22.855         	5.704
MS.159         	22.81          	5.938
MS.160         	22.765         	5.684
MS.161         	22.72          	5.934
MS.162         	22.672         	5.654
MS.163         	22.627         	5.893
MS.164         	22.582         	5.795
MS.165         	22.538         	5.672
MS.166         	22.493         	5.708
MS.167         	22.448         	5.912
MS.168         	22.403         	6.083
MS.169         	22.358         	5.76
MS.170         	22.312         	5.404
MS.171         	22.27          	5.505
MS.172         	22.225         	5.313
MS.173         	22.18          	5.483
MS.174         	22.135         	5.523
MS.175         	22.092         	5.398
MS.176         	22.047         	5.499
MS.177         	22.002         	5.382
MS.178         	21.96          	5.622
MS.179         	21.915         	5.535
MS.180         	21.872         	5.122
MS.181         	21.827         	5.547
MS.182         	21.785         	5.138
MS.183         	21.74          	5.275
MS.184         	21.698         	5.017
MS.185         	21.655         	4.979
MS.186         	21.61          	5.068
MS.187         	21.567         	4.963
MS.188         	21.525         	5.037
MS.189         	21.483         	4.943
MS.190         	21.438         	5.033
MS.191         	21.395         	4.858
MS.192         	21.352         	5.168
MS.193         	21.31          	4.919
MS.194         	21.267         	4.733
MS.195         	21.225         	4.856
MS.196         	21.182         	5.132
MS.197         	21.14          	5.003
MS.198         	21.097         	4.453
MS.199         	21.055         	4.872
MS.200         	21.015         	4.475
MS.201         	20.972         	4.292
MS.202         	20.93          	4.806
MS.203         	20.887         	4.357
MS.204         	20.847         	4.306
MS.205         	20.805         	4.193
MS.206         	20.762         	4.101
MS.207         	20.722         	4.596
MS.208         	20.68          	4.479
MS.209         	20.64          	4.171
MS.210         	20.597         	3.976
MS.211         	20.557         	4.415
MS.212         	20.515         	4.115
MS.213         	20.475         	4.195
MS.214         	20.435         	3.829
MS.215         	20.392         	3.561
MS.216         	20.352         	3.644
MS.217         	20.312         	3.44
MS.218         	20.27          	3.789
MS.219         	20.23          	3.319
MS.220         	20.19          	3.905
MS.221         	20.15          	3.646
MS.222         	20.11          	3.39
MS.223         	20.07          	3.14
MS.224         	20.03          	3.579
MS.225         	19.99          	3.511
MS.226         	19.95          	3.279
MS.227         	19.91          	2.751
MS.228         	19.87          	2.86
MS.229         	19.83          	2.941
MS.230         	19.79          	3.033
MS.231         	19.75          	3.1
MS.232         	19.712         	3.261
MS.233         	19.672         	2.834
MS.234         	19.632         	2.921
MS.235         	19.592         	3.072
MS.236         	19.555         	3.025
MS.237         	19.515         	2.433
MS.238         	19.475         	2.496
MS.239         	19.438         	2.814
MS.240         	19.397         	2.659
MS.241         	19.36          	2.814
MS.242         	19.32          	2.433
MS.243         	19.282         	2.381
MS.244         	19.245         	2.32
MS.245         	19.205         	2.552
MS.246         	19.167         	2.222
MS.247         	19.13          	2.238
MS.248         	19.09          	2.222
MS.249         	19.052         	2.038
MS.250         	19.015         	2.147
MS.251         	18.977         	2.3
MS.252         	18.938         	2.288
MS.253         	18.9           	1.613
MS.254         	18.862         	1.625
MS.255         	18.825         	1.581
MS.256         	18.788         	2.097
MS.257         	18.75          	1.652
MS.258         	18.712         	1.462
MS.259         	18.675         	1.503
MS.260         	18.637         	1.259
MS.261         	18.6           	1.869
MS.262         	18.562         	1.696
MS.263         	18.528         	1.36
MS.264         	18.49          	1.497
MS.265         	18.452         	1.39
MS.266         	18.415         	1.217
MS.267         	18.378         	1.265
MS.268         	18.342         	1.202
MS.269         	18.305         	1.186
MS.270         	18.27          	1.146
MS.271         	18.233         	1.231
MS.272         	18.195         	1.074
MS.273         	18.16          	1.136
MS.274         	18.122         	1.092
MS.275         	18.087         	1.196
MS.276         	18.05          	0.975
MS.277         	18.015         	1.114
MS.278         	17.98          	1.019
MS.279         	17.942         	0.85
MS.280         	17.907         	1.031
MS.281         	17.87          	1.068
MS.282         	17.835         	0.973
MS.283         	17.8           	0.904
MS.284         	17.765         	0.918
MS.285         	17.73          	0.822
MS.286         	17.692         	0.906
MS.287         	17.657         	0.733
MS.288         	17.622         	0.735
MS.289         	17.587         	0.781
MS.290         	17.552         	0.82
MS.291         	17.517         	0.757
MS.292         	17.483         	0.743
MS.293         	17.448         	0.624
MS.294         	17.413         	0.632
MS.295         	17.378         	0.647
MS.296         	17.342         	0.671
MS.297         	17.307         	0.641
MS.298         	17.275         	0.671
MS.299         	17.24          	0.618
MS.300         	17.205         	0.558
MS.301         	17.17          	0.588
MS.302         	17.135         	0.514
MS.303         	17.102         	0.51
MS.304         	17.067         	0.552
MS.305         	17.032         	0.493
MS.306         	17             	0.556
MS.307         	16.965         	0.572
MS.308         	16.932         	0.481
MS.309         	16.897         	0.477
MS.310         	16.865         	0.477
MS.311         	16.83          	0.524
MS.312         	16.797         	0.473
MS.313         	16.762         	0.481
MS.314         	16.73          	0.514
MS.315         	16.698         	0.455
MS.316         	16.663         	0.467
MS.317         	16.63          	0.381
MS.318         	16.597         	0.359
MS.319         	16.562         	0.415
MS.320         	16.53          	0.361
MS.321         	16.497         	0.397
MS.322         	16.465         	0.302
MS.323         	16.432         	0.306
MS.324         	16.397         	0.334
MS.325         	16.365         	0.33
MS.326         	16.333         	0.32
MS.327         	16.3           	0.326
MS.328         	16.267         	0.298
MS.329         	16.235         	0.272
MS.330         	16.202         	0.28
MS.331         	16.17          	0.294
MS.332         	16.137         	0.302
MS.333         	16.105         	0.181
MS.334         	16.075         	0.324
MS.335         	16.042         	0.211
MS.336         	16.01          	0.314
MS.337         	15.977         	0.218
MS.338         	15.945         	0.222
MS.339         	15.915         	0.205
MS.340         	15.882         	0.214
MS.341         	15.85          	0.214
MS.342         	15.818         	0.183
MS.343         	15.787         	0.201
MS.344         	15.755         	0.238
MS.345         	15.725         	0.24
MS.346         	15.693         	0.205
MS.347         	15.662         	0.183
MS.348         	15.63          	0.167
MS.349         	15.6           	0.207
MS.350         	15.568         	0.183
MS.351         	15.537         	0.205
MS.352         	15.505         	0.207
MS.353         	15.475         	0.203
MS.354         	15.443         	0.161
MS.355         	15.412         	0.177
MS.356         	15.382         	0.181
MS.357         	15.35          	0.183
MS.358         	15.32          	0.189
MS.359         	15.29          	0.149
MS.360         	15.26          	0.199
MS.361         	15.23          	0.185
MS.362         	15.197         	0.151
MS.363         	15.167         	0.149
MS.364         	15.137         	0.133
MS.365         	15.108         	0.147
MS.366         	15.077         	0.177
MS.367         	15.047         	0.157
MS.368         	15.017         	0.177
MS.369         	14.987         	0.214
MS.370         	14.957         	0.181
MS.371         	14.927         	0.163
MS.372         	14.898         	0.153
MS.373         	14.867         	0.193
MS.374         	14.837         	0.147
MS.375         	14.807         	0.145
MS.376         	14.78          	0.165
MS.377         	14.75          	0.181
MS.378         	14.72          	0.077
MS.379         	14.69          	0.113
MS.380         	14.66          	0.093
MS.381         	14.632         	0.07
MS.382         	14.602         	0.085
MS.383         	14.572         	0.07
MS.384         	14.545         	0.081
MS.385         	14.515         	0.07
MS.386         	14.485         	0.077
MS.387         	14.457         	0.07
MS.388         	14.427         	0.097
MS.389         	14.4           	0.077
MS.390         	14.37          	0.079
MS.391         	14.342         	0.101
MS.392         	14.312         	0.101
MS.393         	14.285         	0.062
MS.394         	14.255         	0.089
MS.395         	14.227         	0.077
MS.396         	14.2           	0.105
MS.397         	14.17          	0.095
MS.398         	14.142         	0.083
MS.399         	14.115         	0.087
MS.400         	14.085         	0.099
MS.401         	14.057         	0.099
MS.402         	14.03          	0.068
MS.403         	14.002         	0.093
MS.404         	13.975         	0.077
MS.405         	13.945         	0.089
MS.406         	13.917         	0.075
MS.407         	13.89          	0.075
MS.408         	13.862         	0.077
MS.409         	13.835         	0.081
MS.410         	13.807         	0.083
MS.411         	13.78          	0.079
MS.412         	13.752         	0.07
MS.413         	13.725         	0.073
MS.414         	13.697         	0.073
MS.415         	13.67          	0.073
MS.416         	13.642         	0.079
MS.417         	13.615         	0.068
MS.418         	13.587         	0.075
MS.419         	13.56          	0.075
MS.420         	13.535         	0.075
MS.421         	13.507         	0.07
MS.422         	13.48          	0.079
MS.423         	13.452         	0.075
MS.424         	13.425         	0.077
MS.425         	13.4           	0.085
MS.426         	13.372         	0.075
MS.427         	13.345         	0.073
MS.428         	13.32          	0.07
MS.429         	13.292         	0.064
MS.430         	13.265         	0.073
MS.431         	13.24          	0.068
MS.432         	13.212         	0.073
MS.433         	13.188         	0.073
MS.434         	13.16          	0.07
MS.435         	13.135         	0.066
MS.436         	13.108         	0.077
MS.437         	13.082         	0.081
MS.438         	13.055         	0.079
MS.439         	13.03          	0.066
MS.440         	13.002         	0.081
MS.441         	12.977         	0.073
MS.442         	12.952         	0.079
MS.443         	12.925         	0.068
MS.444         	12.9           	0.066
MS.445         	12.875         	0.075
MS.446         	12.847         	0.068
MS.447         	12.822         	0.077
MS.448         	12.797         	0.085
MS.449         	12.77          	0.075
MS.450         	12.745         	0.068
MS.451         	12.72          	0.07
MS.452         	12.695         	0.075
MS.453         	12.67          	0.073
MS.454         	12.645         	0.077
MS.455         	12.62          	0.066
MS.456         	12.592         	0.073
MS.457         	12.568         	0.077
MS.458         	12.542         	0.07
MS.459         	12.517         	0.073
MS.460         	12.492         	0.081
MS.461         	12.467         	0.073
MS.462         	12.443         	0.064
MS.463         	12.417         	0.077
MS.464         	12.395         	0.073
MS.465         	12.37          	0.079
MS.466         	12.345         	0.075
MS.467         	12.32          	0.07
MS.468         	12.295         	0.075
MS.469         	12.27          	0.068
MS.470         	12.245         	0.073
MS.471         	12.222         	0.079
MS.472         	12.197         	0.068
MS.473         	12.172         	0.077
MS.474         	12.148         	0.075
MS.475         	12.125         	0.081
MS.476         	12.1           	0.064
MS.477         	12.075         	0.066
MS.478         	12.052         	0.073
MS.479         	12.028         	0.008
MS.480         	12.002         	0.068
MS.481         	11.98          	0.073
MS.482         	11.955         	0.066
MS.483         	11.932         	0.077
MS.484         	11.907         	0.066
MS.485         	11.885         	0.066
MS.486         	11.86          	0.056
MS.487         	11.837         	0.07
MS.488         	11.812         	0.07
MS.489         	11.79          	0.073
MS.490         	11.765         	0.066
MS.491         	11.742         	0.052
MS.492         	11.72          	0.008
MS.493         	11.695         	0.066
MS.494         	11.672         	0.006
MS.495         	11.648         	0.01
MS.496         	11.625         	0.006
MS.497         	11.602         	0.006
MS.498         	11.58          	0.066
MS.499         	11.555         	0.008
MS.500         	11.532         	0.054
MS.501         	11.51          	0.006
