File:              	C:\Qtrac\Data\Daniel M Sørensen\MScan multicentre study\Data from centres\Toronto\Processed data\MSCC01216D.QZD
Name:              	CA.TOR.NC.10.2
Protocol:          	MSCAN-R2
Date:              	16/12/20
Start time:        	14:15:19
Age:               	49
Sex:               	M
Temperature:       	32.4
S/R sites:         	APB
NC/disease:        	NC
Operator:          	LP
Comments:          	MFF60ON
M-SCAN DATA (6.9-1.5m)
Scanpts: 29, 34, 557, 571
Stim. (mA)     	Amp. (mV)
MS.1           	26             	15.588
MS.2           	26             	15.588
MS.3           	26             	15.606
MS.4           	26             	15.545
MS.5           	26             	15.529
MS.6           	26             	15.543
MS.7           	26             	15.529
MS.8           	26             	15.529
MS.9           	26             	15.525
MS.10          	26             	15.521
MS.11          	26             	15.523
MS.12          	26             	15.529
MS.13          	26             	15.515
MS.14          	26             	15.537
MS.15          	26             	15.545
MS.16          	26             	15.539
MS.17          	26             	15.547
MS.18          	26             	15.549
MS.19          	26             	15.541
MS.20          	26             	15.567
MS.21          	26             	15.547
MS.22          	26             	15.567
MS.23          	26             	15.586
MS.24          	25.895         	15.594
MS.25          	25.845         	15.582
MS.26          	25.792         	15.586
MS.27          	25.74          	15.59
MS.28          	25.69          	15.586
MS.29          	25.637         	15.575
MS.30          	25.587         	15.573
MS.31          	25.535         	15.575
MS.32          	25.485         	15.565
MS.33          	25.435         	15.573
MS.34          	25.382         	15.573
MS.35          	25.332         	15.578
MS.36          	25.282         	15.58
MS.37          	25.233         	15.555
MS.38          	25.18          	15.588
MS.39          	25.13          	15.58
MS.40          	25.08          	15.575
MS.41          	25.03          	15.582
MS.42          	24.98          	15.573
MS.43          	24.93          	15.557
MS.44          	24.88          	15.551
MS.45          	24.83          	15.543
MS.46          	24.782         	15.384
MS.47          	24.733         	15.155
MS.48          	24.682         	15.1
MS.49          	24.632         	15.318
MS.50          	24.585         	15.573
MS.51          	24.535         	15.336
MS.52          	24.485         	15.116
MS.53          	24.438         	14.961
MS.54          	24.387         	14.955
MS.55          	24.34          	15.122
MS.56          	24.29          	15.175
MS.57          	24.243         	14.957
MS.58          	24.192         	14.955
MS.59          	24.145         	14.971
MS.60          	24.097         	14.703
MS.61          	24.05          	14.721
MS.62          	24             	14.979
MS.63          	23.952         	14.748
MS.64          	23.905         	14.945
MS.65          	23.858         	14.711
MS.66          	23.81          	14.709
MS.67          	23.762         	14.705
MS.68          	23.715         	14.717
MS.69          	23.667         	14.476
MS.70          	23.62          	14.45
MS.71          	23.573         	14.454
MS.72          	23.525         	14.452
MS.73          	23.477         	14.347
MS.74          	23.432         	14.462
MS.75          	23.385         	14.462
MS.76          	23.337         	14.365
MS.77          	23.292         	14.359
MS.78          	23.245         	14.375
MS.79          	23.198         	14.359
MS.80          	23.153         	14.365
MS.81          	23.105         	14.369
MS.82          	23.06          	14.365
MS.83          	23.015         	14.389
MS.84          	22.967         	14.371
MS.85          	22.922         	14.337
MS.86          	22.875         	14.379
MS.87          	22.83          	14.331
MS.88          	22.785         	14.345
MS.89          	22.74          	14.027
MS.90          	22.695         	14.379
MS.91          	22.647         	14.387
MS.92          	22.602         	14.069
MS.93          	22.557         	13.71
MS.94          	22.512         	14.041
MS.95          	22.467         	14.021
MS.96          	22.422         	13.741
MS.97          	22.377         	13.998
MS.98          	22.332         	13.696
MS.99          	22.29          	14.035
MS.100         	22.245         	13.686
MS.101         	22.2           	13.96
MS.102         	22.155         	13.628
MS.103         	22.112         	14.047
MS.104         	22.067         	13.63
MS.105         	22.022         	13.628
MS.106         	21.98          	13.596
MS.107         	21.935         	13.698
MS.108         	21.892         	13.062
MS.109         	21.847         	13.571
MS.110         	21.805         	13.884
MS.111         	21.76          	13.696
MS.112         	21.717         	13.118
MS.113         	21.672         	13.156
MS.114         	21.63          	12.85
MS.115         	21.587         	13.005
MS.116         	21.545         	13.07
MS.117         	21.5           	13.005
MS.118         	21.458         	13.009
MS.119         	21.415         	12.971
MS.120         	21.372         	12.78
MS.121         	21.33          	12.79
MS.122         	21.288         	12.864
MS.123         	21.245         	12.45
MS.124         	21.202         	12.387
MS.125         	21.16          	12.854
MS.126         	21.118         	12.391
MS.127         	21.075         	12.097
MS.128         	21.032         	12.538
MS.129         	20.99          	12.53
MS.130         	20.95          	12.375
MS.131         	20.907         	11.855
MS.132         	20.865         	12.274
MS.133         	20.823         	11.811
MS.134         	20.782         	12.008
MS.135         	20.74          	11.648
MS.136         	20.7           	11.803
MS.137         	20.657         	11.442
MS.138         	20.618         	11.712
MS.139         	20.575         	11.416
MS.140         	20.535         	11.221
MS.141         	20.493         	11.15
MS.142         	20.452         	11.392
MS.143         	20.413         	10.411
MS.144         	20.37          	10.242
MS.145         	20.33          	11.054
MS.146         	20.29          	10.403
MS.147         	20.247         	10.258
MS.148         	20.208         	9.718
MS.149         	20.167         	10.917
MS.150         	20.127         	9.885
MS.151         	20.087         	9.714
MS.152         	20.047         	9.823
MS.153         	20.007         	9.851
MS.154         	19.967         	9.599
MS.155         	19.927         	9.797
MS.156         	19.887         	8.88
MS.157         	19.847         	9.728
MS.158         	19.807         	9.698
MS.159         	19.767         	9.869
MS.160         	19.73          	9.432
MS.161         	19.69          	9.575
MS.162         	19.65          	8.685
MS.163         	19.61          	9.392
MS.164         	19.573         	9.338
MS.165         	19.532         	8.455
MS.166         	19.493         	9.475
MS.167         	19.455         	9.219
MS.168         	19.415         	8.661
MS.169         	19.377         	9.251
MS.170         	19.337         	8.449
MS.171         	19.3           	8.389
MS.172         	19.26          	8.433
MS.173         	19.222         	8.349
MS.174         	19.185         	8.339
MS.175         	19.145         	9.031
MS.176         	19.108         	8.58
MS.177         	19.07          	8.397
MS.178         	19.032         	8.494
MS.179         	18.993         	7.777
MS.180         	18.955         	8.538
MS.181         	18.917         	7.765
MS.182         	18.88          	7.674
MS.183         	18.842         	7.658
MS.184         	18.805         	7.656
MS.185         	18.767         	7.386
MS.186         	18.73          	7.456
MS.187         	18.692         	7.336
MS.188         	18.655         	7.271
MS.189         	18.618         	7.392
MS.190         	18.58          	7.317
MS.191         	18.542         	7.311
MS.192         	18.505         	7.231
MS.193         	18.47          	7.17
MS.194         	18.432         	6.898
MS.195         	18.395         	7.074
MS.196         	18.358         	6.737
MS.197         	18.323         	6.949
MS.198         	18.285         	7.019
MS.199         	18.247         	6.615
MS.200         	18.212         	6.669
MS.201         	18.175         	6.755
MS.202         	18.14          	6.699
MS.203         	18.102         	6.641
MS.204         	18.067         	6.286
MS.205         	18.03          	6.661
MS.206         	17.995         	6.385
MS.207         	17.96          	5.354
MS.208         	17.922         	5.897
MS.209         	17.887         	5.926
MS.210         	17.852         	5.95
MS.211         	17.815         	6.02
MS.212         	17.78          	5.64
MS.213         	17.745         	5.617
MS.214         	17.71          	5.027
MS.215         	17.675         	5.575
MS.216         	17.637         	5.591
MS.217         	17.602         	5.301
MS.218         	17.567         	5.029
MS.219         	17.532         	4.979
MS.220         	17.497         	4.929
MS.221         	17.462         	4.902
MS.222         	17.427         	4.802
MS.223         	17.392         	4.441
MS.224         	17.358         	4.888
MS.225         	17.325         	4.77
MS.226         	17.29          	4.506
MS.227         	17.255         	4.651
MS.228         	17.22          	4.721
MS.229         	17.185         	4.614
MS.230         	17.153         	4.566
MS.231         	17.118         	4.339
MS.232         	17.083         	3.982
MS.233         	17.05          	4.294
MS.234         	17.015         	4.282
MS.235         	16.98          	3.702
MS.236         	16.948         	3.7
MS.237         	16.913         	3.877
MS.238         	16.88          	3.914
MS.239         	16.845         	3.775
MS.240         	16.812         	3.595
MS.241         	16.778         	3.464
MS.242         	16.745         	3.515
MS.243         	16.712         	3.321
MS.244         	16.677         	3.275
MS.245         	16.645         	3.251
MS.246         	16.612         	2.981
MS.247         	16.577         	3.416
MS.248         	16.545         	2.989
MS.249         	16.512         	3.084
MS.250         	16.48          	2.721
MS.251         	16.445         	2.923
MS.252         	16.413         	2.929
MS.253         	16.38          	2.983
MS.254         	16.347         	2.765
MS.255         	16.315         	2.886
MS.256         	16.282         	2.773
MS.257         	16.25          	2.778
MS.258         	16.217         	2.675
MS.259         	16.185         	2.643
MS.260         	16.153         	2.604
MS.261         	16.12          	2.675
MS.262         	16.087         	2.435
MS.263         	16.055         	2.554
MS.264         	16.025         	2.496
MS.265         	15.992         	2.455
MS.266         	15.96          	2.431
MS.267         	15.927         	2.373
MS.268         	15.898         	2.282
MS.269         	15.865         	2.363
MS.270         	15.832         	2.284
MS.271         	15.802         	2.256
MS.272         	15.77          	2.185
MS.273         	15.737         	2.264
MS.274         	15.707         	2.097
MS.275         	15.675         	2.145
MS.276         	15.645         	2.157
MS.277         	15.612         	2.234
MS.278         	15.582         	2.077
MS.279         	15.55          	2.069
MS.280         	15.52          	1.946
MS.281         	15.487         	2.079
MS.282         	15.457         	2.026
MS.283         	15.427         	2.038
MS.284         	15.395         	2.077
MS.285         	15.365         	2.095
MS.286         	15.335         	1.932
MS.287         	15.302         	2.038
MS.288         	15.273         	1.95
MS.289         	15.242         	2.046
MS.290         	15.212         	1.928
MS.291         	15.182         	1.909
MS.292         	15.152         	1.895
MS.293         	15.12          	1.734
MS.294         	15.09          	1.73
MS.295         	15.06          	1.776
MS.296         	15.03          	1.714
MS.297         	15             	1.633
MS.298         	14.97          	1.597
MS.299         	14.94          	1.563
MS.300         	14.91          	1.603
MS.301         	14.88          	1.521
MS.302         	14.852         	1.476
MS.303         	14.822         	1.529
MS.304         	14.792         	1.458
MS.305         	14.762         	1.503
MS.306         	14.733         	1.468
MS.307         	14.702         	1.591
MS.308         	14.675         	1.535
MS.309         	14.645         	1.501
MS.310         	14.615         	1.438
MS.311         	14.587         	1.541
MS.312         	14.557         	1.474
MS.313         	14.527         	1.527
MS.314         	14.5           	1.37
MS.315         	14.47          	1.376
MS.316         	14.443         	1.396
MS.317         	14.412         	1.43
MS.318         	14.382         	1.309
MS.319         	14.355         	1.309
MS.320         	14.325         	1.38
MS.321         	14.297         	1.265
MS.322         	14.27          	1.192
MS.323         	14.24          	1.206
MS.324         	14.212         	1.319
MS.325         	14.182         	1.225
MS.326         	14.155         	1.259
MS.327         	14.127         	1.16
MS.328         	14.1           	1.16
MS.329         	14.07          	1.237
MS.330         	14.042         	1.142
MS.331         	14.015         	1.182
MS.332         	13.987         	1.217
MS.333         	13.957         	1.217
MS.334         	13.93          	1.146
MS.335         	13.903         	1.148
MS.336         	13.875         	1.12
MS.337         	13.847         	1.138
MS.338         	13.82          	1.11
MS.339         	13.792         	1.13
MS.340         	13.765         	1.104
MS.341         	13.737         	1.118
MS.342         	13.71          	1.082
MS.343         	13.682         	1.12
MS.344         	13.655         	1.104
MS.345         	13.627         	1.106
MS.346         	13.6           	1.136
MS.347         	13.572         	1.118
MS.348         	13.545         	1.096
MS.349         	13.52          	1.126
MS.350         	13.492         	1.108
MS.351         	13.465         	1.122
MS.352         	13.438         	1.112
MS.353         	13.41          	1.098
MS.354         	13.385         	1.132
MS.355         	13.358         	1.102
MS.356         	13.33          	1.104
MS.357         	13.305         	1.118
MS.358         	13.278         	1.096
MS.359         	13.252         	1.116
MS.360         	13.225         	1.12
MS.361         	13.197         	1.122
MS.362         	13.172         	1.134
MS.363         	13.145         	1.094
MS.364         	13.12          	1.138
MS.365         	13.092         	1.14
MS.366         	13.068         	1.142
MS.367         	13.04          	1.146
MS.368         	13.015         	1.148
MS.369         	12.99          	1.15
MS.370         	12.962         	1.164
MS.371         	12.938         	1.134
MS.372         	12.91          	1.158
MS.373         	12.885         	1.156
MS.374         	12.86          	1.154
MS.375         	12.835         	1.19
MS.376         	12.807         	1.164
MS.377         	12.782         	1.158
MS.378         	12.757         	1.168
MS.379         	12.733         	1.15
MS.380         	12.705         	1.166
MS.381         	12.68          	1.148
MS.382         	12.655         	1.178
MS.383         	12.63          	1.168
MS.384         	12.605         	1.18
MS.385         	12.58          	1.174
MS.386         	12.555         	1.172
MS.387         	12.53          	1.182
MS.388         	12.505         	1.184
MS.389         	12.48          	1.156
MS.390         	12.455         	1.196
MS.391         	12.43          	1.178
MS.392         	12.405         	1.156
MS.393         	12.38          	1.174
MS.394         	12.355         	1.18
MS.395         	12.33          	1.188
MS.396         	12.305         	1.19
MS.397         	12.282         	1.176
MS.398         	12.257         	1.192
MS.399         	12.233         	1.186
MS.400         	12.207         	1.186
MS.401         	12.182         	1.18
MS.402         	12.16          	1.184
MS.403         	12.135         	1.18
MS.404         	12.11          	1.184
MS.405         	12.087         	1.184
MS.406         	12.062         	1.186
MS.407         	12.037         	1.186
MS.408         	12.015         	1.188
MS.409         	11.99          	1.19
MS.410         	11.967         	1.186
MS.411         	11.943         	1.188
MS.412         	11.917         	1.184
MS.413         	11.895         	1.188
MS.414         	11.87          	1.188
MS.415         	11.847         	1.18
MS.416         	11.822         	1.182
MS.417         	11.8           	1.182
MS.418         	11.778         	0.606
MS.419         	11.752         	1.18
MS.420         	11.73          	0.608
MS.421         	11.705         	0.6
MS.422         	11.682         	0.598
MS.423         	11.66          	0.598
MS.424         	11.635         	0.61
MS.425         	11.613         	0.598
MS.426         	11.59          	0.606
MS.427         	11.568         	0.598
MS.428         	11.542         	0.596
MS.429         	11.52          	0.604
MS.430         	11.497         	0.608
MS.431         	11.475         	0.604
MS.432         	11.45          	0.608
MS.433         	11.427         	0.612
MS.434         	11.405         	0.612
MS.435         	11.382         	0.606
MS.436         	11.36          	0.614
MS.437         	11.337         	0.602
MS.438         	11.315         	0.61
MS.439         	11.292         	0.612
MS.440         	11.27          	0.61
MS.441         	11.247         	0.618
MS.442         	11.225         	0.618
MS.443         	11.202         	0.62
MS.444         	11.18          	0.612
MS.445         	11.157         	0.612
MS.446         	11.135         	0.614
MS.447         	11.113         	0.614
MS.448         	11.09          	0.622
MS.449         	11.068         	0.5
MS.450         	11.047         	0.614
MS.451         	11.025         	0.614
MS.452         	11.002         	0.61
MS.453         	10.98          	0.369
MS.454         	10.957         	0.467
MS.455         	10.938         	0.647
MS.456         	10.915         	0.473
MS.457         	10.892         	0.453
MS.458         	10.87          	0.413
MS.459         	10.85          	0.459
MS.460         	10.827         	0.588
MS.461         	10.805         	0.35
MS.462         	10.785         	0.469
MS.463         	10.762         	0.59
MS.464         	10.742         	0.359
MS.465         	10.72          	0.473
MS.466         	10.698         	0.359
MS.467         	10.677         	0.352
MS.468         	10.655         	0.348
MS.469         	10.635         	0.487
MS.470         	10.613         	0.365
MS.471         	10.592         	0.485
MS.472         	10.57          	0.475
MS.473         	10.55          	0.326
MS.474         	10.528         	0.276
MS.475         	10.507         	0.33
MS.476         	10.488         	0.338
MS.477         	10.465         	0.352
MS.478         	10.445         	0.342
MS.479         	10.425         	0.324
MS.480         	10.403         	0.336
MS.481         	10.382         	0.284
MS.482         	10.363         	0.308
MS.483         	10.34          	0.27
MS.484         	10.32          	0.33
MS.485         	10.3           	0.28
MS.486         	10.28          	0.266
MS.487         	10.257         	0.286
MS.488         	10.238         	0.286
MS.489         	10.217         	0.179
MS.490         	10.198         	0.302
MS.491         	10.177         	0.268
MS.492         	10.157         	0.22
MS.493         	10.135         	0.29
MS.494         	10.115         	0.093
MS.495         	10.095         	0.207
MS.496         	10.075         	0.195
MS.497         	10.055         	0.107
