File:              	C:\Qtrac\Data\Daniel M Sørensen\MScan multicentre study\Data from centres\Toronto\Processed data\MSCC01209D.QZD
Name:              	CA.TOR.NC.9.1
Protocol:          	MSCAN-R2
Date:              	9/12/20
Start time:        	12:20:05
Age:               	51
Sex:               	F
Temperature:       	30.1
S/R sites:         	APB
NC/disease:        	NC
Operator:          	LP
Comments:          	MFF60ON
M-SCAN DATA (6.5-1.8m)
Scanpts: 16, 24, 493, 515
Stim. (mA)     	Amp. (mV)
MS.1           	17             	8.216
MS.2           	17             	8.208
MS.3           	17             	8.208
MS.4           	17             	8.224
MS.5           	17             	8.246
MS.6           	17             	8.218
MS.7           	17             	8.198
MS.8           	17             	8.23
MS.9           	17             	8.119
MS.10          	17             	8.202
MS.11          	17             	8.224
MS.12          	17             	8.258
MS.13          	17             	8.192
MS.14          	17             	8.238
MS.15          	17             	8.242
MS.16          	17             	8.226
MS.17          	17             	8.254
MS.18          	17             	8.262
MS.19          	17             	8.218
MS.20          	17             	8.24
MS.21          	17             	8.214
MS.22          	17             	8.232
MS.23          	17             	8.298
MS.24          	16.932         	8.288
MS.25          	16.897         	8.292
MS.26          	16.865         	8.268
MS.27          	16.83          	8.21
MS.28          	16.797         	8.23
MS.29          	16.762         	8.266
MS.30          	16.73          	8.244
MS.31          	16.698         	8.23
MS.32          	16.663         	8.206
MS.33          	16.63          	8.109
MS.34          	16.597         	8.254
MS.35          	16.562         	8.147
MS.36          	16.53          	8.25
MS.37          	16.497         	8.256
MS.38          	16.465         	8.125
MS.39          	16.432         	8.171
MS.40          	16.4           	8.175
MS.41          	16.365         	8.151
MS.42          	16.333         	8.135
MS.43          	16.3           	8.151
MS.44          	16.267         	8.103
MS.45          	16.235         	8.214
MS.46          	16.202         	8.069
MS.47          	16.17          	8.111
MS.48          	16.137         	8.182
MS.49          	16.108         	8.163
MS.50          	16.075         	8.109
MS.51          	16.042         	8.149
MS.52          	16.01          	8.167
MS.53          	15.977         	8.109
MS.54          	15.945         	8.111
MS.55          	15.915         	8.075
MS.56          	15.882         	8.105
MS.57          	15.85          	8.093
MS.58          	15.82          	8.129
MS.59          	15.787         	8.157
MS.60          	15.755         	8.115
MS.61          	15.725         	8.103
MS.62          	15.693         	8.103
MS.63          	15.662         	8.026
MS.64          	15.63          	8.115
MS.65          	15.6           	8.119
MS.66          	15.568         	8.036
MS.67          	15.537         	8.075
MS.68          	15.505         	8.002
MS.69          	15.475         	8.067
MS.70          	15.445         	7.998
MS.71          	15.412         	7.994
MS.72          	15.382         	8.024
MS.73          	15.352         	8.051
MS.74          	15.32          	8.059
MS.75          	15.29          	8.087
MS.76          	15.26          	8.079
MS.77          	15.23          	8.024
MS.78          	15.197         	8.014
MS.79          	15.167         	8.059
MS.80          	15.137         	8.026
MS.81          	15.108         	8.034
MS.82          	15.077         	8.039
MS.83          	15.047         	8.03
MS.84          	15.017         	8.049
MS.85          	14.987         	8.067
MS.86          	14.957         	8.032
MS.87          	14.927         	8.028
MS.88          	14.898         	7.984
MS.89          	14.867         	7.942
MS.90          	14.837         	8.045
MS.91          	14.807         	8.018
MS.92          	14.78          	8.041
MS.93          	14.75          	8.036
MS.94          	14.72          	8.097
MS.95          	14.69          	7.944
MS.96          	14.662         	8.039
MS.97          	14.632         	7.934
MS.98          	14.602         	8.049
MS.99          	14.572         	8.051
MS.100         	14.545         	8.03
MS.101         	14.515         	8.018
MS.102         	14.487         	8.051
MS.103         	14.457         	7.926
MS.104         	14.427         	7.924
MS.105         	14.4           	7.932
MS.106         	14.37          	7.779
MS.107         	14.342         	7.827
MS.108         	14.312         	7.863
MS.109         	14.285         	7.696
MS.110         	14.257         	7.831
MS.111         	14.227         	7.869
MS.112         	14.2           	7.813
MS.113         	14.17          	7.815
MS.114         	14.142         	7.793
MS.115         	14.115         	7.835
MS.116         	14.087         	7.428
MS.117         	14.057         	7.434
MS.118         	14.03          	7.664
MS.119         	14.002         	7.668
MS.120         	13.975         	7.678
MS.121         	13.945         	7.67
MS.122         	13.917         	7.338
MS.123         	13.89          	7.44
MS.124         	13.862         	7.46
MS.125         	13.835         	7.571
MS.126         	13.807         	7.011
MS.127         	13.78          	7.394
MS.128         	13.752         	7.058
MS.129         	13.725         	7.428
MS.130         	13.697         	7.086
MS.131         	13.67          	6.921
MS.132         	13.642         	7.128
MS.133         	13.615         	7.227
MS.134         	13.587         	7.221
MS.135         	13.56          	7.158
MS.136         	13.535         	6.858
MS.137         	13.507         	7.221
MS.138         	13.48          	6.905
MS.139         	13.452         	6.896
MS.140         	13.425         	6.53
MS.141         	13.4           	7.108
MS.142         	13.372         	6.588
MS.143         	13.345         	6.238
MS.144         	13.32          	6.723
MS.145         	13.292         	6.558
MS.146         	13.265         	6.524
MS.147         	13.24          	6.034
MS.148         	13.212         	6.363
MS.149         	13.188         	6.745
MS.150         	13.16          	6.23
MS.151         	13.135         	6.111
MS.152         	13.108         	6.097
MS.153         	13.082         	6.322
MS.154         	13.055         	6.131
MS.155         	13.03          	6.145
MS.156         	13.002         	5.936
MS.157         	12.977         	5.946
MS.158         	12.952         	6.036
MS.159         	12.925         	5.916
MS.160         	12.9           	5.861
MS.161         	12.875         	5.867
MS.162         	12.847         	5.783
MS.163         	12.822         	5.954
MS.164         	12.797         	5.609
MS.165         	12.773         	5.795
MS.166         	12.745         	5.847
MS.167         	12.72          	5.692
MS.168         	12.695         	5.543
MS.169         	12.67          	5.563
MS.170         	12.645         	5.561
MS.171         	12.62          	5.871
MS.172         	12.595         	5.728
MS.173         	12.568         	5.571
MS.174         	12.542         	5.493
MS.175         	12.517         	5.575
MS.176         	12.492         	5.434
MS.177         	12.467         	5.422
MS.178         	12.443         	5.305
MS.179         	12.42          	5.269
MS.180         	12.395         	5.394
MS.181         	12.37          	5.545
MS.182         	12.345         	4.913
MS.183         	12.32          	5.231
MS.184         	12.295         	4.913
MS.185         	12.27          	4.892
MS.186         	12.245         	4.933
MS.187         	12.222         	4.794
MS.188         	12.197         	5.168
MS.189         	12.172         	4.802
MS.190         	12.148         	4.872
MS.191         	12.125         	4.395
MS.192         	12.1           	4.649
MS.193         	12.075         	4.465
MS.194         	12.052         	4.447
MS.195         	12.028         	4.373
MS.196         	12.002         	4.334
MS.197         	11.98          	4.252
MS.198         	11.955         	4.282
MS.199         	11.932         	4.2
MS.200         	11.907         	4.262
MS.201         	11.885         	3.97
MS.202         	11.86          	3.996
MS.203         	11.837         	4.01
MS.204         	11.812         	3.861
MS.205         	11.79          	3.793
MS.206         	11.765         	3.899
MS.207         	11.742         	3.758
MS.208         	11.72          	3.768
MS.209         	11.695         	3.785
MS.210         	11.672         	3.706
MS.211         	11.65          	3.855
MS.212         	11.625         	3.609
MS.213         	11.602         	3.583
MS.214         	11.58          	3.44
MS.215         	11.555         	3.64
MS.216         	11.532         	3.482
MS.217         	11.51          	3.237
MS.218         	11.488         	3.519
MS.219         	11.465         	3.178
MS.220         	11.44          	3.074
MS.221         	11.417         	3.188
MS.222         	11.395         	3.092
MS.223         	11.372         	3.027
MS.224         	11.35          	2.939
MS.225         	11.327         	3.225
MS.226         	11.305         	2.993
MS.227         	11.282         	2.9
MS.228         	11.26          	2.866
MS.229         	11.238         	2.822
MS.230         	11.215         	2.677
MS.231         	11.193         	2.836
MS.232         	11.17          	2.737
MS.233         	11.148         	2.763
MS.234         	11.125         	2.616
MS.235         	11.102         	2.705
MS.236         	11.08          	2.393
MS.237         	11.057         	2.439
MS.238         	11.037         	2.516
MS.239         	11.015         	2.602
MS.240         	10.992         	2.534
MS.241         	10.97          	2.31
MS.242         	10.948         	2.504
MS.243         	10.927         	2.449
MS.244         	10.905         	2.218
MS.245         	10.882         	2.324
MS.246         	10.863         	2.308
MS.247         	10.84          	2.197
MS.248         	10.818         	2.216
MS.249         	10.797         	2.056
MS.250         	10.775         	2.177
MS.251         	10.752         	2.095
MS.252         	10.733         	1.98
MS.253         	10.71          	2.056
MS.254         	10.69          	1.926
MS.255         	10.667         	1.96
MS.256         	10.648         	1.936
MS.257         	10.625         	2.05
MS.258         	10.605         	1.817
MS.259         	10.582         	1.74
MS.260         	10.562         	1.871
MS.261         	10.54          	1.813
MS.262         	10.52          	1.877
MS.263         	10.497         	1.635
MS.264         	10.477         	1.65
MS.265         	10.457         	1.553
MS.266         	10.435         	1.378
MS.267         	10.415         	1.484
MS.268         	10.395         	1.597
MS.269         	10.372         	1.587
MS.270         	10.352         	1.579
MS.271         	10.332         	1.521
MS.272         	10.31          	1.537
MS.273         	10.29          	1.345
MS.274         	10.27          	1.356
MS.275         	10.25          	1.263
MS.276         	10.23          	1.293
MS.277         	10.207         	1.311
MS.278         	10.188         	1.07
MS.279         	10.167         	1.275
MS.280         	10.148         	1.309
MS.281         	10.127         	1.245
MS.282         	10.108         	1.059
MS.283         	10.087         	1.102
MS.284         	10.068         	1.051
MS.285         	10.047         	1.019
MS.286         	10.028         	1.239
MS.287         	10.005         	0.945
MS.288         	9.988          	0.769
MS.289         	9.967          	1.023
MS.290         	9.948          	0.943
MS.291         	9.927          	0.816
MS.292         	9.907          	0.792
MS.293         	9.887          	1.035
MS.294         	9.867          	0.844
MS.295         	9.847          	0.824
MS.296         	9.827          	0.741
MS.297         	9.807          	0.679
MS.298         	9.787          	0.788
MS.299         	9.77           	0.63
MS.300         	9.75           	0.636
MS.301         	9.73           	0.727
MS.302         	9.71           	0.584
MS.303         	9.69           	0.562
MS.304         	9.672          	0.56
MS.305         	9.653          	0.574
MS.306         	9.632          	0.55
MS.307         	9.615          	0.62
MS.308         	9.595          	0.61
MS.309         	9.575          	0.592
MS.310         	9.557          	0.546
MS.311         	9.537          	0.588
MS.312         	9.517          	0.568
MS.313         	9.5            	0.532
MS.314         	9.48           	0.445
MS.315         	9.462          	0.451
MS.316         	9.443          	0.463
MS.317         	9.422          	0.514
MS.318         	9.405          	0.481
MS.319         	9.385          	0.399
MS.320         	9.367          	0.437
MS.321         	9.347          	0.389
MS.322         	9.33           	0.419
MS.323         	9.31           	0.336
MS.324         	9.292          	0.419
MS.325         	9.275          	0.409
MS.326         	9.255          	0.389
MS.327         	9.238          	0.445
MS.328         	9.217          	0.31
MS.329         	9.2            	0.342
MS.330         	9.182          	0.288
MS.331         	9.162          	0.298
MS.332         	9.145          	0.342
MS.333         	9.127          	0.324
MS.334         	9.108          	0.324
MS.335         	9.09           	0.314
MS.336         	9.073          	0.363
MS.337         	9.055          	0.312
MS.338         	9.035          	0.334
MS.339         	9.017          	0.312
MS.340         	9              	0.302
MS.341         	8.983          	0.294
MS.342         	8.965          	0.145
MS.343         	8.945          	0.167
MS.344         	8.927          	0.288
MS.345         	8.91           	0.189
MS.346         	8.892          	0.169
MS.347         	8.875          	0.141
MS.348         	8.858          	0.147
MS.349         	8.84           	0.211
MS.350         	8.823          	0.147
MS.351         	8.805          	0.135
MS.352         	8.787          	0.26
MS.353         	8.77           	0.278
MS.354         	8.752          	0.147
MS.355         	8.735          	0.171
MS.356         	8.717          	0.149
MS.357         	8.7            	0.123
MS.358         	8.682          	0.147
MS.359         	8.665          	0.137
MS.360         	8.648          	0.145
MS.361         	8.63           	0.141
MS.362         	8.613          	0.141
MS.363         	8.595          	0.143
MS.364         	8.577          	0.143
MS.365         	8.56           	0.097
MS.366         	8.545          	0.151
MS.367         	8.528          	0.143
MS.368         	8.51           	0.101
MS.369         	8.492          	0.149
MS.370         	8.475          	0.129
MS.371         	8.46           	0.143
MS.372         	8.443          	0.121
MS.373         	8.425          	0.141
MS.374         	8.408          	0.089
MS.375         	8.392          	0.109
MS.376         	8.375          	0.127
MS.377         	8.358          	0.089
MS.378         	8.34           	0.091
MS.379         	8.325          	0.093
MS.380         	8.307          	0.135
MS.381         	8.292          	0.121
MS.382         	8.275          	0.095
MS.383         	8.257          	0.097
MS.384         	8.242          	0.095
MS.385         	8.225          	0.095
MS.386         	8.21           	0.089
MS.387         	8.193          	0.093
MS.388         	8.175          	0.095
MS.389         	8.16           	0.091
MS.390         	8.142          	0.091
MS.391         	8.127          	0.093
MS.392         	8.11           	0.101
MS.393         	8.095          	0.103
MS.394         	8.077          	0.091
MS.395         	8.062          	0.097
MS.396         	8.047          	0.093
MS.397         	8.03           	0.093
MS.398         	8.015          	0.099
MS.399         	7.997          	0.101
MS.400         	7.982          	0.089
MS.401         	7.965          	0.097
MS.402         	7.95           	0.089
MS.403         	7.935          	0.103
MS.404         	7.918          	0.101
MS.405         	7.902          	0.099
MS.406         	7.887          	0.101
MS.407         	7.87           	0.095
MS.408         	7.855          	0.093
MS.409         	7.84           	0.095
MS.410         	7.825          	0.089
MS.411         	7.807          	0.095
MS.412         	7.793          	0.089
MS.413         	7.777          	0.091
MS.414         	7.762          	0.107
MS.415         	7.747          	0.099
MS.416         	7.73           	0.099
MS.417         	7.715          	0.097
MS.418         	7.7            	0.089
MS.419         	7.685          	0.097
MS.420         	7.67           	0.095
MS.421         	7.655          	0.099
MS.422         	7.637          	0.091
MS.423         	7.622          	0.093
MS.424         	7.607          	0.089
MS.425         	7.592          	0.095
MS.426         	7.577          	0.097
MS.427         	7.562          	0.093
MS.428         	7.547          	0.097
MS.429         	7.532          	0.093
MS.430         	7.517          	0.066
MS.431         	7.503          	0.109
MS.432         	7.487          	0.097
MS.433         	7.472          	0.095
MS.434         	7.457          	0.093
MS.435         	7.442          	0.093
MS.436         	7.427          	0.097
MS.437         	7.412          	0.097
MS.438         	7.398          	0.089
MS.439         	7.382          	0.095
MS.440         	7.367          	0.103
MS.441         	7.352          	0.073
MS.442         	7.34           	0.079
MS.443         	7.325          	0.058
MS.444         	7.31           	0.064
MS.445         	7.295          	0.087
MS.446         	7.28           	0.097
MS.447         	7.265          	0.07
MS.448         	7.253          	0.062
MS.449         	7.237          	0.06
MS.450         	7.222          	0.054
MS.451         	7.207          	0.064
MS.452         	7.192          	0.054
MS.453         	7.18           	0.07
MS.454         	7.165          	0.087
MS.455         	7.15           	0.054
MS.456         	7.137          	0.091
MS.457         	7.122          	0.06
MS.458         	7.108          	0.091
MS.459         	7.092          	0.052
MS.460         	7.08           	0.056
MS.461         	7.065          	0.052
MS.462         	7.052          	0.056
MS.463         	7.037          	0.038
MS.464         	7.023          	0.054
MS.465         	7.01           	0.006
MS.466         	6.995          	0.056
MS.467         	6.98           	0.016
MS.468         	6.967          	0.004
MS.469         	6.952          	-0.002
MS.470         	6.94           	0.054
MS.471         	6.925          	0.014
MS.472         	6.912          	0.038
MS.473         	6.898          	-0.004
MS.474         	6.885          	0.004
MS.475         	6.87           	-0.006
MS.476         	6.858          	-0.002
MS.477         	6.842          	-0.004
MS.478         	6.83           	0.004
MS.479         	6.815          	0.002
MS.480         	6.802          	-0.006
MS.481         	6.787          	0.000
MS.482         	6.775          	0.002
MS.483         	6.762          	0.002
MS.484         	6.747          	-0.004
MS.485         	6.735          	0.000
MS.486         	6.72           	0.002
MS.487         	6.707          	0.000
MS.488         	6.695          	-0.004
MS.489         	6.68           	-0.002
MS.490         	6.668          	0.004
MS.491         	6.655          	-0.004
MS.492         	6.64           	-0.004
MS.493         	6.628          	-0.002
MS.494         	6.615          	0.004
MS.495         	6.6            	0.004
MS.496         	6.587          	-0.006
MS.497         	6.575          	0.004
MS.498         	6.562          	0.000
MS.499         	6.547          	0.002
MS.500         	6.535          	0.004
