File:              	C:\Qtrac\Data\Daniel M Sørensen\MScan multicentre study\Data from centres\Toronto\Processed data\MSCC01116B.QZD
Name:              	CA.TOR.NC.6.1
Protocol:          	MSCAN-R2
Date:              	16/11/20
Start time:        	14:30:00
Age:               	42
Sex:               	F
Temperature:       	32.0
S/R sites:         	ADM
NC/disease:        	NC
Operator:          	LP
Comments:
M-SCAN DATA (10.6-1.7m)
Scanpts: 24, 42, 915, 921
Stim. (mA)     	Amp. (mV)
MS.1           	25             	7.503
MS.2           	25             	7.531
MS.3           	25             	7.509
MS.4           	25             	7.497
MS.5           	25             	7.499
MS.6           	25             	7.513
MS.7           	25             	7.485
MS.8           	25             	7.507
MS.9           	25             	7.531
MS.10          	25             	7.477
MS.11          	25             	7.456
MS.12          	25             	7.458
MS.13          	25             	7.501
MS.14          	25             	7.517
MS.15          	25             	7.485
MS.16          	25             	7.497
MS.17          	25             	7.471
MS.18          	25             	7.557
MS.19          	25             	7.479
MS.20          	25             	7.507
MS.21          	25             	7.537
MS.22          	25             	7.525
MS.23          	25             	7.529
MS.24          	24.9           	7.535
MS.25          	24.85          	7.569
MS.26          	24.8           	7.527
MS.27          	24.75          	7.551
MS.28          	24.702         	7.553
MS.29          	24.653         	7.547
MS.30          	24.602         	7.511
MS.31          	24.555         	7.507
MS.32          	24.505         	7.533
MS.33          	24.455         	7.507
MS.34          	24.407         	7.517
MS.35          	24.358         	7.573
MS.36          	24.31          	7.581
MS.37          	24.26          	7.533
MS.38          	24.212         	7.511
MS.39          	24.165         	7.537
MS.40          	24.115         	7.511
MS.41          	24.067         	7.543
MS.42          	24.02          	7.505
MS.43          	23.972         	7.527
MS.44          	23.925         	7.505
MS.45          	23.875         	7.517
MS.46          	23.827         	7.533
MS.47          	23.78          	7.515
MS.48          	23.733         	7.533
MS.49          	23.685         	7.509
MS.50          	23.637         	7.501
MS.51          	23.59          	7.491
MS.52          	23.545         	7.473
MS.53          	23.497         	7.493
MS.54          	23.45          	7.495
MS.55          	23.403         	7.495
MS.56          	23.358         	7.473
MS.57          	23.31          	7.507
MS.58          	23.262         	7.466
MS.59          	23.217         	7.489
MS.60          	23.17          	7.481
MS.61          	23.125         	7.479
MS.62          	23.077         	7.505
MS.63          	23.032         	7.503
MS.64          	22.985         	7.491
MS.65          	22.94          	7.489
MS.66          	22.895         	7.473
MS.67          	22.847         	7.473
MS.68          	22.802         	7.452
MS.69          	22.757         	7.46
MS.70          	22.712         	7.466
MS.71          	22.665         	7.462
MS.72          	22.62          	7.473
MS.73          	22.575         	7.479
MS.74          	22.53          	7.481
MS.75          	22.485         	7.487
MS.76          	22.44          	7.454
MS.77          	22.395         	7.491
MS.78          	22.35          	7.479
MS.79          	22.307         	7.489
MS.80          	22.262         	7.487
MS.81          	22.217         	7.46
MS.82          	22.172         	7.436
MS.83          	22.127         	7.424
MS.84          	22.085         	7.45
MS.85          	22.04          	7.442
MS.86          	21.995         	7.42
MS.87          	21.952         	7.378
MS.88          	21.907         	7.436
MS.89          	21.865         	7.452
MS.90          	21.82          	7.46
MS.91          	21.778         	7.444
MS.92          	21.735         	7.392
MS.93          	21.69          	7.418
MS.94          	21.647         	7.412
MS.95          	21.605         	7.406
MS.96          	21.56          	7.4
MS.97          	21.517         	7.416
MS.98          	21.475         	7.422
MS.99          	21.432         	7.442
MS.100         	21.39          	7.428
MS.101         	21.345         	7.372
MS.102         	21.302         	7.364
MS.103         	21.26          	7.392
MS.104         	21.217         	7.39
MS.105         	21.175         	7.368
MS.106         	21.135         	7.364
MS.107         	21.092         	7.372
MS.108         	21.05          	7.412
MS.109         	21.007         	7.374
MS.110         	20.965         	7.386
MS.111         	20.922         	7.364
MS.112         	20.882         	7.406
MS.113         	20.84          	7.338
MS.114         	20.797         	7.36
MS.115         	20.757         	7.384
MS.116         	20.715         	7.39
MS.117         	20.675         	7.382
MS.118         	20.632         	7.394
MS.119         	20.592         	7.386
MS.120         	20.55          	7.394
MS.121         	20.51          	7.366
MS.122         	20.467         	7.352
MS.123         	20.427         	7.392
MS.124         	20.387         	7.374
MS.125         	20.345         	7.358
MS.126         	20.305         	7.338
MS.127         	20.265         	7.378
MS.128         	20.225         	7.325
MS.129         	20.182         	7.392
MS.130         	20.142         	7.311
MS.131         	20.102         	7.317
MS.132         	20.062         	7.309
MS.133         	20.022         	7.313
MS.134         	19.983         	7.323
MS.135         	19.942         	7.289
MS.136         	19.903         	7.263
MS.137         	19.862         	7.289
MS.138         	19.823         	7.317
MS.139         	19.785         	7.334
MS.140         	19.745         	7.283
MS.141         	19.705         	7.338
MS.142         	19.665         	7.34
MS.143         	19.627         	7.378
MS.144         	19.587         	7.283
MS.145         	19.547         	7.323
MS.146         	19.51          	7.301
MS.147         	19.47          	7.36
MS.148         	19.43          	7.352
MS.149         	19.392         	7.325
MS.150         	19.352         	7.332
MS.151         	19.315         	7.269
MS.152         	19.275         	7.338
MS.153         	19.237         	7.305
MS.154         	19.2           	7.38
MS.155         	19.16          	7.378
MS.156         	19.122         	7.334
MS.157         	19.085         	7.338
MS.158         	19.047         	7.317
MS.159         	19.007         	7.311
MS.160         	18.97          	7.328
MS.161         	18.932         	7.279
MS.162         	18.895         	7.336
MS.163         	18.858         	7.297
MS.164         	18.82          	7.311
MS.165         	18.782         	7.279
MS.166         	18.745         	7.267
MS.167         	18.708         	7.334
MS.168         	18.67          	7.285
MS.169         	18.632         	7.273
MS.170         	18.595         	7.309
MS.171         	18.557         	7.315
MS.172         	18.52          	7.334
MS.173         	18.483         	7.311
MS.174         	18.448         	7.376
MS.175         	18.41          	7.291
MS.176         	18.372         	7.358
MS.177         	18.335         	7.317
MS.178         	18.3           	7.382
MS.179         	18.262         	7.257
MS.180         	18.227         	7.368
MS.181         	18.19          	7.255
MS.182         	18.153         	7.277
MS.183         	18.118         	7.249
MS.184         	18.08          	7.317
MS.185         	18.045         	7.388
MS.186         	18.01          	7.328
MS.187         	17.972         	7.352
MS.188         	17.938         	7.336
MS.189         	17.903         	7.384
MS.190         	17.865         	7.323
MS.191         	17.83          	7.394
MS.192         	17.795         	7.328
MS.193         	17.757         	7.317
MS.194         	17.722         	7.334
MS.195         	17.688         	7.321
MS.196         	17.653         	7.285
MS.197         	17.618         	7.35
MS.198         	17.583         	7.287
MS.199         	17.547         	7.378
MS.200         	17.512         	7.311
MS.201         	17.477         	7.279
MS.202         	17.442         	7.338
MS.203         	17.407         	7.358
MS.204         	17.372         	7.293
MS.205         	17.337         	7.328
MS.206         	17.302         	7.293
MS.207         	17.267         	7.273
MS.208         	17.235         	7.303
MS.209         	17.2           	7.263
MS.210         	17.165         	7.231
MS.211         	17.13          	7.241
MS.212         	17.097         	7.106
MS.213         	17.062         	7.136
MS.214         	17.028         	7.201
MS.215         	16.995         	7.211
MS.216         	16.96          	7.195
MS.217         	16.927         	7.189
MS.218         	16.892         	7.207
MS.219         	16.86          	7.144
MS.220         	16.825         	7.046
MS.221         	16.792         	7.142
MS.222         	16.757         	7.108
MS.223         	16.725         	7.152
MS.224         	16.69          	6.977
MS.225         	16.657         	7.096
MS.226         	16.625         	7.12
MS.227         	16.59          	6.997
MS.228         	16.557         	7.124
MS.229         	16.525         	6.991
MS.230         	16.493         	6.89
MS.231         	16.46          	6.921
MS.232         	16.425         	6.943
MS.233         	16.392         	6.842
MS.234         	16.36          	6.79
MS.235         	16.327         	6.961
MS.236         	16.295         	6.907
MS.237         	16.262         	6.806
MS.238         	16.23          	6.874
MS.239         	16.198         	6.826
MS.240         	16.165         	6.925
MS.241         	16.132         	6.784
MS.242         	16.1           	6.758
MS.243         	16.067         	6.762
MS.244         	16.038         	6.832
MS.245         	16.005         	6.705
MS.246         	15.972         	6.802
MS.247         	15.94          	6.617
MS.248         	15.91          	6.731
MS.249         	15.877         	6.685
MS.250         	15.845         	6.643
MS.251         	15.812         	6.683
MS.252         	15.782         	6.637
MS.253         	15.75          	6.534
MS.254         	15.72          	6.596
MS.255         	15.688         	6.52
MS.256         	15.657         	6.469
MS.257         	15.625         	6.405
MS.258         	15.595         	6.405
MS.259         	15.562         	6.421
MS.260         	15.532         	6.54
MS.261         	15.5           	6.314
MS.262         	15.47          	6.421
MS.263         	15.438         	6.403
MS.264         	15.407         	6.399
MS.265         	15.377         	6.26
MS.266         	15.347         	6.258
MS.267         	15.315         	6.375
MS.268         	15.285         	6.373
MS.269         	15.255         	6.206
MS.270         	15.225         	6.264
MS.271         	15.193         	6.359
MS.272         	15.162         	6.22
MS.273         	15.132         	6.3
MS.274         	15.102         	6.059
MS.275         	15.072         	6.292
MS.276         	15.042         	6.053
MS.277         	15.012         	6.103
MS.278         	14.983         	6.385
MS.279         	14.952         	6.157
MS.280         	14.922         	6.018
MS.281         	14.892         	6.075
MS.282         	14.862         	6.014
MS.283         	14.832         	6.04
MS.284         	14.802         	6.042
MS.285         	14.775         	5.819
MS.286         	14.745         	5.728
MS.287         	14.715         	5.66
MS.288         	14.685         	5.843
MS.289         	14.657         	5.95
MS.290         	14.627         	5.674
MS.291         	14.597         	5.819
MS.292         	14.568         	5.7
MS.293         	14.54          	5.863
MS.294         	14.51          	5.591
MS.295         	14.483         	5.765
MS.296         	14.452         	5.698
MS.297         	14.422         	5.599
MS.298         	14.395         	5.593
MS.299         	14.365         	5.603
MS.300         	14.337         	5.599
MS.301         	14.31          	5.481
MS.302         	14.28          	5.636
MS.303         	14.252         	5.567
MS.304         	14.222         	5.448
MS.305         	14.195         	5.44
MS.306         	14.167         	5.597
MS.307         	14.137         	5.426
MS.308         	14.11          	5.446
MS.309         	14.082         	5.557
MS.310         	14.052         	5.424
MS.311         	14.025         	5.569
MS.312         	13.997         	5.575
MS.313         	13.97          	5.251
MS.314         	13.943         	5.235
MS.315         	13.912         	5.362
MS.316         	13.885         	5.374
MS.317         	13.858         	5.323
MS.318         	13.83          	5.297
MS.319         	13.802         	5.394
MS.320         	13.775         	5.404
MS.321         	13.747         	5.237
MS.322         	13.72          	5.263
MS.323         	13.693         	5.106
MS.324         	13.665         	5.247
MS.325         	13.637         	5.211
MS.326         	13.61          	5.281
MS.327         	13.582         	5.291
MS.328         	13.557         	5.1
MS.329         	13.53          	5.273
MS.330         	13.502         	5.188
MS.331         	13.475         	5.223
MS.332         	13.447         	5.16
MS.333         	13.422         	5.156
MS.334         	13.395         	5.215
MS.335         	13.367         	5.082
MS.336         	13.342         	5.074
MS.337         	13.315         	5.15
MS.338         	13.287         	5.162
MS.339         	13.262         	5.182
MS.340         	13.235         	5.197
MS.341         	13.207         	5.116
MS.342         	13.182         	5.12
MS.343         	13.155         	5.18
MS.344         	13.13          	5.086
MS.345         	13.102         	5.142
MS.346         	13.077         	4.983
MS.347         	13.05          	5.033
MS.348         	13.025         	5.031
MS.349         	13             	5.001
MS.350         	12.972         	4.721
MS.351         	12.947         	4.802
MS.352         	12.92          	4.923
MS.353         	12.895         	4.757
MS.354         	12.87          	4.961
MS.355         	12.845         	4.6
MS.356         	12.818         	4.588
MS.357         	12.792         	4.711
MS.358         	12.767         	4.645
MS.359         	12.742         	4.691
MS.360         	12.715         	4.719
MS.361         	12.69          	4.546
MS.362         	12.665         	4.532
MS.363         	12.64          	4.423
MS.364         	12.615         	4.622
MS.365         	12.59          	4.399
MS.366         	12.565         	4.415
MS.367         	12.54          	4.288
MS.368         	12.515         	4.403
MS.369         	12.49          	4.32
MS.370         	12.465         	4.071
MS.371         	12.44          	4.189
MS.372         	12.415         	4.467
MS.373         	12.39          	4.334
MS.374         	12.365         	4.105
MS.375         	12.34          	4.191
MS.376         	12.315         	4.355
MS.377         	12.29          	4.264
MS.378         	12.267         	4.165
MS.379         	12.242         	4.02
MS.380         	12.217         	4.018
MS.381         	12.193         	3.968
MS.382         	12.17          	4.067
MS.383         	12.145         	3.916
MS.384         	12.12          	4.111
MS.385         	12.095         	4.153
MS.386         	12.072         	3.849
MS.387         	12.047         	3.728
MS.388         	12.023         	3.72
MS.389         	12             	3.817
MS.390         	11.975         	3.694
MS.391         	11.952         	3.805
MS.392         	11.927         	3.972
MS.393         	11.905         	3.803
MS.394         	11.88          	3.72
MS.395         	11.858         	3.72
MS.396         	11.832         	3.575
MS.397         	11.81          	3.662
MS.398         	11.785         	3.515
MS.399         	11.762         	3.41
MS.400         	11.738         	3.706
MS.401         	11.715         	3.466
MS.402         	11.693         	3.44
MS.403         	11.667         	3.186
MS.404         	11.645         	3.184
MS.405         	11.622         	3.259
MS.406         	11.597         	3.196
MS.407         	11.575         	2.937
MS.408         	11.552         	3.158
MS.409         	11.53          	3.196
MS.410         	11.505         	2.711
MS.411         	11.483         	2.767
MS.412         	11.46          	2.961
MS.413         	11.438         	3.261
MS.414         	11.415         	2.927
MS.415         	11.392         	2.459
MS.416         	11.37          	3.029
MS.417         	11.345         	3.297
MS.418         	11.322         	3.148
MS.419         	11.3           	2.935
MS.420         	11.278         	2.443
MS.421         	11.255         	2.592
MS.422         	11.233         	2.417
MS.423         	11.21          	2.385
MS.424         	11.188         	2.745
MS.425         	11.165         	2.516
MS.426         	11.142         	2.576
MS.427         	11.122         	2.536
MS.428         	11.1           	2.55
MS.429         	11.077         	2.723
MS.430         	11.055         	2.355
MS.431         	11.032         	2.087
MS.432         	11.01          	2.127
MS.433         	10.988         	2.069
MS.434         	10.967         	2.244
MS.435         	10.945         	1.795
MS.436         	10.922         	2.171
MS.437         	10.9           	1.64
MS.438         	10.88          	1.919
MS.439         	10.858         	1.462
MS.440         	10.835         	1.392
MS.441         	10.815         	1.847
MS.442         	10.792         	1.499
MS.443         	10.77          	1.696
MS.444         	10.75          	1.581
MS.445         	10.727         	1.589
MS.446         	10.707         	1.501
MS.447         	10.685         	1.329
MS.448         	10.665         	1.217
MS.449         	10.642         	1.142
MS.450         	10.622         	1.394
MS.451         	10.6           	1.434
MS.452         	10.58          	1.142
MS.453         	10.557         	0.916
MS.454         	10.537         	1.229
MS.455         	10.515         	1.219
MS.456         	10.495         	1.164
MS.457         	10.472         	1.12
MS.458         	10.452         	1.162
MS.459         	10.432         	1.14
MS.460         	10.41          	0.933
MS.461         	10.39          	0.937
MS.462         	10.37          	0.975
MS.463         	10.35          	1.063
MS.464         	10.327         	1.013
MS.465         	10.307         	0.929
MS.466         	10.287         	0.916
MS.467         	10.267         	0.864
MS.468         	10.245         	0.844
MS.469         	10.225         	0.872
MS.470         	10.205         	0.8
MS.471         	10.185         	0.951
MS.472         	10.165         	0.784
MS.473         	10.145         	0.747
MS.474         	10.122         	0.775
MS.475         	10.102         	0.798
MS.476         	10.082         	0.794
MS.477         	10.062         	0.83
MS.478         	10.042         	0.622
MS.479         	10.023         	0.663
MS.480         	10.002         	0.735
MS.481         	9.983          	0.681
MS.482         	9.962          	0.653
MS.483         	9.943          	0.566
MS.484         	9.922          	0.606
MS.485         	9.903          	0.679
MS.486         	9.882          	0.632
MS.487         	9.865          	0.582
MS.488         	9.845          	0.594
MS.489         	9.825          	0.574
MS.490         	9.805          	0.526
MS.491         	9.785          	0.526
MS.492         	9.765          	0.548
MS.493         	9.745          	0.536
MS.494         	9.727          	0.57
MS.495         	9.707          	0.626
MS.496         	9.688          	0.489
MS.497         	9.667          	0.576
MS.498         	9.65           	0.506
MS.499         	9.63           	0.469
MS.500         	9.61           	0.459
MS.501         	9.592          	0.506
