File:              	C:\Qtrac\Data\Daniel M Sørensen\MScan multicentre study\Data from centres\Toronto\Processed data\MSCC01202C.QZD
Name:              	CA.TOR.NC.7.1
Protocol:          	MSCAN-R2
Date:              	2/12/20
Start time:        	11:22:04
Age:               	43
Sex:               	F
Temperature:       	31.5
S/R sites:         	TA
NC/disease:        	NC
Operator:          	LP
Comments:          	MFF60ON
M-SCAN DATA (6.6-1.4m)
Scanpts: 12, 20, 549, 570
Stim. (mA)     	Amp. (mV)
MS.1           	21             	7.375
MS.2           	21             	7.435
MS.3           	21             	7.438
MS.4           	21             	7.417
MS.5           	21             	7.374
MS.6           	21             	7.334
MS.7           	21             	7.323
MS.8           	21             	7.35
MS.9           	21             	7.367
MS.10          	21             	7.305
MS.11          	21             	7.341
MS.12          	21             	7.345
MS.13          	21             	7.357
MS.14          	21             	7.322
MS.15          	21             	7.327
MS.16          	21             	7.371
MS.17          	21             	7.299
MS.18          	21             	7.323
MS.19          	21             	7.34
MS.20          	21             	7.366
MS.21          	21             	7.339
MS.22          	21             	7.338
MS.23          	21             	7.373
MS.24          	20.915         	7.396
MS.25          	20.875         	7.371
MS.26          	20.833         	7.336
MS.27          	20.79          	7.346
MS.28          	20.75          	7.369
MS.29          	20.708         	7.437
MS.30          	20.667         	7.354
MS.31          	20.625         	7.344
MS.32          	20.585         	7.347
MS.33          	20.542         	7.327
MS.34          	20.502         	7.297
MS.35          	20.46          	7.34
MS.36          	20.42          	7.322
MS.37          	20.38          	7.402
MS.38          	20.337         	7.3
MS.39          	20.297         	7.385
MS.40          	20.257         	7.343
MS.41          	20.217         	7.267
MS.42          	20.177         	7.3
MS.43          	20.135         	7.323
MS.44          	20.095         	7.33
MS.45          	20.055         	7.284
MS.46          	20.015         	7.313
MS.47          	19.975         	7.288
MS.48          	19.935         	7.258
MS.49          	19.895         	7.277
MS.50          	19.855         	7.314
MS.51          	19.817         	7.291
MS.52          	19.778         	7.231
MS.53          	19.737         	7.302
MS.54          	19.698         	7.296
MS.55          	19.657         	7.394
MS.56          	19.62          	7.257
MS.57          	19.58          	7.329
MS.58          	19.54          	7.207
MS.59          	19.502         	7.214
MS.60          	19.462         	7.306
MS.61          	19.425         	7.219
MS.62          	19.385         	7.172
MS.63          	19.347         	7.26
MS.64          	19.307         	7.235
MS.65          	19.27          	7.258
MS.66          	19.23          	7.178
MS.67          	19.192         	7.183
MS.68          	19.155         	7.216
MS.69          	19.115         	7.211
MS.70          	19.077         	7.185
MS.71          	19.04          	7.206
MS.72          	19.002         	7.247
MS.73          	18.962         	7.216
MS.74          	18.925         	7.189
MS.75          	18.887         	7.227
MS.76          	18.85          	7.181
MS.77          	18.812         	7.175
MS.78          	18.775         	7.196
MS.79          	18.737         	7.212
MS.80          	18.7           	7.163
MS.81          	18.663         	7.108
MS.82          	18.625         	7.189
MS.83          	18.587         	7.258
MS.84          	18.55          	7.177
MS.85          	18.515         	7.184
MS.86          	18.477         	7.195
MS.87          	18.44          	7.122
MS.88          	18.403         	7.098
MS.89          	18.368         	7.183
MS.90          	18.33          	7.195
MS.91          	18.292         	7.065
MS.92          	18.257         	7.178
MS.93          	18.22          	7.253
MS.94          	18.182         	7.172
MS.95          	18.147         	7.073
MS.96          	18.11          	7.173
MS.97          	18.075         	7.084
MS.98          	18.038         	7.22
MS.99          	18.003         	7.167
MS.100         	17.967         	7.075
MS.101         	17.93          	7.189
MS.102         	17.895         	7.085
MS.103         	17.86          	7.177
MS.104         	17.823         	7.151
MS.105         	17.788         	7.032
MS.106         	17.753         	6.981
MS.107         	17.717         	7.163
MS.108         	17.682         	6.987
MS.109         	17.645         	7.021
MS.110         	17.61          	6.929
MS.111         	17.575         	7.018
MS.112         	17.54          	7.047
MS.113         	17.505         	7.015
MS.114         	17.47          	7.059
MS.115         	17.435         	7.012
MS.116         	17.4           	6.935
MS.117         	17.365         	6.942
MS.118         	17.333         	6.88
MS.119         	17.297         	6.948
MS.120         	17.262         	6.957
MS.121         	17.227         	6.849
MS.122         	17.192         	6.971
MS.123         	17.16          	6.919
MS.124         	17.125         	6.909
MS.125         	17.09          	6.92
MS.126         	17.057         	6.869
MS.127         	17.022         	6.935
MS.128         	16.987         	6.89
MS.129         	16.955         	6.801
MS.130         	16.92          	6.792
MS.131         	16.887         	6.921
MS.132         	16.852         	6.844
MS.133         	16.82          	6.884
MS.134         	16.785         	6.743
MS.135         	16.753         	6.821
MS.136         	16.717         	6.854
MS.137         	16.685         	6.814
MS.138         	16.653         	6.532
MS.139         	16.618         	6.581
MS.140         	16.585         	6.783
MS.141         	16.552         	6.653
MS.142         	16.52          	6.677
MS.143         	16.485         	6.705
MS.144         	16.452         	6.578
MS.145         	16.42          	6.569
MS.146         	16.387         	6.575
MS.147         	16.355         	6.453
MS.148         	16.323         	6.598
MS.149         	16.29          	6.501
MS.150         	16.257         	6.608
MS.151         	16.225         	6.647
MS.152         	16.192         	6.472
MS.153         	16.16          	6.489
MS.154         	16.128         	6.467
MS.155         	16.095         	6.47
MS.156         	16.062         	6.364
MS.157         	16.03          	6.31
MS.158         	16             	6.372
MS.159         	15.967         	6.296
MS.160         	15.935         	6.16
MS.161         	15.902         	6.362
MS.162         	15.872         	6.276
MS.163         	15.84          	6.206
MS.164         	15.807         	6.14
MS.165         	15.777         	6.171
MS.166         	15.745         	6.187
MS.167         	15.712         	6.161
MS.168         	15.682         	6.14
MS.169         	15.65          	6.167
MS.170         	15.62          	6.228
MS.171         	15.587         	6.105
MS.172         	15.557         	6.085
MS.173         	15.525         	5.947
MS.174         	15.495         	6.3
MS.175         	15.465         	6.099
MS.176         	15.432         	6.063
MS.177         	15.402         	5.906
MS.178         	15.372         	6.093
MS.179         	15.34          	5.864
MS.180         	15.31          	6.012
MS.181         	15.28          	5.861
MS.182         	15.25          	5.883
MS.183         	15.217         	5.968
MS.184         	15.188         	5.771
MS.185         	15.157         	5.829
MS.186         	15.127         	5.835
MS.187         	15.097         	5.74
MS.188         	15.068         	5.885
MS.189         	15.037         	5.625
MS.190         	15.007         	5.544
MS.191         	14.977         	5.642
MS.192         	14.947         	5.568
MS.193         	14.917         	5.636
MS.194         	14.887         	5.594
MS.195         	14.858         	5.598
MS.196         	14.827         	5.518
MS.197         	14.797         	5.604
MS.198         	14.77          	5.437
MS.199         	14.74          	5.419
MS.200         	14.71          	5.314
MS.201         	14.68          	5.519
MS.202         	14.65          	5.382
MS.203         	14.622         	5.216
MS.204         	14.592         	5.283
MS.205         	14.562         	5.377
MS.206         	14.535         	5.264
MS.207         	14.505         	5.267
MS.208         	14.477         	5.243
MS.209         	14.447         	5.106
MS.210         	14.417         	5.219
MS.211         	14.39          	5.156
MS.212         	14.36          	5.062
MS.213         	14.332         	5.083
MS.214         	14.302         	4.996
MS.215         	14.275         	5.027
MS.216         	14.247         	4.998
MS.217         	14.217         	4.923
MS.218         	14.19          	4.863
MS.219         	14.162         	4.937
MS.220         	14.132         	4.919
MS.221         	14.105         	4.862
MS.222         	14.077         	4.877
MS.223         	14.047         	4.926
MS.224         	14.02          	4.775
MS.225         	13.992         	4.84
MS.226         	13.965         	4.652
MS.227         	13.938         	4.645
MS.228         	13.91          	4.74
MS.229         	13.88          	4.713
MS.230         	13.852         	4.651
MS.231         	13.825         	4.622
MS.232         	13.797         	4.652
MS.233         	13.77          	4.623
MS.234         	13.742         	4.585
MS.235         	13.715         	4.456
MS.236         	13.688         	4.567
MS.237         	13.66          	4.464
MS.238         	13.632         	4.487
MS.239         	13.605         	4.396
MS.240         	13.58          	4.319
MS.241         	13.552         	4.373
MS.242         	13.525         	4.358
MS.243         	13.497         	4.13
MS.244         	13.47          	4.279
MS.245         	13.445         	4.229
MS.246         	13.417         	4.348
MS.247         	13.39          	4.2
MS.248         	13.362         	4.15
MS.249         	13.337         	4.13
MS.250         	13.31          	4.126
MS.251         	13.282         	3.976
MS.252         	13.257         	3.89
MS.253         	13.23          	4.077
MS.254         	13.205         	4
MS.255         	13.177         	3.864
MS.256         	13.153         	3.816
MS.257         	13.125         	3.823
MS.258         	13.1           	3.838
MS.259         	13.072         	3.789
MS.260         	13.047         	3.873
MS.261         	13.02          	3.776
MS.262         	12.995         	3.848
MS.263         	12.967         	3.708
MS.264         	12.943         	3.649
MS.265         	12.917         	3.639
MS.266         	12.89          	3.691
MS.267         	12.865         	3.627
MS.268         	12.84          	3.53
MS.269         	12.812         	3.457
MS.270         	12.787         	3.632
MS.271         	12.762         	3.606
MS.272         	12.738         	3.473
MS.273         	12.712         	3.395
MS.274         	12.685         	3.406
MS.275         	12.66          	3.348
MS.276         	12.635         	3.344
MS.277         	12.61          	3.269
MS.278         	12.585         	3.275
MS.279         	12.56          	3.274
MS.280         	12.535         	3.297
MS.281         	12.51          	3.17
MS.282         	12.485         	3.202
MS.283         	12.46          	3.187
MS.284         	12.435         	3.191
MS.285         	12.41          	3.186
MS.286         	12.385         	3.033
MS.287         	12.36          	3.043
MS.288         	12.335         	3.049
MS.289         	12.312         	2.944
MS.290         	12.287         	3.153
MS.291         	12.262         	2.869
MS.292         	12.238         	2.941
MS.293         	12.212         	2.917
MS.294         	12.19          	2.842
MS.295         	12.165         	2.909
MS.296         	12.14          	2.755
MS.297         	12.115         	2.827
MS.298         	12.092         	2.717
MS.299         	12.068         	2.778
MS.300         	12.042         	2.683
MS.301         	12.02          	2.817
MS.302         	11.995         	2.742
MS.303         	11.972         	2.649
MS.304         	11.947         	2.524
MS.305         	11.922         	2.592
MS.306         	11.9           	2.621
MS.307         	11.875         	2.527
MS.308         	11.852         	2.545
MS.309         	11.827         	2.457
MS.310         	11.805         	2.474
MS.311         	11.782         	2.382
MS.312         	11.757         	2.472
MS.313         	11.735         	2.422
MS.314         	11.71          	2.366
MS.315         	11.688         	2.234
MS.316         	11.665         	2.369
MS.317         	11.64          	2.255
MS.318         	11.617         	2.31
MS.319         	11.595         	2.191
MS.320         	11.57          	2.213
MS.321         	11.547         	2.158
MS.322         	11.525         	2.2
MS.323         	11.502         	2.108
MS.324         	11.48          	2.125
MS.325         	11.455         	2.084
MS.326         	11.432         	2.155
MS.327         	11.41          	2.13
MS.328         	11.387         	2.135
MS.329         	11.365         	2.036
MS.330         	11.342         	1.993
MS.331         	11.32          	1.989
MS.332         	11.297         	1.942
MS.333         	11.275         	1.99
MS.334         	11.252         	1.937
MS.335         	11.23          	1.875
MS.336         	11.207         	1.885
MS.337         	11.185         	1.86
MS.338         	11.162         	1.936
MS.339         	11.14          	1.813
MS.340         	11.117         	1.782
MS.341         	11.095         	1.718
MS.342         	11.073         	1.835
MS.343         	11.05          	1.818
MS.344         	11.03          	1.667
MS.345         	11.007         	1.663
MS.346         	10.985         	1.56
MS.347         	10.962         	1.597
MS.348         	10.94          	1.591
MS.349         	10.92          	1.577
MS.350         	10.898         	1.678
MS.351         	10.875         	1.646
MS.352         	10.855         	1.639
MS.353         	10.832         	1.659
MS.354         	10.81          	1.597
MS.355         	10.79          	1.425
MS.356         	10.767         	1.506
MS.357         	10.745         	1.433
MS.358         	10.725         	1.449
MS.359         	10.702         	1.522
MS.360         	10.682         	1.464
MS.361         	10.66          	1.434
MS.362         	10.64          	1.5
MS.363         	10.617         	1.416
MS.364         	10.597         	1.353
MS.365         	10.575         	1.366
MS.366         	10.555         	1.339
MS.367         	10.532         	1.371
MS.368         	10.512         	1.343
MS.369         	10.49          	1.339
MS.370         	10.47          	1.266
MS.371         	10.45          	1.268
MS.372         	10.427         	1.228
MS.373         	10.407         	1.218
MS.374         	10.387         	1.21
MS.375         	10.365         	1.208
MS.376         	10.345         	1.152
MS.377         	10.325         	1.163
MS.378         	10.305         	1.105
MS.379         	10.282         	1.136
MS.380         	10.262         	1.111
MS.381         	10.242         	1.161
MS.382         	10.222         	1.019
MS.383         	10.202         	1.029
MS.384         	10.18          	0.994
MS.385         	10.16          	0.996
MS.386         	10.14          	0.916
MS.387         	10.12          	1.033
MS.388         	10.1           	0.975
MS.389         	10.08          	0.964
MS.390         	10.06          	0.856
MS.391         	10.04          	0.846
MS.392         	10.02          	0.856
MS.393         	10             	0.817
MS.394         	9.98           	0.791
MS.395         	9.96           	0.706
MS.396         	9.94           	0.74
MS.397         	9.92           	0.698
MS.398         	9.9            	0.697
MS.399         	9.88           	0.653
MS.400         	9.86           	0.686
MS.401         	9.84           	0.651
MS.402         	9.82           	0.656
MS.403         	9.802          	0.646
MS.404         	9.782          	0.684
MS.405         	9.762          	0.646
MS.406         	9.742          	0.621
MS.407         	9.722          	0.576
MS.408         	9.705          	0.597
MS.409         	9.685          	0.522
MS.410         	9.665          	0.559
MS.411         	9.645          	0.542
MS.412         	9.627          	0.533
MS.413         	9.608          	0.54
MS.414         	9.587          	0.494
MS.415         	9.57           	0.481
MS.416         	9.55           	0.526
MS.417         	9.53           	0.442
MS.418         	9.512          	0.47
MS.419         	9.492          	0.516
MS.420         	9.472          	0.455
MS.421         	9.455          	0.453
MS.422         	9.435          	0.471
MS.423         	9.417          	0.421
MS.424         	9.398          	0.404
MS.425         	9.38           	0.431
MS.426         	9.36           	0.319
MS.427         	9.342          	0.328
MS.428         	9.323          	0.364
MS.429         	9.305          	0.337
MS.430         	9.285          	0.347
MS.431         	9.267          	0.31
MS.432         	9.25           	0.281
MS.433         	9.23           	0.305
MS.434         	9.212          	0.344
MS.435         	9.193          	0.354
MS.436         	9.175          	0.326
MS.437         	9.158          	0.275
MS.438         	9.137          	0.277
MS.439         	9.12           	0.24
MS.440         	9.102          	0.269
MS.441         	9.085          	0.295
MS.442         	9.065          	0.269
MS.443         	9.047          	0.222
MS.444         	9.03           	0.265
MS.445         	9.012          	0.249
MS.446         	8.992          	0.181
MS.447         	8.975          	0.231
MS.448         	8.957          	0.211
MS.449         	8.94           	0.22
MS.450         	8.922          	0.208
MS.451         	8.905          	0.164
MS.452         	8.887          	0.146
MS.453         	8.867          	0.189
MS.454         	8.85           	0.194
MS.455         	8.832          	0.182
MS.456         	8.815          	0.144
MS.457         	8.797          	0.177
MS.458         	8.78           	0.142
MS.459         	8.762          	0.157
MS.460         	8.745          	0.144
MS.461         	8.727          	0.173
MS.462         	8.71           	0.154
MS.463         	8.693          	0.145
MS.464         	8.675          	0.155
MS.465         	8.658          	0.133
MS.466         	8.64           	0.165
MS.467         	8.622          	0.114
MS.468         	8.608          	0.072
MS.469         	8.59           	0.128
MS.470         	8.573          	0.074
MS.471         	8.555          	0.088
MS.472         	8.537          	0.094
MS.473         	8.52           	0.078
MS.474         	8.505          	0.07
MS.475         	8.488          	0.095
MS.476         	8.47           	0.057
MS.477         	8.452          	0.05
MS.478         	8.435          	0.06
MS.479         	8.42           	0.076
MS.480         	8.403          	0.059
MS.481         	8.385          	0.05
MS.482         	8.37           	0.037
MS.483         	8.352          	0.1
MS.484         	8.335          	0.055
MS.485         	8.32           	0.049
MS.486         	8.302          	0.033
MS.487         	8.285          	0.032
MS.488         	8.27           	0.04
MS.489         	8.252          	0.021
MS.490         	8.235          	0.035
MS.491         	8.22           	0.027
MS.492         	8.202          	0.029
MS.493         	8.188          	0.043
MS.494         	8.17           	0.043
MS.495         	8.155          	0.056
MS.496         	8.137          	0.023
MS.497         	8.122          	0.009
MS.498         	8.105          	0.027
MS.499         	8.09           	0.04
MS.500         	8.073          	0.017
MS.501         	8.057          	0.033
