File:              	C:\Qtrac\Data\Daniel M Sørensen\MScan multicentre study\Data from centres\Toronto\Processed data\MSCC01110C.QZD
Name:              	CA.TOR.NC.2.1
Protocol:          	MSCAN-R2
Date:              	10/11/20
Start time:        	11:15:20
Age:               	25
Sex:               	F
Temperature:       	29.4
S/R sites:         	ADM
NC/disease:        	NC
Operator:          	LP
Comments:          	too cool
M-SCAN DATA (7.6-2m)
Scanpts: 21, 28, 585, 607
Stim. (mA)     	Amp. (mV)
MS.1           	33             	8.036
MS.2           	33             	8.041
MS.3           	33             	7.976
MS.4           	33             	7.956
MS.5           	33             	7.964
MS.6           	33             	7.99
MS.7           	33             	7.992
MS.8           	33             	7.948
MS.9           	33             	7.98
MS.10          	33             	7.875
MS.11          	33             	7.809
MS.12          	33             	7.908
MS.13          	33             	7.934
MS.14          	33             	7.873
MS.15          	33             	7.742
MS.16          	33             	7.801
MS.17          	33             	7.746
MS.18          	33             	7.759
MS.19          	33             	7.755
MS.20          	33             	7.73
MS.21          	33             	7.742
MS.22          	33             	7.761
MS.23          	33             	7.73
MS.24          	32.868         	7.777
MS.25          	32.802         	7.781
MS.26          	32.737         	7.674
MS.27          	32.673         	7.744
MS.28          	32.605         	7.734
MS.29          	32.54          	7.724
MS.30          	32.475         	7.742
MS.31          	32.41          	7.686
MS.32          	32.347         	7.759
MS.33          	32.282         	7.646
MS.34          	32.217         	7.489
MS.35          	32.153         	7.656
MS.36          	32.087         	7.65
MS.37          	32.025         	7.614
MS.38          	31.96          	7.682
MS.39          	31.897         	7.632
MS.40          	31.832         	7.609
MS.41          	31.77          	7.595
MS.42          	31.705         	7.571
MS.43          	31.642         	7.563
MS.44          	31.58          	7.563
MS.45          	31.517         	7.569
MS.46          	31.452         	7.35
MS.47          	31.39          	7.354
MS.48          	31.327         	7.358
MS.49          	31.265         	7.422
MS.50          	31.202         	7.352
MS.51          	31.14          	7.213
MS.52          	31.077         	7.285
MS.53          	31.015         	7.233
MS.54          	30.955         	7.384
MS.55          	30.892         	7.34
MS.56          	30.83          	7.229
MS.57          	30.77          	7.255
MS.58          	30.707         	7.464
MS.59          	30.645         	7.293
MS.60          	30.585         	7.253
MS.61          	30.522         	7.162
MS.62          	30.462         	7.283
MS.63          	30.403         	7.315
MS.64          	30.34          	7.448
MS.65          	30.28          	7.1
MS.66          	30.22          	7.191
MS.67          	30.16          	7.362
MS.68          	30.1           	7.398
MS.69          	30.04          	7.239
MS.70          	29.98          	7.025
MS.71          	29.92          	7.017
MS.72          	29.86          	7.05
MS.73          	29.8           	6.735
MS.74          	29.74          	6.923
MS.75          	29.68          	6.876
MS.76          	29.622         	6.536
MS.77          	29.562         	6.679
MS.78          	29.502         	6.741
MS.79          	29.445         	6.735
MS.80          	29.385         	6.627
MS.81          	29.327         	6.711
MS.82          	29.267         	6.564
MS.83          	29.21          	6.623
MS.84          	29.153         	6.556
MS.85          	29.092         	6.556
MS.86          	29.035         	6.701
MS.87          	28.977         	6.48
MS.88          	28.92          	6.651
MS.89          	28.862         	6.711
MS.90          	28.802         	6.465
MS.91          	28.745         	6.441
MS.92          	28.688         	6.439
MS.93          	28.632         	6.467
MS.94          	28.575         	6.365
MS.95          	28.517         	6.56
MS.96          	28.46          	6.29
MS.97          	28.403         	6.117
MS.98          	28.347         	6.25
MS.99          	28.29          	6.222
MS.100         	28.233         	6.185
MS.101         	28.177         	6.256
MS.102         	28.12          	6.155
MS.103         	28.065         	6.105
MS.104         	28.007         	6.169
MS.105         	27.952         	6.167
MS.106         	27.897         	5.934
MS.107         	27.84          	5.859
MS.108         	27.785         	5.883
MS.109         	27.73          	5.807
MS.110         	27.675         	5.984
MS.111         	27.62          	5.821
MS.112         	27.565         	5.837
MS.113         	27.507         	5.797
MS.114         	27.455         	5.571
MS.115         	27.4           	5.75
MS.116         	27.345         	5.869
MS.117         	27.29          	5.603
MS.118         	27.235         	5.601
MS.119         	27.18          	5.636
MS.120         	27.127         	5.573
MS.121         	27.073         	5.676
MS.122         	27.017         	5.593
MS.123         	26.965         	5.543
MS.124         	26.91          	5.583
MS.125         	26.858         	5.632
MS.126         	26.802         	5.493
MS.127         	26.75          	5.362
MS.128         	26.695         	5.458
MS.129         	26.642         	5.205
MS.130         	26.59          	5.368
MS.131         	26.535         	5.491
MS.132         	26.483         	5.148
MS.133         	26.43          	5.253
MS.134         	26.377         	5.148
MS.135         	26.325         	5.297
MS.136         	26.272         	5.372
MS.137         	26.22          	4.937
MS.138         	26.167         	4.951
MS.139         	26.115         	5.025
MS.140         	26.062         	4.892
MS.141         	26.01          	5.154
MS.142         	25.957         	4.856
MS.143         	25.907         	4.929
MS.144         	25.855         	4.997
MS.145         	25.802         	4.83
MS.146         	25.752         	4.894
MS.147         	25.7           	4.947
MS.148         	25.65          	4.641
MS.149         	25.597         	4.669
MS.150         	25.547         	4.814
MS.151         	25.495         	4.564
MS.152         	25.445         	4.552
MS.153         	25.395         	4.433
MS.154         	25.342         	4.296
MS.155         	25.292         	4.326
MS.156         	25.243         	4.445
MS.157         	25.192         	4.355
MS.158         	25.14          	4.246
MS.159         	25.09          	4.022
MS.160         	25.04          	4.111
MS.161         	24.99          	3.932
MS.162         	24.94          	4.026
MS.163         	24.89          	4.075
MS.164         	24.84          	3.881
MS.165         	24.792         	3.881
MS.166         	24.743         	4.004
MS.167         	24.692         	4.018
MS.168         	24.642         	4.125
MS.169         	24.595         	4.052
MS.170         	24.545         	3.724
MS.171         	24.495         	3.958
MS.172         	24.448         	3.809
MS.173         	24.397         	3.851
MS.174         	24.35          	3.905
MS.175         	24.3           	3.918
MS.176         	24.252         	3.533
MS.177         	24.202         	3.509
MS.178         	24.155         	3.648
MS.179         	24.108         	3.43
MS.180         	24.06          	3.188
MS.181         	24.01          	3.565
MS.182         	23.962         	3.257
MS.183         	23.915         	3.094
MS.184         	23.868         	3.462
MS.185         	23.82          	3.064
MS.186         	23.772         	3.045
MS.187         	23.725         	3.265
MS.188         	23.677         	3.172
MS.189         	23.63          	3.132
MS.190         	23.582         	3.102
MS.191         	23.535         	2.842
MS.192         	23.487         	2.882
MS.193         	23.442         	3.112
MS.194         	23.395         	2.919
MS.195         	23.347         	2.679
MS.196         	23.3           	2.665
MS.197         	23.255         	2.955
MS.198         	23.207         	2.195
MS.199         	23.163         	2.29
MS.200         	23.115         	2.324
MS.201         	23.07          	2.175
MS.202         	23.022         	2.262
MS.203         	22.977         	2.272
MS.204         	22.932         	2.234
MS.205         	22.885         	1.994
MS.206         	22.84          	2.232
MS.207         	22.795         	2.008
MS.208         	22.747         	1.873
MS.209         	22.702         	2.145
MS.210         	22.657         	1.843
MS.211         	22.612         	1.551
MS.212         	22.567         	1.903
MS.213         	22.522         	1.752
MS.214         	22.477         	1.607
MS.215         	22.432         	1.533
MS.216         	22.387         	1.579
MS.217         	22.342         	1.565
MS.218         	22.297         	1.273
MS.219         	22.252         	1.501
MS.220         	22.21          	1.511
MS.221         	22.165         	1.418
MS.222         	22.12          	1.42
MS.223         	22.077         	1.341
MS.224         	22.032         	1.136
MS.225         	21.987         	1.509
MS.226         	21.945         	1.39
MS.227         	21.9           	1.321
MS.228         	21.858         	1.108
MS.229         	21.812         	1.148
MS.230         	21.77          	1.033
MS.231         	21.725         	0.854
MS.232         	21.682         	1.305
MS.233         	21.64          	1.065
MS.234         	21.595         	0.848
MS.235         	21.552         	1.08
MS.236         	21.51          	1.023
MS.237         	21.467         	0.931
MS.238         	21.425         	0.914
MS.239         	21.38          	0.828
MS.240         	21.337         	0.771
MS.241         	21.295         	0.838
MS.242         	21.252         	0.834
MS.243         	21.21          	0.751
MS.244         	21.167         	0.598
MS.245         	21.125         	0.669
MS.246         	21.085         	0.737
MS.247         	21.042         	0.681
MS.248         	21             	0.719
MS.249         	20.958         	0.683
MS.250         	20.915         	0.725
MS.251         	20.875         	0.647
MS.252         	20.833         	0.59
MS.253         	20.79          	0.592
MS.254         	20.75          	0.556
MS.255         	20.708         	0.641
MS.256         	20.667         	0.504
MS.257         	20.625         	0.634
MS.258         	20.585         	0.522
MS.259         	20.542         	0.52
MS.260         	20.502         	0.526
MS.261         	20.46          	0.6
MS.262         	20.42          	0.441
MS.263         	20.38          	0.518
MS.264         	20.337         	0.54
MS.265         	20.297         	0.534
MS.266         	20.257         	0.502
MS.267         	20.217         	0.497
MS.268         	20.175         	0.431
MS.269         	20.135         	0.455
MS.270         	20.095         	0.487
MS.271         	20.055         	0.502
MS.272         	20.015         	0.357
MS.273         	19.975         	0.451
MS.274         	19.935         	0.409
MS.275         	19.895         	0.407
MS.276         	19.855         	0.455
MS.277         	19.817         	0.324
MS.278         	19.778         	0.375
MS.279         	19.737         	0.429
MS.280         	19.698         	0.417
MS.281         	19.657         	0.377
MS.282         	19.62          	0.354
MS.283         	19.58          	0.381
MS.284         	19.54          	0.369
MS.285         	19.502         	0.397
MS.286         	19.462         	0.336
MS.287         	19.425         	0.272
MS.288         	19.385         	0.357
MS.289         	19.347         	0.387
MS.290         	19.307         	0.328
MS.291         	19.27          	0.314
MS.292         	19.23          	0.365
MS.293         	19.192         	0.361
MS.294         	19.155         	0.326
MS.295         	19.115         	0.359
MS.296         	19.077         	0.371
MS.297         	19.04          	0.334
MS.298         	19             	0.34
MS.299         	18.962         	0.318
MS.300         	18.925         	0.361
MS.301         	18.887         	0.308
MS.302         	18.85          	0.294
MS.303         	18.812         	0.322
MS.304         	18.775         	0.258
MS.305         	18.737         	0.294
MS.306         	18.7           	0.302
MS.307         	18.663         	0.238
MS.308         	18.625         	0.282
MS.309         	18.587         	0.27
MS.310         	18.55          	0.308
MS.311         	18.512         	0.262
MS.312         	18.477         	0.203
MS.313         	18.44          	0.274
MS.314         	18.403         	0.248
MS.315         	18.365         	0.224
MS.316         	18.33          	0.203
MS.317         	18.292         	0.264
MS.318         	18.255         	0.304
MS.319         	18.22          	0.266
MS.320         	18.182         	0.284
MS.321         	18.147         	0.244
MS.322         	18.11          	0.28
MS.323         	18.075         	0.218
MS.324         	18.038         	0.262
MS.325         	18.003         	0.27
MS.326         	17.967         	0.23
MS.327         	17.93          	0.24
MS.328         	17.895         	0.238
MS.329         	17.86          	0.224
MS.330         	17.823         	0.252
MS.331         	17.788         	0.189
MS.332         	17.753         	0.234
MS.333         	17.717         	0.222
MS.334         	17.68          	0.155
MS.335         	17.645         	0.22
MS.336         	17.61          	0.207
MS.337         	17.575         	0.222
MS.338         	17.54          	0.211
MS.339         	17.505         	0.187
MS.340         	17.47          	0.175
MS.341         	17.435         	0.171
MS.342         	17.4           	0.197
MS.343         	17.365         	0.155
MS.344         	17.33          	0.145
MS.345         	17.297         	0.151
MS.346         	17.262         	0.101
MS.347         	17.227         	0.133
MS.348         	17.192         	0.163
MS.349         	17.157         	0.153
MS.350         	17.125         	0.105
MS.351         	17.09          	0.109
MS.352         	17.055         	0.097
MS.353         	17.022         	0.113
MS.354         	16.987         	0.115
MS.355         	16.955         	0.099
MS.356         	16.92          	0.109
MS.357         	16.887         	0.089
MS.358         	16.852         	0.105
MS.359         	16.82          	0.103
MS.360         	16.785         	0.129
MS.361         	16.753         	0.115
MS.362         	16.717         	0.097
MS.363         	16.685         	0.107
MS.364         	16.653         	0.097
MS.365         	16.618         	0.087
MS.366         	16.585         	0.105
MS.367         	16.552         	0.087
MS.368         	16.52          	0.077
MS.369         	16.485         	0.073
MS.370         	16.452         	0.075
MS.371         	16.42          	0.062
MS.372         	16.387         	0.083
MS.373         	16.355         	0.07
MS.374         	16.323         	0.089
MS.375         	16.29          	0.066
MS.376         	16.257         	0.093
MS.377         	16.225         	0.073
MS.378         	16.192         	0.091
MS.379         	16.16          	0.064
MS.380         	16.128         	0.054
MS.381         	16.095         	0.06
MS.382         	16.062         	0.068
MS.383         	16.03          	0.064
MS.384         	15.997         	0.06
MS.385         	15.967         	0.077
MS.386         	15.935         	0.081
MS.387         	15.902         	0.083
MS.388         	15.87          	0.07
MS.389         	15.84          	0.066
MS.390         	15.807         	0.068
MS.391         	15.775         	0.066
MS.392         	15.745         	0.068
MS.393         	15.712         	0.054
MS.394         	15.682         	0.066
MS.395         	15.65          	0.064
MS.396         	15.62          	0.066
MS.397         	15.587         	0.064
MS.398         	15.557         	0.06
MS.399         	15.525         	0.058
MS.400         	15.495         	0.064
MS.401         	15.465         	0.066
MS.402         	15.432         	0.066
MS.403         	15.402         	0.064
MS.404         	15.372         	0.06
MS.405         	15.34          	0.07
MS.406         	15.31          	0.068
MS.407         	15.28          	0.058
MS.408         	15.25          	0.068
MS.409         	15.217         	0.05
MS.410         	15.188         	0.046
MS.411         	15.157         	0.075
MS.412         	15.127         	0.044
MS.413         	15.097         	0.068
MS.414         	15.068         	0.054
MS.415         	15.037         	0.056
MS.416         	15.007         	0.044
MS.417         	14.977         	0.054
MS.418         	14.947         	0.05
MS.419         	14.917         	0.066
MS.420         	14.887         	0.048
MS.421         	14.858         	0.058
MS.422         	14.827         	0.06
MS.423         	14.797         	0.048
MS.424         	14.767         	0.056
MS.425         	14.74          	0.044
MS.426         	14.71          	0.06
MS.427         	14.68          	0.054
MS.428         	14.65          	0.06
MS.429         	14.622         	0.038
MS.430         	14.592         	0.05
MS.431         	14.562         	0.046
MS.432         	14.535         	0.062
MS.433         	14.505         	0.046
MS.434         	14.475         	0.054
MS.435         	14.447         	0.058
MS.436         	14.417         	0.056
MS.437         	14.39          	0.06
MS.438         	14.36          	0.058
MS.439         	14.332         	0.048
MS.440         	14.302         	0.06
MS.441         	14.275         	0.052
MS.442         	14.247         	0.06
MS.443         	14.217         	0.058
MS.444         	14.19          	0.062
MS.445         	14.16          	0.05
MS.446         	14.132         	0.056
MS.447         	14.105         	0.052
MS.448         	14.077         	0.058
MS.449         	14.047         	0.052
MS.450         	14.02          	0.05
MS.451         	13.992         	0.054
MS.452         	13.965         	0.052
MS.453         	13.938         	0.048
MS.454         	13.907         	0.054
MS.455         	13.88          	0.056
MS.456         	13.852         	0.052
MS.457         	13.825         	0.058
MS.458         	13.797         	0.05
MS.459         	13.77          	0.062
MS.460         	13.742         	0.054
MS.461         	13.715         	0.058
MS.462         	13.688         	0.058
MS.463         	13.66          	0.048
MS.464         	13.632         	0.064
MS.465         	13.605         	0.046
MS.466         	13.577         	0.048
MS.467         	13.552         	0.058
MS.468         	13.525         	0.048
MS.469         	13.497         	0.04
MS.470         	13.47          	0.048
MS.471         	13.443         	0.046
MS.472         	13.417         	0.05
MS.473         	13.39          	0.044
MS.474         	13.362         	0.048
MS.475         	13.337         	0.05
MS.476         	13.31          	0.05
MS.477         	13.282         	0.052
MS.478         	13.257         	0.056
MS.479         	13.23          	0.052
MS.480         	13.205         	0.06
MS.481         	13.177         	0.05
MS.482         	13.15          	0.054
MS.483         	13.125         	0.046
MS.484         	13.097         	0.058
MS.485         	13.072         	0.052
MS.486         	13.047         	0.062
MS.487         	13.02          	0.05
MS.488         	12.995         	0.048
MS.489         	12.967         	-0.008
MS.490         	12.943         	0.054
MS.491         	12.917         	0.064
MS.492         	12.89          	0.05
MS.493         	12.865         	0.052
MS.494         	12.84          	0.046
MS.495         	12.812         	0.05
MS.496         	12.787         	-0.006
MS.497         	12.762         	0.048
MS.498         	12.738         	-0.004
MS.499         	12.712         	-0.006
MS.500         	12.685         	0.000
MS.501         	12.66          	-0.01
