File:              	C:\Qtrac\Data\Daniel M Sørensen\MScan multicentre study\Data from centres\Toronto\Processed data\MSCC01119B.QZD
Name:              	CA.TOR.NC.1.2
Protocol:          	MSCAN-R2
Date:              	19/11/20
Start time:        	11:15:26
Age:               	36
Sex:               	M
Temperature:       	33.3
S/R sites:         	ADM
NC/disease:        	NC
Operator:          	LP
Comments:
M-SCAN DATA (Repeat 3/3, 12-7.8m)
Scanpts: 2, 6, 407, 413
Stim. (mA)     	Amp. (mV)
MS.1           	34.5           	11.219
MS.2           	34.5           	11.171
MS.3           	34.43          	11.265
MS.4           	34.362         	11.134
MS.5           	34.292         	11.255
MS.6           	34.225         	11.148
MS.7           	34.157         	11.237
MS.8           	34.087         	11.16
MS.9           	34.02          	11.1
MS.10          	33.952         	11.136
MS.11          	33.885         	11.203
MS.12          	33.818         	11.289
MS.13          	33.75          	11.128
MS.14          	33.682         	11.096
MS.15          	33.615         	10.963
MS.16          	33.548         	11.312
MS.17          	33.48          	11.225
MS.18          	33.412         	11.064
MS.19          	33.347         	11.169
MS.20          	33.28          	11.126
MS.21          	33.212         	11.148
MS.22          	33.147         	10.848
MS.23          	33.08          	10.989
MS.24          	33.015         	10.901
MS.25          	32.95          	10.897
MS.26          	32.882         	10.985
MS.27          	32.818         	10.826
MS.28          	32.752         	10.937
MS.29          	32.688         	10.808
MS.30          	32.62          	10.764
MS.31          	32.555         	10.889
MS.32          	32.49          	10.808
MS.33          	32.425         	10.689
MS.34          	32.36          	10.673
MS.35          	32.298         	10.653
MS.36          	32.232         	10.526
MS.37          	32.167         	10.588
MS.38          	32.103         	10.462
MS.39          	32.04          	10.568
MS.40          	31.975         	10.56
MS.41          	31.912         	10.472
MS.42          	31.847         	10.468
MS.43          	31.785         	10.613
MS.44          	31.72          	10.451
MS.45          	31.657         	10.413
MS.46          	31.592         	10.508
MS.47          	31.53          	10.478
MS.48          	31.467         	10.476
MS.49          	31.405         	10.566
MS.50          	31.342         	10.238
MS.51          	31.28          	10.403
MS.52          	31.217         	10.488
MS.53          	31.155         	10.423
MS.54          	31.092         	10.403
MS.55          	31.03          	10.504
MS.56          	30.967         	10.381
MS.57          	30.907         	10.282
MS.58          	30.845         	10.351
MS.59          	30.782         	10.353
MS.60          	30.722         	10.312
MS.61          	30.66          	10.083
MS.62          	30.597         	9.952
MS.63          	30.537         	9.898
MS.64          	30.477         	9.908
MS.65          	30.415         	9.869
MS.66          	30.355         	10.115
MS.67          	30.295         	9.775
MS.68          	30.235         	9.801
MS.69          	30.172         	9.541
MS.70          	30.112         	9.589
MS.71          	30.052         	9.599
MS.72          	29.992         	9.541
MS.73          	29.932         	9.442
MS.74          	29.872         	9.295
MS.75          	29.812         	9.14
MS.76          	29.755         	9.334
MS.77          	29.695         	9.128
MS.78          	29.635         	9.009
MS.79          	29.575         	8.973
MS.80          	29.517         	9.015
MS.81          	29.457         	9.096
MS.82          	29.4           	8.836
MS.83          	29.34          	9.152
MS.84          	29.282         	9.257
MS.85          	29.222         	8.905
MS.86          	29.165         	8.915
MS.87          	29.108         	8.878
MS.88          	29.047         	8.929
MS.89          	28.99          	8.782
MS.90          	28.932         	8.866
MS.91          	28.875         	8.762
MS.92          	28.817         	8.81
MS.93          	28.76          	8.647
MS.94          	28.702         	8.846
MS.95          	28.645         	8.852
MS.96          	28.587         	8.584
MS.97          	28.53          	8.304
MS.98          	28.472         	8.343
MS.99          	28.415         	8.357
MS.100         	28.36          	8.425
MS.101         	28.302         	8.659
MS.102         	28.245         	7.793
MS.103         	28.19          	8.54
MS.104         	28.132         	8.135
MS.105         	28.077         	7.769
MS.106         	28.02          	8.077
MS.107         	27.965         	8.049
MS.108         	27.91          	8.359
MS.109         	27.852         	8.117
MS.110         	27.797         	8.024
MS.111         	27.743         	8.518
MS.112         	27.688         	8.065
MS.113         	27.632         	7.873
MS.114         	27.577         	8.129
MS.115         	27.522         	7.529
MS.116         	27.467         	7.466
MS.117         	27.412         	7.785
MS.118         	27.358         	7.898
MS.119         	27.302         	7.831
MS.120         	27.247         	7.356
MS.121         	27.192         	7.11
MS.122         	27.137         	7.7
MS.123         	27.085         	7.336
MS.124         	27.03          	6.951
MS.125         	26.977         	7.676
MS.126         	26.922         	7.428
MS.127         	26.868         	7.73
MS.128         	26.815         	7.136
MS.129         	26.762         	7.092
MS.130         	26.707         	6.896
MS.131         	26.655         	6.838
MS.132         	26.602         	6.709
MS.133         	26.547         	6.498
MS.134         	26.495         	6.568
MS.135         	26.442         	6.534
MS.136         	26.39          	6.578
MS.137         	26.337         	6.699
MS.138         	26.285         	6.457
MS.139         	26.233         	6.528
MS.140         	26.18          	6.506
MS.141         	26.127         	6.27
MS.142         	26.075         	6.445
MS.143         	26.022         	6.044
MS.144         	25.97          	6.284
MS.145         	25.917         	6.01
MS.146         	25.868         	5.906
MS.147         	25.815         	5.63
MS.148         	25.762         	6.335
MS.149         	25.712         	5.748
MS.150         	25.66          	5.773
MS.151         	25.61          	5.744
MS.152         	25.557         	5.738
MS.153         	25.507         	5.801
MS.154         	25.455         	5.732
MS.155         	25.405         	5.585
MS.156         	25.355         	5.809
MS.157         	25.305         	5.791
MS.158         	25.252         	5.182
MS.159         	25.202         	5.535
MS.160         	25.153         	5.094
MS.161         	25.102         	5.209
MS.162         	25.052         	5.205
MS.163         	25.002         	4.8
MS.164         	24.952         	5.213
MS.165         	24.903         	5.005
MS.166         	24.852         	5.1
MS.167         	24.802         	5.158
MS.168         	24.752         	4.973
MS.169         	24.705         	4.731
MS.170         	24.655         	4.649
MS.171         	24.605         	5.193
MS.172         	24.555         	4.919
MS.173         	24.507         	4.685
MS.174         	24.457         	4.876
MS.175         	24.41          	5.025
MS.176         	24.36          	4.88
MS.177         	24.312         	4.999
MS.178         	24.262         	4.852
MS.179         	24.215         	4.439
MS.180         	24.167         	4.689
MS.181         	24.118         	4.878
MS.182         	24.07          	4.604
MS.183         	24.022         	4.637
MS.184         	23.972         	4.498
MS.185         	23.925         	4.036
MS.186         	23.877         	4.469
MS.187         	23.83          	4.185
MS.188         	23.782         	4.191
MS.189         	23.735         	3.833
MS.190         	23.688         	3.861
MS.191         	23.64          	3.827
MS.192         	23.592         	3.394
MS.193         	23.545         	3.813
MS.194         	23.5           	3.851
MS.195         	23.452         	3.565
MS.196         	23.405         	3.553
MS.197         	23.358         	3.144
MS.198         	23.312         	4.171
MS.199         	23.265         	3.74
MS.200         	23.217         	3.098
MS.201         	23.172         	3.611
MS.202         	23.125         	2.782
MS.203         	23.08          	3.219
MS.204         	23.032         	2.79
MS.205         	22.987         	2.826
MS.206         	22.942         	2.8
MS.207         	22.895         	3.092
MS.208         	22.85          	3.331
MS.209         	22.805         	2.727
MS.210         	22.76          	2.405
MS.211         	22.712         	2.584
MS.212         	22.667         	2.741
MS.213         	22.622         	2.691
MS.214         	22.577         	2.554
MS.215         	22.532         	2.641
MS.216         	22.487         	2.544
MS.217         	22.442         	2.123
MS.218         	22.397         	2.437
MS.219         	22.352         	2.334
MS.220         	22.307         	2.336
MS.221         	22.262         	2.298
MS.222         	22.22          	2.224
MS.223         	22.175         	2.234
MS.224         	22.13          	2.139
MS.225         	22.087         	2.26
MS.226         	22.042         	2.113
MS.227         	21.997         	2.095
MS.228         	21.955         	2.288
MS.229         	21.91          	2.351
MS.230         	21.868         	2.008
MS.231         	21.823         	1.962
MS.232         	21.78          	2.272
MS.233         	21.735         	2.197
MS.234         	21.692         	2.044
MS.235         	21.65          	1.968
MS.236         	21.605         	1.924
MS.237         	21.562         	2.048
MS.238         	21.52          	1.948
MS.239         	21.477         	1.97
MS.240         	21.432         	1.97
MS.241         	21.39          	1.805
MS.242         	21.347         	2.014
MS.243         	21.305         	1.829
MS.244         	21.262         	1.565
MS.245         	21.22          	1.823
MS.246         	21.177         	1.746
MS.247         	21.135         	1.799
MS.248         	21.092         	1.633
MS.249         	21.05          	1.601
MS.250         	21.01          	1.738
MS.251         	20.967         	1.613
MS.252         	20.925         	1.547
MS.253         	20.882         	1.581
MS.254         	20.842         	1.497
MS.255         	20.8           	1.462
MS.256         	20.757         	1.505
MS.257         	20.717         	1.426
MS.258         	20.675         	1.261
MS.259         	20.635         	1.325
MS.260         	20.592         	1.378
MS.261         	20.552         	1.47
MS.262         	20.51          	1.188
MS.263         	20.47          	1.208
MS.264         	20.43          	1.384
MS.265         	20.387         	1.206
MS.266         	20.347         	1.321
MS.267         	20.307         	1.134
MS.268         	20.267         	1.303
MS.269         	20.225         	1.227
MS.270         	20.185         	1.188
MS.271         	20.145         	1.033
MS.272         	20.105         	1.349
MS.273         	20.065         	1.225
MS.274         	20.025         	1.219
MS.275         	19.985         	1.11
MS.276         	19.945         	1.136
MS.277         	19.905         	1.17
MS.278         	19.865         	1.084
MS.279         	19.825         	1.029
MS.280         	19.785         	1.14
MS.281         	19.745         	0.924
MS.282         	19.708         	1.134
MS.283         	19.667         	1.11
MS.284         	19.627         	1.086
MS.285         	19.59          	1.037
MS.286         	19.55          	1.005
MS.287         	19.51          	1.053
MS.288         	19.472         	0.971
MS.289         	19.432         	1.136
MS.290         	19.395         	0.882
MS.291         	19.355         	0.951
MS.292         	19.317         	1.057
MS.293         	19.278         	0.858
MS.294         	19.24          	0.892
MS.295         	19.2           	0.779
MS.296         	19.163         	0.779
MS.297         	19.125         	0.824
MS.298         	19.085         	0.947
MS.299         	19.047         	0.82
MS.300         	19.01          	0.979
MS.301         	18.972         	0.818
MS.302         	18.935         	0.888
MS.303         	18.895         	0.773
MS.304         	18.858         	0.741
MS.305         	18.82          	0.757
MS.306         	18.782         	0.846
MS.307         	18.745         	0.667
MS.308         	18.708         	0.922
MS.309         	18.67          	0.727
MS.310         	18.632         	0.687
MS.311         	18.595         	0.826
MS.312         	18.56          	0.854
MS.313         	18.522         	0.709
MS.314         	18.485         	0.798
MS.315         	18.448         	0.614
MS.316         	18.41          	0.737
MS.317         	18.375         	0.602
MS.318         	18.337         	0.614
MS.319         	18.3           	0.701
MS.320         	18.265         	0.634
MS.321         	18.227         	0.399
MS.322         	18.192         	0.495
MS.323         	18.155         	0.786
MS.324         	18.12          	0.489
MS.325         	18.083         	0.677
MS.326         	18.047         	0.437
MS.327         	18.01          	0.439
MS.328         	17.975         	0.677
MS.329         	17.938         	0.389
MS.330         	17.903         	0.435
MS.331         	17.868         	0.391
MS.332         	17.833         	0.31
MS.333         	17.795         	0.512
MS.334         	17.76          	0.284
MS.335         	17.725         	0.338
MS.336         	17.69          	0.348
MS.337         	17.655         	0.427
MS.338         	17.618         	0.359
MS.339         	17.583         	0.361
MS.340         	17.547         	0.312
MS.341         	17.512         	0.365
MS.342         	17.477         	0.439
MS.343         	17.442         	0.302
MS.344         	17.407         	0.463
MS.345         	17.372         	0.395
MS.346         	17.34          	0.312
MS.347         	17.305         	0.214
MS.348         	17.27          	0.218
MS.349         	17.235         	0.207
MS.350         	17.2           	0.22
MS.351         	17.167         	0.209
MS.352         	17.132         	0.185
MS.353         	17.097         	0.222
MS.354         	17.065         	0.199
MS.355         	17.03          	0.129
MS.356         	16.995         	0.129
MS.357         	16.962         	0.187
MS.358         	16.927         	0.157
MS.359         	16.895         	0.314
MS.360         	16.86          	0.234
MS.361         	16.827         	0.119
MS.362         	16.792         	0.099
MS.363         	16.76          	0.137
MS.364         	16.725         	0.115
MS.365         	16.692         	0.302
MS.366         	16.66          	0.06
MS.367         	16.625         	0.171
MS.368         	16.592         	0.079
MS.369         	16.56          	0.193
MS.370         	16.528         	0.097
MS.371         	16.493         	0.103
MS.372         	16.46          	0.133
MS.373         	16.427         	0.173
MS.374         	16.395         	0.131
MS.375         	16.362         	0.143
MS.376         	16.33          	0.135
MS.377         	16.297         	0.171
MS.378         	16.265         	0.103
MS.379         	16.233         	0.157
MS.380         	16.2           	0.099
MS.381         	16.167         	0.093
MS.382         	16.135         	0.062
MS.383         	16.102         	0.064
MS.384         	16.07          	0.068
MS.385         	16.038         	0.068
MS.386         	16.005         	0.06
MS.387         	15.975         	0.064
MS.388         	15.943         	0.066
MS.389         	15.91          	0.141
MS.390         	15.877         	0.167
MS.391         	15.847         	0.07
MS.392         	15.815         	0.07
MS.393         	15.782         	0.042
MS.394         	15.752         	0.066
MS.395         	15.72          	0.07
MS.396         	15.69          	0.062
MS.397         	15.657         	0.105
MS.398         	15.627         	0.07
MS.399         	15.595         	0.07
MS.400         	15.565         	0.07
MS.401         	15.532         	0.046
MS.402         	15.502         	0.068
MS.403         	15.47          	0.062
MS.404         	15.44          	0.044
MS.405         	15.41          	0.07
MS.406         	15.377         	0.066
MS.407         	15.347         	0.068
MS.408         	15.318         	0.044
MS.409         	15.287         	0.07
MS.410         	15.255         	0.04
MS.411         	15.225         	0.038
MS.412         	15.195         	0.046
MS.413         	15.165         	0.042
MS.414         	15.135         	0.066
MS.415         	15.105         	0.07
MS.416         	15.075         	0.07
MS.417         	15.042         	0.042
MS.418         	15.012         	0.046
MS.419         	14.983         	0.042
MS.420         	14.952         	0.04
MS.421         	14.925         	0.046
MS.422         	14.895         	0.044
MS.423         	14.865         	0.046
DERIVED EXCITABILITY VARIABLES
Program = QTracP 3/4/2020
Threshold method = 6 (optimised for CAP, using data for present condition only)
SR method = 1 (using actual data values)
6.                 	0.000               	Peak response\(mV)
9.                 	33.3                	Temperature ( C)
17.                	36                  	Age (years)
18.                	1                   	Sex (M=1, F=2)

EXTRA VARIABLES

MScPeak(mV) = 11.22
MScS5(mA) = 18.1
MScS50(mA) = 25.37
MScS95(mA) = 32.31
MScNSteps = 4
MScSteps(%) = 9.5
MScStepMax(%) = 2.9
MScD50 = 48
MScSlope = 4.92
MSFPeakAmp(mV) = 11.1
MSFNUnits = 100
MSFMeanUnitAmp(uV) = 111.4
MSFHuntTime(m) = 2.36
MSFError(%) = 6.85
MSFNLarge = 25.58
MSFMedianAmp(%) = 0.853
MSFMedianAmp(mV) = 0.0951
MSFHalfAmpAmp(%) = 1.21
MSFHalfAmpAmp(mV) = 0.135
MSFLargestAmp(%) = 3.93
MSFLargestAmp(mV) = 0.438
MSFMeanRS(%) = 2
MSFOpts = 10106121
MSFTraces = 412
MSFSizeLimit(uV) = 27.9
MSFLimitType = 1
MSFSmallestAmp(uV) = 34.6

EXTRA WAVEFORMS


!MScan Model
!100
	1	16.07	0.45	2
	2	16.99	0.76	2
	3	17.33	0.93	2
	4	17.73	1.05	2
	5	18.05	1.02	2
	6	18.43	1.86	2
	7	18.99	1.33	2
	8	19.27	0.88	2
	9	19.54	0.72	2
	10	19.82	0.85	2
	11	20.28	1.17	2
	12	20.49	0.8	2
	13	20.58	0.34	2
	14	20.67	0.48	2
	15	20.76	0.39	2
	16	20.84	0.38	2
	17	20.91	0.46	2
	18	20.98	0.42	2
	19	21.05	0.44	2
	20	21.12	0.46	2
	21	21.2	0.55	2
	22	21.29	0.49	2
	23	21.42	0.72	2
	24	21.59	1.02	2
	25	21.86	1.04	2
	26	22.11	1.21	2
	27	22.3	0.85	2
	28	22.46	1.19	2
	29	22.62	1.18	2
	30	22.84	2.2	2
	31	23.07	2.47	2
	32	23.27	2.21	2
	33	23.45	2.16	2
	34	23.6	2.2	2
	35	23.66	0.74	2
	36	23.73	0.56	2
	37	23.79	0.74	2
	38	23.87	1.26	2
	39	23.96	0.96	2
	40	24.05	0.54	2
	41	24.05	0.9	2
	42	24.31	2.13	2
	43	24.84	3.2	2
	44	24.98	0.92	2
	45	25.13	1.35	2
	46	25.29	1.22	2
	47	25.44	1.67	2
	48	25.59	1.08	2
	49	25.74	1.75	2
	50	25.88	1.24	2
	51	26.01	0.64	2
	52	26.12	0.99	2
	53	26.22	0.92	2
	54	26.32	1.17	2
	55	26.44	1.42	2
	56	26.57	1.5	2
	57	26.71	1.41	2
	58	26.85	1.2	2
	59	27.09	2.44	2
	60	27.49	3.83	2
	61	28.13	3.93	2
	62	28.39	1.3	2
	63	28.57	1.18	2
	64	28.78	1.36	2
	65	29.1	1.76	2
	66	29.29	0.9	2
	67	29.44	0.81	2
	68	29.53	0.45	2
	69	29.62	0.68	2
	70	29.7	0.54	2
	71	29.75	0.45	2
	72	29.88	2.1	2.02
	73	29.9	0.34	2
	74	29.96	0.42	2.1
	75	30	0.43	2
	76	30.04	0.36	2
	77	30.08	0.37	2
	78	30.12	0.38	2
	79	30.17	0.39	2
	80	30.21	0.39	2
	81	30.25	0.38	2
	82	30.29	0.35	2
	83	30.34	0.46	2
	84	30.4	0.55	2
	85	30.46	0.51	2
	86	30.52	0.45	2
	87	30.57	0.44	2
	88	30.69	0.86	2
	89	30.84	0.67	2
	90	31.81	1	2
	91	32.05	0.31	2
	92	32.16	0.39	2
	93	32.37	0.54	2
	94	32.48	0.35	2
	95	32.58	0.39	2
	96	32.68	0.46	2
	97	32.79	0.47	2
	98	33.01	0.87	2
	99	33.08	0.67	2
	100	33.42	0.89	2

