File:              	C:\Qtrac\Data\Daniel M Sørensen\MScan multicentre study\Data from centres\Oxford\Processed data\ATC01211A.QZD
Name:              	UK.OXF.NC.9.1
Protocol:          	MSCAN-R2
Date:              	11/12/20
Start time:        	08:20:43
Age:               	35
Sex:               	F
Temperature:       	34.3
S/R sites:         	APB
NC/disease:        	NC
Operator:          	AT
Comments:          	Median N ABP 1st
M-SCAN DATA (8.7-1.4m)
Scanpts: 98, 107, 735, 740
Stim. (mA)     	Amp. (mV)
MS.1           	18.5           	4.816
MS.2           	18.5           	4.82
MS.3           	18.5           	4.88
MS.4           	18.5           	4.878
MS.5           	18.5           	4.862
MS.6           	18.5           	4.896
MS.7           	18.5           	4.792
MS.8           	18.5           	4.822
MS.9           	18.5           	4.88
MS.10          	18.5           	4.79
MS.11          	18.5           	4.766
MS.12          	18.5           	4.868
MS.13          	18.5           	4.838
MS.14          	18.5           	4.886
MS.15          	18.5           	4.937
MS.16          	18.5           	4.878
MS.17          	18.5           	4.864
MS.18          	18.5           	4.892
MS.19          	18.5           	4.866
MS.20          	18.5           	4.876
MS.21          	18.5           	4.894
MS.22          	18.5           	4.878
MS.23          	18.5           	4.866
MS.24          	18.425         	4.943
MS.25          	18.39          	4.955
MS.26          	18.352         	4.826
MS.27          	18.315         	4.87
MS.28          	18.28          	4.909
MS.29          	18.243         	4.816
MS.30          	18.208         	4.792
MS.31          	18.17          	4.828
MS.32          	18.132         	4.86
MS.33          	18.097         	4.884
MS.34          	18.06          	4.959
MS.35          	18.025         	4.9
MS.36          	17.99          	4.866
MS.37          	17.952         	4.83
MS.38          	17.917         	4.844
MS.39          	17.882         	4.856
MS.40          	17.845         	4.858
MS.41          	17.81          	4.87
MS.42          	17.775         	4.874
MS.43          	17.74          	4.872
MS.44          	17.702         	4.876
MS.45          	17.667         	4.854
MS.46          	17.632         	4.904
MS.47          	17.597         	4.858
MS.48          	17.562         	4.898
MS.49          	17.528         	4.89
MS.50          	17.493         	4.834
MS.51          	17.458         	4.804
MS.52          	17.422         	4.826
MS.53          	17.387         	4.838
MS.54          	17.352         	4.86
MS.55          	17.317         	4.826
MS.56          	17.285         	4.83
MS.57          	17.25          	4.917
MS.58          	17.215         	4.846
MS.59          	17.18          	4.776
MS.60          	17.145         	4.772
MS.61          	17.112         	4.814
MS.62          	17.077         	4.842
MS.63          	17.042         	4.846
MS.64          	17.01          	4.834
MS.65          	16.975         	4.832
MS.66          	16.942         	4.925
MS.67          	16.907         	4.896
MS.68          	16.875         	4.798
MS.69          	16.84          	4.763
MS.70          	16.807         	4.79
MS.71          	16.772         	4.993
MS.72          	16.74          	4.86
MS.73          	16.705         	4.747
MS.74          	16.672         	4.751
MS.75          	16.64          	4.786
MS.76          	16.605         	4.824
MS.77          	16.573         	4.82
MS.78          	16.54          	4.824
MS.79          	16.507         	4.858
MS.80          	16.472         	4.876
MS.81          	16.44          	4.866
MS.82          	16.407         	4.846
MS.83          	16.375         	4.84
MS.84          	16.342         	4.85
MS.85          	16.31          	4.846
MS.86          	16.278         	4.848
MS.87          	16.245         	4.838
MS.88          	16.212         	4.83
MS.89          	16.18          	4.836
MS.90          	16.147         	4.836
MS.91          	16.115         	4.834
MS.92          	16.083         	4.921
MS.93          	16.05          	4.906
MS.94          	16.02          	4.796
MS.95          	15.987         	4.768
MS.96          	15.955         	4.798
MS.97          	15.922         	4.812
MS.98          	15.89          	4.818
MS.99          	15.86          	4.826
MS.100         	15.827         	4.818
MS.101         	15.795         	4.824
MS.102         	15.765         	4.812
MS.103         	15.733         	4.814
MS.104         	15.702         	4.818
MS.105         	15.67          	4.818
MS.106         	15.64          	4.81
MS.107         	15.608         	4.8
MS.108         	15.577         	4.81
MS.109         	15.545         	4.802
MS.110         	15.515         	4.806
MS.111         	15.483         	4.814
MS.112         	15.452         	4.798
MS.113         	15.422         	4.83
MS.114         	15.39          	4.804
MS.115         	15.36          	4.828
MS.116         	15.33          	4.784
MS.117         	15.297         	4.78
MS.118         	15.267         	4.806
MS.119         	15.237         	4.782
MS.120         	15.207         	4.766
MS.121         	15.177         	4.772
MS.122         	15.148         	4.766
MS.123         	15.115         	4.774
MS.124         	15.085         	4.78
MS.125         	15.055         	4.78
MS.126         	15.025         	4.806
MS.127         	14.995         	4.79
MS.128         	14.965         	4.79
MS.129         	14.935         	4.774
MS.130         	14.905         	4.766
MS.131         	14.877         	4.78
MS.132         	14.847         	4.766
MS.133         	14.818         	4.776
MS.134         	14.787         	4.812
MS.135         	14.757         	4.82
MS.136         	14.727         	4.84
MS.137         	14.7           	4.788
MS.138         	14.67          	4.745
MS.139         	14.64          	4.751
MS.140         	14.61          	4.768
MS.141         	14.582         	4.761
MS.142         	14.552         	4.77
MS.143         	14.523         	4.77
MS.144         	14.495         	4.774
MS.145         	14.465         	4.763
MS.146         	14.438         	4.753
MS.147         	14.407         	4.763
MS.148         	14.38          	4.755
MS.149         	14.35          	4.753
MS.150         	14.322         	4.751
MS.151         	14.292         	4.763
MS.152         	14.265         	4.763
MS.153         	14.235         	4.832
MS.154         	14.207         	4.858
MS.155         	14.18          	4.687
MS.156         	14.15          	4.685
MS.157         	14.122         	4.687
MS.158         	14.095         	4.719
MS.159         	14.065         	4.723
MS.160         	14.037         	4.729
MS.161         	14.01          	4.727
MS.162         	13.983         	4.723
MS.163         	13.955         	4.731
MS.164         	13.925         	4.731
MS.165         	13.898         	4.743
MS.166         	13.87          	4.727
MS.167         	13.842         	4.731
MS.168         	13.815         	4.723
MS.169         	13.787         	4.733
MS.170         	13.76          	4.735
MS.171         	13.733         	4.733
MS.172         	13.705         	4.735
MS.173         	13.677         	4.735
MS.174         	13.65          	4.727
MS.175         	13.622         	4.697
MS.176         	13.595         	4.709
MS.177         	13.568         	4.721
MS.178         	13.542         	4.727
MS.179         	13.515         	4.751
MS.180         	13.487         	4.755
MS.181         	13.46          	4.741
MS.182         	13.432         	4.701
MS.183         	13.407         	4.667
MS.184         	13.38          	4.675
MS.185         	13.352         	4.693
MS.186         	13.327         	4.709
MS.187         	13.3           	4.717
MS.188         	13.273         	4.727
MS.189         	13.247         	4.741
MS.190         	13.22          	4.715
MS.191         	13.195         	4.729
MS.192         	13.167         	4.699
MS.193         	13.142         	4.697
MS.194         	13.115         	4.693
MS.195         	13.09          	4.705
MS.196         	13.062         	4.659
MS.197         	13.037         	4.677
MS.198         	13.01          	4.689
MS.199         	12.985         	4.685
MS.200         	12.957         	4.58
MS.201         	12.932         	4.689
MS.202         	12.907         	4.596
MS.203         	12.88          	4.689
MS.204         	12.855         	4.596
MS.205         	12.83          	4.598
MS.206         	12.805         	4.639
MS.207         	12.778         	4.671
MS.208         	12.752         	4.596
MS.209         	12.727         	4.548
MS.210         	12.702         	4.707
MS.211         	12.677         	4.576
MS.212         	12.653         	4.655
MS.213         	12.625         	4.564
MS.214         	12.6           	4.572
MS.215         	12.575         	4.574
MS.216         	12.55          	4.594
MS.217         	12.525         	4.586
MS.218         	12.5           	4.328
MS.219         	12.475         	4.528
MS.220         	12.45          	4.558
MS.221         	12.425         	4.308
MS.222         	12.4           	4.322
MS.223         	12.375         	4.302
MS.224         	12.352         	4.528
MS.225         	12.327         	4.288
MS.226         	12.302         	4.264
MS.227         	12.278         	4.316
MS.228         	12.252         	4.276
MS.229         	12.227         	4.524
MS.230         	12.205         	4.314
MS.231         	12.18          	4.198
MS.232         	12.155         	4.189
MS.233         	12.13          	4.266
MS.234         	12.108         	4.193
MS.235         	12.082         	4.204
MS.236         	12.057         	4.232
MS.237         	12.035         	4.165
MS.238         	12.01          	4.189
MS.239         	11.988         	4.175
MS.240         	11.962         	4.226
MS.241         	11.938         	4.151
MS.242         	11.915         	4.135
MS.243         	11.89          	4.181
MS.244         	11.867         	4.175
MS.245         	11.842         	4.113
MS.246         	11.82          	4.117
MS.247         	11.795         	4.085
MS.248         	11.773         	4.129
MS.249         	11.75          	4.131
MS.250         	11.725         	4.063
MS.251         	11.702         	4.061
MS.252         	11.677         	4.05
MS.253         	11.655         	4.059
MS.254         	11.632         	4.059
MS.255         	11.61          	4.016
MS.256         	11.585         	4.01
MS.257         	11.562         	4.046
MS.258         	11.54          	3.994
MS.259         	11.517         	4.04
MS.260         	11.492         	3.998
MS.261         	11.47          	4.004
MS.262         	11.447         	3.916
MS.263         	11.425         	4.004
MS.264         	11.403         	3.986
MS.265         	11.38          	3.976
MS.266         	11.355         	3.901
MS.267         	11.332         	3.994
MS.268         	11.31          	3.952
MS.269         	11.287         	3.958
MS.270         	11.265         	3.942
MS.271         	11.242         	3.873
MS.272         	11.22          	3.901
MS.273         	11.197         	3.819
MS.274         	11.175         	3.789
MS.275         	11.153         	3.809
MS.276         	11.132         	3.773
MS.277         	11.11          	3.813
MS.278         	11.087         	3.827
MS.279         	11.065         	3.853
MS.280         	11.042         	3.728
MS.281         	11.02          	3.702
MS.282         	10.997         	3.728
MS.283         	10.977         	3.819
MS.284         	10.955         	3.75
MS.285         	10.932         	3.714
MS.286         	10.91          	3.672
MS.287         	10.89          	3.688
MS.288         	10.867         	3.664
MS.289         	10.845         	3.646
MS.290         	10.825         	3.698
MS.291         	10.802         	3.7
MS.292         	10.78          	3.621
MS.293         	10.76          	3.666
MS.294         	10.738         	3.634
MS.295         	10.717         	3.654
MS.296         	10.695         	3.666
MS.297         	10.672         	3.442
MS.298         	10.653         	3.529
MS.299         	10.63          	3.484
MS.300         	10.61          	3.656
MS.301         	10.587         	3.474
MS.302         	10.568         	3.392
MS.303         	10.545         	3.525
MS.304         	10.525         	3.213
MS.305         	10.505         	3.096
MS.306         	10.483         	3.303
MS.307         	10.462         	3.36
MS.308         	10.443         	3.182
MS.309         	10.42          	2.953
MS.310         	10.4           	3.271
MS.311         	10.38          	3.076
MS.312         	10.358         	3.142
MS.313         	10.337         	3.021
MS.314         	10.318         	2.937
MS.315         	10.295         	2.969
MS.316         	10.275         	3.009
MS.317         	10.255         	3.06
MS.318         	10.235         	2.951
MS.319         	10.215         	2.828
MS.320         	10.193         	3.021
MS.321         	10.172         	2.908
MS.322         	10.153         	2.967
MS.323         	10.132         	2.955
MS.324         	10.113         	2.816
MS.325         	10.092         	2.721
MS.326         	10.073         	2.776
MS.327         	10.052         	2.661
MS.328         	10.032         	2.62
MS.329         	10.012         	2.663
MS.330         	9.992          	2.633
MS.331         	9.972          	2.663
MS.332         	9.952          	2.711
MS.333         	9.932          	2.417
MS.334         	9.912          	2.546
MS.335         	9.892          	2.357
MS.336         	9.872          	2.272
MS.337         	9.852          	2.244
MS.338         	9.832          	2.21
MS.339         	9.812          	2.236
MS.340         	9.795          	2.165
MS.341         	9.775          	2.173
MS.342         	9.755          	2.177
MS.343         	9.735          	1.996
MS.344         	9.715          	2.099
MS.345         	9.698          	2.06
MS.346         	9.677          	2.081
MS.347         	9.657          	1.917
MS.348         	9.637          	2.02
MS.349         	9.62           	1.895
MS.350         	9.6            	1.952
MS.351         	9.58           	1.829
MS.352         	9.562          	1.905
MS.353         	9.542          	1.845
MS.354         	9.523          	1.831
MS.355         	9.505          	1.722
MS.356         	9.485          	1.803
MS.357         	9.467          	1.607
MS.358         	9.448          	1.772
MS.359         	9.43           	1.768
MS.360         	9.41           	1.734
MS.361         	9.39           	1.752
MS.362         	9.372          	1.73
MS.363         	9.352          	1.627
MS.364         	9.335          	1.764
MS.365         	9.318          	1.384
MS.366         	9.297          	1.613
MS.367         	9.28           	1.486
MS.368         	9.26           	1.644
MS.369         	9.242          	1.575
MS.370         	9.222          	1.672
MS.371         	9.205          	1.583
MS.372         	9.188          	1.337
MS.373         	9.167          	1.513
MS.374         	9.15           	1.237
MS.375         	9.132          	1.315
MS.376         	9.113          	1.416
MS.377         	9.095          	1.261
MS.378         	9.077          	1.323
MS.379         	9.06           	1.182
MS.380         	9.04           	1.317
MS.381         	9.023          	1.299
MS.382         	9.005          	1.198
MS.383         	8.988          	0.912
MS.384         	8.97           	1.047
MS.385         	8.95           	0.874
MS.386         	8.932          	0.989
MS.387         	8.915          	0.906
MS.388         	8.898          	1.011
MS.389         	8.88           	1.055
MS.390         	8.863          	0.878
MS.391         	8.845          	0.703
MS.392         	8.827          	0.645
MS.393         	8.81           	0.878
MS.394         	8.792          	0.675
MS.395         	8.775          	0.58
MS.396         	8.755          	0.661
MS.397         	8.74           	0.63
MS.398         	8.722          	0.409
MS.399         	8.705          	0.612
MS.400         	8.688          	0.447
MS.401         	8.67           	0.457
MS.402         	8.653          	0.377
MS.403         	8.635          	0.383
MS.404         	8.617          	0.594
MS.405         	8.6            	0.564
MS.406         	8.582          	0.588
MS.407         	8.565          	0.397
MS.408         	8.547          	0.564
MS.409         	8.533          	0.739
MS.410         	8.515          	0.336
MS.411         	8.497          	0.338
MS.412         	8.48           	0.324
MS.413         	8.462          	0.338
MS.414         	8.448          	0.338
MS.415         	8.43           	0.344
MS.416         	8.412          	0.312
MS.417         	8.395          	0.302
MS.418         	8.38           	0.328
MS.419         	8.363          	0.316
MS.420         	8.345          	0.3
MS.421         	8.33           	0.32
MS.422         	8.312          	0.314
MS.423         	8.295          	0.284
MS.424         	8.28           	0.254
MS.425         	8.262          	0.308
MS.426         	8.247          	0.292
MS.427         	8.23           	0.26
MS.428         	8.212          	0.28
MS.429         	8.198          	0.262
MS.430         	8.18           	0.262
MS.431         	8.165          	0.272
MS.432         	8.148          	0.246
MS.433         	8.132          	0.258
MS.434         	8.115          	0.264
MS.435         	8.1            	0.264
MS.436         	8.082          	0.252
MS.437         	8.068          	0.248
MS.438         	8.05           	0.252
MS.439         	8.035          	0.252
MS.440         	8.017          	0.242
MS.441         	8.002          	0.24
MS.442         	7.987          	0.25
MS.443         	7.97           	0.242
MS.444         	7.955          	0.246
MS.445         	7.94           	0.242
MS.446         	7.922          	0.236
MS.447         	7.907          	0.25
MS.448         	7.892          	0.242
MS.449         	7.875          	0.24
MS.450         	7.86           	0.24
MS.451         	7.845          	0.252
MS.452         	7.827          	0.248
MS.453         	7.812          	0.246
MS.454         	7.797          	0.242
MS.455         	7.782          	0.246
MS.456         	7.765          	0.246
MS.457         	7.75           	0.234
MS.458         	7.735          	0.248
MS.459         	7.72           	0.25
MS.460         	7.705          	0.236
MS.461         	7.69           	0.238
MS.462         	7.672          	0.238
MS.463         	7.657          	0.244
MS.464         	7.642          	0.242
MS.465         	7.628          	0.236
MS.466         	7.612          	0.242
MS.467         	7.597          	0.24
MS.468         	7.582          	0.246
MS.469         	7.567          	0.234
MS.470         	7.552          	0.234
MS.471         	7.537          	0.234
MS.472         	7.523          	0.242
MS.473         	7.507          	0.232
MS.474         	7.492          	0.236
MS.475         	7.477          	0.236
MS.476         	7.462          	0.244
MS.477         	7.447          	0.236
MS.478         	7.432          	0.24
MS.479         	7.418          	0.24
MS.480         	7.402          	0.242
MS.481         	7.387          	0.232
MS.482         	7.372          	0.226
MS.483         	7.357          	0.246
MS.484         	7.342          	0.24
MS.485         	7.327          	0.238
MS.486         	7.315          	0.218
MS.487         	7.3            	0.238
MS.488         	7.285          	0.22
MS.489         	7.27           	0.226
MS.490         	7.255          	0.234
MS.491         	7.24           	0.222
MS.492         	7.227          	0.218
MS.493         	7.212          	0.23
MS.494         	7.197          	0.209
MS.495         	7.182          	0.209
MS.496         	7.17           	0.205
MS.497         	7.155          	0.216
MS.498         	7.14           	0.209
MS.499         	7.125          	0.218
MS.500         	7.112          	0.226
MS.501         	7.097          	0.22
