File:              	C:\Qtrac\Data\Daniel M Sørensen\MScan multicentre study\Data from centres\Oxford\Processed data\ATC01214C.QZD
Name:              	UK.OXF.NC.7.2
Protocol:          	MSCAN-R2
Date:              	14/12/20
Start time:        	11:45:01
Age:               	33
Sex:               	M
Temperature:       	33.4
S/R sites:         	TA
NC/disease:        	NC
Operator:          	AT
Comments:          	Peroneal N TA 2nd
M-SCAN DATA (9.4-1.7m)
Scanpts: 14, 23, 792, 808
Stim. (mA)     	Amp. (mV)
MS.1           	27             	4.3
MS.2           	27             	4.198
MS.3           	27             	4.224
MS.4           	27             	4.232
MS.5           	27             	4.258
MS.6           	27             	4.262
MS.7           	27             	4.29
MS.8           	27             	4.26
MS.9           	27             	4.22
MS.10          	27             	4.232
MS.11          	27             	4.28
MS.12          	27             	4.262
MS.13          	27             	4.246
MS.14          	27             	4.282
MS.15          	27             	4.286
MS.16          	27             	4.268
MS.17          	27             	4.292
MS.18          	27             	4.268
MS.19          	27             	4.276
MS.20          	27             	4.318
MS.21          	27             	4.25
MS.22          	27             	4.27
MS.23          	27             	4.244
MS.24          	26.892         	4.224
MS.25          	26.837         	4.268
MS.26          	26.785         	4.278
MS.27          	26.73          	4.25
MS.28          	26.677         	4.282
MS.29          	26.625         	4.268
MS.30          	26.573         	4.256
MS.31          	26.517         	4.262
MS.32          	26.465         	4.256
MS.33          	26.412         	4.242
MS.34          	26.36          	4.214
MS.35          	26.307         	4.23
MS.36          	26.255         	4.26
MS.37          	26.202         	4.222
MS.38          	26.15          	4.258
MS.39          	26.097         	4.228
MS.40          	26.045         	4.161
MS.41          	25.993         	4.155
MS.42          	25.94          	4.167
MS.43          	25.89          	4.177
MS.44          	25.837         	4.198
MS.45          	25.785         	4.198
MS.46          	25.735         	4.193
MS.47          	25.682         	4.181
MS.48          	25.632         	4.153
MS.49          	25.58          	4.151
MS.50          	25.53          	4.183
MS.51          	25.477         	4.133
MS.52          	25.427         	4.214
MS.53          	25.377         	4.183
MS.54          	25.325         	4.208
MS.55          	25.275         	4.21
MS.56          	25.225         	4.155
MS.57          	25.175         	4.171
MS.58          	25.125         	4.171
MS.59          	25.075         	4.228
MS.60          	25.025         	4.137
MS.61          	24.975         	4.187
MS.62          	24.925         	4.2
MS.63          	24.875         	4.127
MS.64          	24.825         	4.115
MS.65          	24.775         	4.141
MS.66          	24.725         	4.067
MS.67          	24.675         	4.107
MS.68          	24.627         	4.059
MS.69          	24.577         	4.034
MS.70          	24.528         	4.061
MS.71          	24.48          	4.059
MS.72          	24.43          	4.065
MS.73          	24.382         	4.036
MS.74          	24.332         	4.036
MS.75          	24.285         	4.032
MS.76          	24.235         	3.968
MS.77          	24.188         	4.052
MS.78          	24.14          	3.968
MS.79          	24.09          	4.036
MS.80          	24.042         	3.978
MS.81          	23.995         	4.01
MS.82          	23.948         	3.958
MS.83          	23.9           	4
MS.84          	23.85          	3.954
MS.85          	23.802         	3.948
MS.86          	23.755         	4.01
MS.87          	23.707         	3.974
MS.88          	23.66          	3.982
MS.89          	23.615         	3.903
MS.90          	23.567         	3.938
MS.91          	23.52          	3.934
MS.92          	23.472         	3.918
MS.93          	23.425         	3.875
MS.94          	23.38          	3.845
MS.95          	23.332         	3.869
MS.96          	23.285         	3.831
MS.97          	23.24          	3.853
MS.98          	23.192         	3.811
MS.99          	23.145         	3.819
MS.100         	23.1           	3.775
MS.101         	23.055         	3.754
MS.102         	23.007         	3.801
MS.103         	22.962         	3.746
MS.104         	22.915         	3.654
MS.105         	22.87          	3.668
MS.106         	22.825         	3.791
MS.107         	22.78          	3.644
MS.108         	22.733         	3.716
MS.109         	22.688         	3.702
MS.110         	22.642         	3.682
MS.111         	22.597         	3.654
MS.112         	22.552         	3.664
MS.113         	22.507         	3.666
MS.114         	22.462         	3.593
MS.115         	22.417         	3.619
MS.116         	22.372         	3.599
MS.117         	22.327         	3.605
MS.118         	22.282         	3.541
MS.119         	22.237         	3.551
MS.120         	22.195         	3.593
MS.121         	22.15          	3.65
MS.122         	22.105         	3.509
MS.123         	22.062         	3.521
MS.124         	22.017         	3.543
MS.125         	21.972         	3.513
MS.126         	21.93          	3.557
MS.127         	21.885         	3.519
MS.128         	21.842         	3.519
MS.129         	21.797         	3.533
MS.130         	21.755         	3.519
MS.131         	21.712         	3.507
MS.132         	21.667         	3.527
MS.133         	21.625         	3.531
MS.134         	21.583         	3.454
MS.135         	21.538         	3.515
MS.136         	21.495         	3.553
MS.137         	21.452         	3.529
MS.138         	21.41          	3.398
MS.139         	21.368         	3.442
MS.140         	21.325         	3.513
MS.141         	21.282         	3.356
MS.142         	21.24          	3.404
MS.143         	21.198         	3.392
MS.144         	21.155         	3.495
MS.145         	21.112         	3.418
MS.146         	21.07          	3.285
MS.147         	21.028         	3.378
MS.148         	20.985         	3.283
MS.149         	20.942         	3.297
MS.150         	20.903         	3.253
MS.151         	20.86          	3.168
MS.152         	20.817         	3.215
MS.153         	20.778         	3.184
MS.154         	20.735         	3.166
MS.155         	20.695         	3.17
MS.156         	20.653         	3.144
MS.157         	20.61          	3.092
MS.158         	20.57          	3.074
MS.159         	20.53          	3.112
MS.160         	20.487         	3.007
MS.161         	20.448         	2.987
MS.162         	20.405         	3.041
MS.163         	20.365         	2.971
MS.164         	20.325         	3.017
MS.165         	20.285         	2.975
MS.166         	20.243         	3.062
MS.167         	20.202         	2.973
MS.168         	20.163         	3.013
MS.169         	20.122         	2.983
MS.170         	20.083         	2.949
MS.171         	20.042         	2.854
MS.172         	20.002         	2.917
MS.173         	19.962         	2.935
MS.174         	19.922         	2.91
MS.175         	19.882         	2.925
MS.176         	19.842         	2.828
MS.177         	19.802         	2.832
MS.178         	19.762         	2.83
MS.179         	19.725         	2.828
MS.180         	19.685         	2.769
MS.181         	19.645         	2.834
MS.182         	19.605         	2.798
MS.183         	19.567         	2.786
MS.184         	19.528         	2.816
MS.185         	19.487         	2.8
MS.186         	19.45          	2.747
MS.187         	19.41          	2.741
MS.188         	19.372         	2.778
MS.189         	19.333         	2.737
MS.190         	19.295         	2.786
MS.191         	19.255         	2.812
MS.192         	19.217         	2.826
MS.193         	19.18          	2.773
MS.194         	19.14          	2.796
MS.195         	19.102         	2.79
MS.196         	19.065         	2.747
MS.197         	19.028         	2.725
MS.198         	18.987         	2.729
MS.199         	18.95          	2.681
MS.200         	18.913         	2.669
MS.201         	18.875         	2.687
MS.202         	18.837         	2.705
MS.203         	18.8           	2.729
MS.204         	18.762         	2.689
MS.205         	18.725         	2.721
MS.206         	18.688         	2.717
MS.207         	18.65          	2.657
MS.208         	18.612         	2.689
MS.209         	18.575         	2.673
MS.210         	18.538         	2.709
MS.211         	18.5           	2.701
MS.212         	18.465         	2.592
MS.213         	18.427         	2.659
MS.214         	18.39          	2.651
MS.215         	18.352         	2.612
MS.216         	18.317         	2.637
MS.217         	18.28          	2.657
MS.218         	18.245         	2.657
MS.219         	18.208         	2.485
MS.220         	18.17          	2.592
MS.221         	18.135         	2.616
MS.222         	18.097         	2.582
MS.223         	18.062         	2.564
MS.224         	18.028         	2.508
MS.225         	17.99          	2.55
MS.226         	17.955         	2.556
MS.227         	17.917         	2.56
MS.228         	17.882         	2.481
MS.229         	17.847         	2.546
MS.230         	17.812         	2.475
MS.231         	17.775         	2.548
MS.232         	17.74          	2.556
MS.233         	17.705         	2.445
MS.234         	17.67          	2.437
MS.235         	17.635         	2.443
MS.236         	17.6           	2.508
MS.237         	17.562         	2.477
MS.238         	17.528         	2.498
MS.239         	17.493         	2.441
MS.240         	17.458         	2.469
MS.241         	17.422         	2.439
MS.242         	17.39          	2.429
MS.243         	17.355         	2.338
MS.244         	17.32          	2.332
MS.245         	17.285         	2.351
MS.246         	17.25          	2.359
MS.247         	17.215         	2.314
MS.248         	17.182         	2.312
MS.249         	17.147         	2.33
MS.250         	17.112         	2.344
MS.251         	17.077         	2.296
MS.252         	17.045         	2.375
MS.253         	17.01          	2.246
MS.254         	16.977         	2.294
MS.255         	16.942         	2.344
MS.256         	16.91          	2.346
MS.257         	16.875         	2.365
MS.258         	16.842         	2.322
MS.259         	16.807         	2.27
MS.260         	16.775         	2.308
MS.261         	16.74          	2.324
MS.262         	16.708         	2.288
MS.263         	16.672         	2.262
MS.264         	16.64          	2.292
MS.265         	16.608         	2.256
MS.266         	16.575         	2.203
MS.267         	16.54          	2.218
MS.268         	16.507         	2.258
MS.269         	16.475         	2.276
MS.270         	16.442         	2.193
MS.271         	16.41          	2.171
MS.272         	16.378         	2.208
MS.273         	16.342         	2.129
MS.274         	16.31          	2.21
MS.275         	16.278         	2.197
MS.276         	16.245         	2.203
MS.277         	16.212         	2.197
MS.278         	16.18          	2.095
MS.279         	16.147         	2.234
MS.280         	16.118         	2.101
MS.281         	16.085         	2.141
MS.282         	16.052         	2.097
MS.283         	16.02          	1.956
MS.284         	15.987         	2.097
MS.285         	15.955         	2.103
MS.286         	15.925         	2.062
MS.287         	15.892         	2.018
MS.288         	15.86          	1.962
MS.289         	15.83          	1.948
MS.290         	15.797         	1.936
MS.291         	15.765         	1.855
MS.292         	15.735         	2.002
MS.293         	15.702         	1.849
MS.294         	15.672         	1.851
MS.295         	15.64          	1.887
MS.296         	15.61          	1.926
MS.297         	15.577         	1.877
MS.298         	15.547         	1.915
MS.299         	15.515         	1.827
MS.300         	15.485         	1.841
MS.301         	15.452         	1.803
MS.302         	15.422         	1.839
MS.303         	15.392         	1.774
MS.304         	15.36          	1.821
MS.305         	15.33          	1.781
MS.306         	15.3           	1.805
MS.307         	15.27          	1.799
MS.308         	15.237         	1.774
MS.309         	15.207         	1.795
MS.310         	15.177         	1.772
MS.311         	15.148         	1.787
MS.312         	15.117         	1.851
MS.313         	15.087         	1.831
MS.314         	15.057         	1.817
MS.315         	15.027         	1.827
MS.316         	14.997         	1.797
MS.317         	14.967         	1.811
MS.318         	14.938         	1.783
MS.319         	14.907         	1.758
MS.320         	14.877         	1.728
MS.321         	14.847         	1.72
MS.322         	14.818         	1.702
MS.323         	14.787         	1.67
MS.324         	14.757         	1.696
MS.325         	14.73          	1.664
MS.326         	14.7           	1.74
MS.327         	14.67          	1.682
MS.328         	14.64          	1.69
MS.329         	14.612         	1.724
MS.330         	14.582         	1.718
MS.331         	14.552         	1.597
MS.332         	14.525         	1.648
MS.333         	14.495         	1.64
MS.334         	14.467         	1.666
MS.335         	14.438         	1.535
MS.336         	14.407         	1.599
MS.337         	14.38          	1.633
MS.338         	14.35          	1.587
MS.339         	14.322         	1.638
MS.340         	14.295         	1.599
MS.341         	14.265         	1.662
MS.342         	14.237         	1.587
MS.343         	14.207         	1.627
MS.344         	14.18          	1.573
MS.345         	14.153         	1.617
MS.346         	14.122         	1.557
MS.347         	14.095         	1.567
MS.348         	14.068         	1.599
MS.349         	14.04          	1.611
MS.350         	14.01          	1.609
MS.351         	13.983         	1.563
MS.352         	13.955         	1.579
MS.353         	13.927         	1.565
MS.354         	13.9           	1.499
MS.355         	13.872         	1.462
MS.356         	13.842         	1.396
MS.357         	13.815         	1.484
MS.358         	13.787         	1.492
MS.359         	13.76          	1.507
MS.360         	13.733         	1.456
MS.361         	13.705         	1.486
MS.362         	13.677         	1.468
MS.363         	13.653         	1.384
MS.364         	13.625         	1.458
MS.365         	13.597         	1.462
MS.366         	13.57          	1.366
MS.367         	13.542         	1.349
MS.368         	13.515         	1.392
MS.369         	13.487         	1.41
MS.370         	13.462         	1.36
MS.371         	13.435         	1.345
MS.372         	13.407         	1.319
MS.373         	13.38          	1.315
MS.374         	13.355         	1.269
MS.375         	13.327         	1.279
MS.376         	13.3           	1.221
MS.377         	13.275         	1.225
MS.378         	13.222         	1.162
MS.379         	13.195         	1.215
MS.380         	13.167         	1.231
MS.381         	13.142         	1.277
MS.382         	13.115         	1.219
MS.383         	13.09          	1.243
MS.384         	13.062         	1.251
MS.385         	13.037         	1.255
MS.386         	13.012         	1.168
MS.387         	12.985         	1.184
MS.388         	12.96          	1.166
MS.389         	12.932         	1.182
MS.390         	12.907         	1.12
MS.391         	12.882         	1.14
MS.392         	12.858         	1.15
MS.393         	12.83          	1.12
MS.394         	12.805         	1.184
MS.395         	12.78          	1.192
MS.396         	12.755         	1.172
MS.397         	12.727         	1.116
MS.398         	12.702         	1.114
MS.399         	12.677         	1.096
MS.400         	12.653         	1.082
MS.401         	12.627         	1.065
MS.402         	12.602         	1.072
MS.403         	12.577         	0.989
MS.404         	12.552         	1.025
MS.405         	12.528         	1.025
MS.406         	12.502         	0.957
MS.407         	12.477         	0.945
MS.408         	12.452         	0.975
MS.409         	12.427         	0.975
MS.410         	12.403         	0.935
MS.411         	12.377         	0.937
MS.412         	12.352         	0.868
MS.413         	12.327         	0.914
MS.414         	12.302         	0.935
MS.415         	12.278         	0.868
MS.416         	12.255         	0.9
MS.417         	12.23          	0.83
MS.418         	12.205         	0.89
MS.419         	12.18          	0.81
MS.420         	12.155         	0.804
MS.421         	12.132         	0.828
MS.422         	12.108         	0.836
MS.423         	12.082         	0.792
MS.424         	12.06          	0.741
MS.425         	12.035         	0.685
MS.426         	12.01          	0.757
MS.427         	11.988         	0.665
MS.428         	11.962         	0.721
MS.429         	11.94          	0.735
MS.430         	11.915         	0.697
MS.431         	11.892         	0.628
MS.432         	11.867         	0.723
MS.433         	11.845         	0.683
MS.434         	11.82          	0.643
MS.435         	11.797         	0.661
MS.436         	11.773         	0.671
MS.437         	11.75          	0.556
MS.438         	11.727         	0.588
MS.439         	11.702         	0.588
MS.440         	11.68          	0.618
MS.441         	11.655         	0.566
MS.442         	11.632         	0.63
MS.443         	11.61          	0.699
MS.444         	11.587         	0.645
MS.445         	11.562         	0.61
MS.446         	11.54          	0.63
MS.447         	11.517         	0.63
MS.448         	11.495         	0.592
MS.449         	11.47          	0.604
MS.450         	11.447         	0.606
MS.451         	11.425         	0.568
MS.452         	11.403         	0.502
MS.453         	11.38          	0.56
MS.454         	11.358         	0.55
MS.455         	11.335         	0.558
MS.456         	11.312         	0.526
MS.457         	11.29          	0.536
MS.458         	11.267         	0.512
MS.459         	11.245         	0.508
MS.460         	11.222         	0.518
MS.461         	11.2           	0.5
MS.462         	11.177         	0.5
MS.463         	11.155         	0.483
MS.464         	11.132         	0.471
MS.465         	11.11          	0.479
MS.466         	11.087         	0.481
MS.467         	11.065         	0.477
MS.468         	11.042         	0.451
MS.469         	11.023         	0.429
MS.470         	11             	0.413
MS.471         	10.977         	0.431
MS.472         	10.955         	0.435
MS.473         	10.912         	0.393
MS.474         	10.89          	0.417
MS.475         	10.867         	0.393
MS.476         	10.847         	0.379
MS.477         	10.825         	0.389
MS.478         	10.802         	0.357
MS.479         	10.782         	0.324
MS.480         	10.76          	0.346
MS.481         	10.738         	0.338
MS.482         	10.717         	0.336
MS.483         	10.695         	0.338
MS.484         	10.675         	0.33
MS.485         	10.653         	0.324
MS.486         	10.632         	0.338
MS.487         	10.61          	0.338
MS.488         	10.59          	0.294
MS.489         	10.568         	0.308
MS.490         	10.547         	0.34
MS.491         	10.525         	0.294
MS.492         	10.505         	0.28
MS.493         	10.485         	0.278
MS.494         	10.462         	0.27
MS.495         	10.443         	0.258
MS.496         	10.42          	0.268
MS.497         	10.4           	0.25
MS.498         	10.38          	0.266
MS.499         	10.36          	0.222
MS.500         	10.337         	0.272
MS.501         	10.318         	0.242
