File:              	C:\Qtrac\Data\Daniel M Sørensen\MScan multicentre study\Data from centres\Oxford\Processed data\ATC01210C.QZD
Name:              	UK.OXF.NC.4.2
Protocol:          	MSCAN-R2
Date:              	10/12/20
Start time:        	15:44:25
Age:               	38
Sex:               	F
Temperature:       	36
S/R sites:         	TA
NC/disease:        	NC
Operator:          	AT
Comments:          	Peroneal N 2nd
M-SCAN DATA (7.1-1.6m)
Scanpts: 7, 16, 577, 599
Stim. (mA)     	Amp. (mV)
MS.1           	27             	4.477
MS.2           	27             	4.467
MS.3           	27             	4.477
MS.4           	27             	4.431
MS.5           	27             	4.417
MS.6           	27             	4.457
MS.7           	27             	4.427
MS.8           	27             	4.423
MS.9           	27             	4.421
MS.10          	27             	4.377
MS.11          	27             	4.425
MS.12          	27             	4.417
MS.13          	27             	4.429
MS.14          	27             	4.445
MS.15          	27             	4.433
MS.16          	27             	4.425
MS.17          	27             	4.437
MS.18          	27             	4.419
MS.19          	27             	4.429
MS.20          	27             	4.387
MS.21          	27             	4.397
MS.22          	27             	4.377
MS.23          	27             	4.377
MS.24          	26.892         	4.437
MS.25          	26.837         	4.411
MS.26          	26.785         	4.411
MS.27          	26.73          	4.427
MS.28          	26.677         	4.409
MS.29          	26.625         	4.413
MS.30          	26.573         	4.417
MS.31          	26.517         	4.413
MS.32          	26.465         	4.336
MS.33          	26.412         	4.393
MS.34          	26.36          	4.375
MS.35          	26.307         	4.332
MS.36          	26.255         	4.359
MS.37          	26.202         	4.308
MS.38          	26.15          	4.371
MS.39          	26.097         	4.355
MS.40          	26.045         	4.32
MS.41          	25.993         	4.25
MS.42          	25.94          	4.314
MS.43          	25.89          	4.339
MS.44          	25.837         	4.389
MS.45          	25.785         	4.435
MS.46          	25.735         	4.131
MS.47          	25.682         	4.151
MS.48          	25.632         	4.252
MS.49          	25.58          	4.123
MS.50          	25.53          	4.206
MS.51          	25.477         	4.139
MS.52          	25.427         	4.059
MS.53          	25.377         	4.149
MS.54          	25.325         	4.111
MS.55          	25.275         	4.095
MS.56          	25.225         	4.063
MS.57          	25.175         	4.04
MS.58          	25.125         	4.111
MS.59          	25.075         	4.085
MS.60          	25.025         	4.123
MS.61          	24.975         	4.085
MS.62          	24.925         	4.077
MS.63          	24.875         	4.061
MS.64          	24.825         	4.071
MS.65          	24.775         	4.077
MS.66          	24.725         	4.095
MS.67          	24.675         	4.05
MS.68          	24.627         	4.052
MS.69          	24.577         	4.065
MS.70          	24.528         	4.024
MS.71          	24.48          	4.057
MS.72          	24.43          	4.036
MS.73          	24.382         	4.024
MS.74          	24.332         	4.012
MS.75          	24.285         	3.996
MS.76          	24.235         	4.059
MS.77          	24.188         	4.071
MS.78          	24.14          	3.938
MS.79          	24.09          	3.968
MS.80          	24.042         	4.046
MS.81          	23.995         	3.93
MS.82          	23.948         	3.92
MS.83          	23.9           	3.968
MS.84          	23.85          	3.98
MS.85          	23.802         	4.012
MS.86          	23.755         	3.98
MS.87          	23.707         	3.954
MS.88          	23.66          	3.968
MS.89          	23.615         	3.871
MS.90          	23.567         	3.958
MS.91          	23.52          	3.944
MS.92          	23.472         	3.97
MS.93          	23.425         	3.978
MS.94          	23.38          	3.903
MS.95          	23.332         	3.875
MS.96          	23.285         	3.936
MS.97          	23.24          	3.922
MS.98          	23.192         	3.899
MS.99          	23.145         	3.916
MS.100         	23.1           	3.928
MS.101         	23.055         	3.907
MS.102         	23.007         	3.899
MS.103         	22.962         	3.92
MS.104         	22.915         	3.893
MS.105         	22.87          	3.871
MS.106         	22.825         	3.881
MS.107         	22.78          	3.895
MS.108         	22.733         	3.843
MS.109         	22.688         	3.837
MS.110         	22.642         	3.75
MS.111         	22.597         	3.801
MS.112         	22.552         	3.811
MS.113         	22.507         	3.766
MS.114         	22.462         	3.809
MS.115         	22.417         	3.714
MS.116         	22.372         	3.867
MS.117         	22.327         	3.712
MS.118         	22.282         	3.764
MS.119         	22.237         	3.74
MS.120         	22.195         	3.672
MS.121         	22.15          	3.609
MS.122         	22.105         	3.718
MS.123         	22.062         	3.736
MS.124         	22.017         	3.702
MS.125         	21.972         	3.601
MS.126         	21.93          	3.599
MS.127         	21.885         	3.611
MS.128         	21.842         	3.632
MS.129         	21.797         	3.646
MS.130         	21.755         	3.597
MS.131         	21.712         	3.619
MS.132         	21.667         	3.573
MS.133         	21.625         	3.611
MS.134         	21.583         	3.625
MS.135         	21.538         	3.658
MS.136         	21.495         	3.585
MS.137         	21.452         	3.567
MS.138         	21.41          	3.561
MS.139         	21.368         	3.505
MS.140         	21.325         	3.563
MS.141         	21.282         	3.523
MS.142         	21.24          	3.543
MS.143         	21.198         	3.565
MS.144         	21.155         	3.557
MS.145         	21.112         	3.533
MS.146         	21.07          	3.539
MS.147         	21.028         	3.501
MS.148         	20.985         	3.482
MS.149         	20.942         	3.438
MS.150         	20.903         	3.378
MS.151         	20.86          	3.497
MS.152         	20.817         	3.346
MS.153         	20.778         	3.398
MS.154         	20.735         	3.317
MS.155         	20.695         	3.249
MS.156         	20.653         	3.356
MS.157         	20.61          	3.227
MS.158         	20.57          	3.323
MS.159         	20.53          	3.283
MS.160         	20.487         	3.301
MS.161         	20.448         	3.259
MS.162         	20.405         	3.239
MS.163         	20.365         	3.215
MS.164         	20.325         	3.237
MS.165         	20.285         	3.198
MS.166         	20.243         	3.122
MS.167         	20.202         	3.213
MS.168         	20.163         	3.303
MS.169         	20.122         	3.126
MS.170         	20.083         	3.112
MS.171         	20.042         	3.166
MS.172         	20.002         	3.17
MS.173         	19.962         	3.205
MS.174         	19.922         	3.114
MS.175         	19.882         	3.12
MS.176         	19.842         	3.14
MS.177         	19.802         	3.134
MS.178         	19.762         	3.124
MS.179         	19.725         	3.082
MS.180         	19.685         	3.092
MS.181         	19.645         	3.072
MS.182         	19.605         	3.11
MS.183         	19.567         	3.055
MS.184         	19.528         	3.035
MS.185         	19.487         	3.049
MS.186         	19.45          	2.979
MS.187         	19.41          	3.055
MS.188         	19.372         	3.064
MS.189         	19.333         	2.957
MS.190         	19.295         	3.037
MS.191         	19.255         	2.925
MS.192         	19.217         	2.965
MS.193         	19.18          	2.937
MS.194         	19.14          	3.017
MS.195         	19.102         	2.828
MS.196         	19.065         	2.925
MS.197         	19.028         	2.993
MS.198         	18.987         	2.917
MS.199         	18.95          	2.925
MS.200         	18.913         	2.943
MS.201         	18.875         	3.035
MS.202         	18.837         	3.001
MS.203         	18.8           	2.894
MS.204         	18.762         	2.892
MS.205         	18.725         	2.87
MS.206         	18.688         	2.844
MS.207         	18.65          	2.864
MS.208         	18.612         	2.834
MS.209         	18.575         	2.804
MS.210         	18.538         	2.818
MS.211         	18.5           	2.83
MS.212         	18.465         	2.802
MS.213         	18.427         	2.755
MS.214         	18.39          	2.771
MS.215         	18.352         	2.757
MS.216         	18.317         	2.769
MS.217         	18.28          	2.782
MS.218         	18.245         	2.677
MS.219         	18.208         	2.701
MS.220         	18.17          	2.749
MS.221         	18.135         	2.697
MS.222         	18.097         	2.661
MS.223         	18.062         	2.683
MS.224         	18.028         	2.633
MS.225         	17.99          	2.57
MS.226         	17.955         	2.608
MS.227         	17.917         	2.669
MS.228         	17.882         	2.695
MS.229         	17.847         	2.667
MS.230         	17.812         	2.659
MS.231         	17.775         	2.588
MS.232         	17.74          	2.671
MS.233         	17.705         	2.55
MS.234         	17.67          	2.602
MS.235         	17.635         	2.554
MS.236         	17.6           	2.532
MS.237         	17.562         	2.514
MS.238         	17.528         	2.564
MS.239         	17.493         	2.568
MS.240         	17.458         	2.481
MS.241         	17.422         	2.504
MS.242         	17.39          	2.477
MS.243         	17.355         	2.437
MS.244         	17.32          	2.51
MS.245         	17.285         	2.421
MS.246         	17.25          	2.443
MS.247         	17.215         	2.459
MS.248         	17.182         	2.415
MS.249         	17.147         	2.435
MS.250         	17.112         	2.429
MS.251         	17.077         	2.409
MS.252         	17.045         	2.441
MS.253         	17.01          	2.413
MS.254         	16.977         	2.405
MS.255         	16.942         	2.429
MS.256         	16.91          	2.395
MS.257         	16.875         	2.441
MS.258         	16.842         	2.391
MS.259         	16.807         	2.377
MS.260         	16.775         	2.312
MS.261         	16.74          	2.318
MS.262         	16.708         	2.336
MS.263         	16.672         	2.306
MS.264         	16.64          	2.306
MS.265         	16.608         	2.318
MS.266         	16.575         	2.274
MS.267         	16.54          	2.294
MS.268         	16.507         	2.26
MS.269         	16.475         	2.294
MS.270         	16.442         	2.248
MS.271         	16.41          	2.268
MS.272         	16.378         	2.246
MS.273         	16.342         	2.222
MS.274         	16.31          	2.173
MS.275         	16.278         	2.24
MS.276         	16.245         	2.234
MS.277         	16.212         	2.175
MS.278         	16.18          	2.216
MS.279         	16.147         	2.119
MS.280         	16.118         	2.167
MS.281         	16.085         	2.189
MS.282         	16.052         	2.167
MS.283         	16.02          	2.109
MS.284         	15.987         	2.135
MS.285         	15.955         	2.071
MS.286         	15.925         	2.109
MS.287         	15.892         	2.077
MS.288         	15.86          	2.149
MS.289         	15.83          	2.121
MS.290         	15.797         	2.014
MS.291         	15.765         	2.105
MS.292         	15.735         	2.069
MS.293         	15.702         	2.091
MS.294         	15.672         	2.069
MS.295         	15.64          	2.073
MS.296         	15.61          	1.976
MS.297         	15.577         	1.982
MS.298         	15.547         	2.014
MS.299         	15.515         	1.917
MS.300         	15.485         	1.996
MS.301         	15.452         	1.958
MS.302         	15.422         	1.996
MS.303         	15.392         	1.992
MS.304         	15.36          	1.934
MS.305         	15.33          	1.877
MS.306         	15.3           	1.881
MS.307         	15.27          	1.819
MS.308         	15.237         	1.913
MS.309         	15.207         	1.787
MS.310         	15.177         	1.843
MS.311         	15.148         	1.845
MS.312         	15.117         	1.805
MS.313         	15.087         	1.678
MS.314         	15.057         	1.668
MS.315         	15.027         	1.714
MS.316         	14.997         	1.688
MS.317         	14.967         	1.766
MS.318         	14.938         	1.758
MS.319         	14.907         	1.569
MS.320         	14.877         	1.583
MS.321         	14.847         	1.539
MS.322         	14.818         	1.428
MS.323         	14.787         	1.426
MS.324         	14.757         	1.603
MS.325         	14.73          	1.436
MS.326         	14.7           	1.561
MS.327         	14.67          	1.362
MS.328         	14.64          	1.392
MS.329         	14.612         	1.458
MS.330         	14.582         	1.414
MS.331         	14.552         	1.329
MS.332         	14.525         	1.358
MS.333         	14.495         	1.289
MS.334         	14.467         	1.305
MS.335         	14.438         	1.202
MS.336         	14.407         	1.152
MS.337         	14.38          	1.176
MS.338         	14.35          	1.227
MS.339         	14.322         	1.192
MS.340         	14.295         	1.152
MS.341         	14.265         	1.194
MS.342         	14.237         	1.102
MS.343         	14.207         	1.2
MS.344         	14.18          	1.154
MS.345         	14.153         	1.192
MS.346         	14.122         	1.08
MS.347         	14.095         	1.051
MS.348         	14.068         	1.019
MS.349         	14.04          	0.999
MS.350         	14.01          	1.031
MS.351         	13.983         	0.955
MS.352         	13.955         	0.983
MS.353         	13.927         	0.969
MS.354         	13.9           	1.08
MS.355         	13.872         	0.983
MS.356         	13.842         	0.999
MS.357         	13.815         	0.953
MS.358         	13.787         	0.888
MS.359         	13.76          	0.906
MS.360         	13.733         	0.874
MS.361         	13.705         	0.868
MS.362         	13.677         	0.763
MS.363         	13.653         	0.937
MS.364         	13.625         	0.9
MS.365         	13.597         	0.828
MS.366         	13.57          	0.824
MS.367         	13.542         	0.842
MS.368         	13.515         	0.852
MS.369         	13.487         	0.814
MS.370         	13.462         	0.788
MS.371         	13.435         	0.781
MS.372         	13.407         	0.771
MS.373         	13.38          	0.757
MS.374         	13.355         	0.763
MS.375         	13.327         	0.705
MS.376         	13.3           	0.773
MS.377         	13.275         	0.695
MS.378         	13.247         	0.707
MS.379         	13.222         	0.725
MS.380         	13.195         	0.703
MS.381         	13.167         	0.691
MS.382         	13.142         	0.675
MS.383         	13.115         	0.657
MS.384         	13.09          	0.564
MS.385         	13.062         	0.61
MS.386         	13.037         	0.641
MS.387         	13.012         	0.586
MS.388         	12.985         	0.57
MS.389         	12.96          	0.578
MS.390         	12.932         	0.614
MS.391         	12.907         	0.552
MS.392         	12.882         	0.542
MS.393         	12.858         	0.54
MS.394         	12.83          	0.552
MS.395         	12.805         	0.532
MS.396         	12.78          	0.506
MS.397         	12.755         	0.493
MS.398         	12.727         	0.495
MS.399         	12.702         	0.471
MS.400         	12.677         	0.481
MS.401         	12.653         	0.451
MS.402         	12.627         	0.441
MS.403         	12.602         	0.425
MS.404         	12.577         	0.455
MS.405         	12.552         	0.441
MS.406         	12.528         	0.429
MS.407         	12.502         	0.439
MS.408         	12.477         	0.453
MS.409         	12.452         	0.389
MS.410         	12.427         	0.387
MS.411         	12.403         	0.399
MS.412         	12.377         	0.407
MS.413         	12.352         	0.413
MS.414         	12.327         	0.342
MS.415         	12.302         	0.407
MS.416         	12.278         	0.361
MS.417         	12.255         	0.391
MS.418         	12.23          	0.352
MS.419         	12.205         	0.363
MS.420         	12.18          	0.332
MS.421         	12.155         	0.324
MS.422         	12.132         	0.326
MS.423         	12.108         	0.296
MS.424         	12.082         	0.308
MS.425         	12.06          	0.278
MS.426         	12.035         	0.326
MS.427         	12.01          	0.312
MS.428         	11.988         	0.278
MS.429         	11.962         	0.296
MS.430         	11.94          	0.264
MS.431         	11.915         	0.27
MS.432         	11.892         	0.256
MS.433         	11.867         	0.28
MS.434         	11.845         	0.254
MS.435         	11.82          	0.244
MS.436         	11.797         	0.23
MS.437         	11.773         	0.224
MS.438         	11.75          	0.232
MS.439         	11.727         	0.218
MS.440         	11.702         	0.216
MS.441         	11.68          	0.211
MS.442         	11.655         	0.224
MS.443         	11.632         	0.226
MS.444         	11.61          	0.207
MS.445         	11.587         	0.211
MS.446         	11.562         	0.199
MS.447         	11.54          	0.193
MS.448         	11.517         	0.169
MS.449         	11.495         	0.193
MS.450         	11.47          	0.185
MS.451         	11.447         	0.169
MS.452         	11.425         	0.169
MS.453         	11.403         	0.159
MS.454         	11.38          	0.151
MS.455         	11.358         	0.153
MS.456         	11.335         	0.161
MS.457         	11.312         	0.169
MS.458         	11.29          	0.155
MS.459         	11.267         	0.157
MS.460         	11.245         	0.151
MS.461         	11.222         	0.153
MS.462         	11.2           	0.115
MS.463         	11.177         	0.258
MS.464         	11.155         	0.312
MS.465         	11.132         	0.308
MS.466         	11.11          	0.294
MS.467         	11.087         	0.306
MS.468         	11.065         	0.316
MS.469         	11.042         	0.276
MS.470         	11.023         	0.095
MS.471         	11             	0.105
MS.472         	10.977         	0.089
MS.473         	10.955         	0.111
MS.474         	10.932         	0.087
MS.475         	10.912         	0.091
MS.476         	10.89          	0.089
MS.477         	10.867         	0.091
MS.478         	10.847         	0.089
MS.479         	10.825         	0.095
MS.480         	10.802         	0.089
MS.481         	10.782         	0.087
MS.482         	10.76          	0.064
MS.483         	10.738         	0.085
MS.484         	10.717         	0.077
MS.485         	10.695         	0.087
MS.486         	10.675         	0.081
MS.487         	10.653         	0.079
MS.488         	10.632         	0.068
MS.489         	10.61          	0.064
MS.490         	10.59          	0.077
MS.491         	10.568         	0.068
MS.492         	10.547         	0.068
MS.493         	10.525         	0.056
MS.494         	10.505         	0.054
MS.495         	10.485         	0.05
MS.496         	10.462         	0.06
MS.497         	10.443         	0.05
MS.498         	10.42          	0.054
MS.499         	10.4           	0.046
MS.500         	10.38          	0.052
