File:              	C:\Qtrac\Data\Daniel M Sørensen\MScan multicentre study\Data from centres\Oxford\Processed data\ATC01214F.QZD
Name:              	UK.OXF.NC.5.2
Protocol:          	MSCAN-R2
Date:              	14/12/20
Start time:        	13:02:26
Age:               	48
Sex:               	F
Temperature:       	31.9
S/R sites:         	TA
NC/disease:        	NC
Operator:          	AT
Comments:          	Peroneal N TA 2nd
M-SCAN DATA (8.5-1.6m)
Scanpts: 13, 22, 719, 741
Stim. (mA)     	Amp. (mV)
MS.1           	29             	3.67
MS.2           	29             	3.67
MS.3           	29             	3.664
MS.4           	29             	3.632
MS.5           	29             	3.688
MS.6           	29             	3.64
MS.7           	29             	3.636
MS.8           	29             	3.601
MS.9           	29             	3.617
MS.10          	29             	3.644
MS.11          	29             	3.636
MS.12          	29             	3.646
MS.13          	29             	3.611
MS.14          	29             	3.632
MS.15          	29             	3.636
MS.16          	29             	3.617
MS.17          	29             	3.628
MS.18          	29             	3.619
MS.19          	29             	3.617
MS.20          	29             	3.632
MS.21          	29             	3.636
MS.22          	29             	3.634
MS.23          	29             	3.609
MS.24          	28.885         	3.628
MS.25          	28.827         	3.617
MS.26          	28.77          	3.638
MS.27          	28.712         	3.615
MS.28          	28.655         	3.607
MS.29          	28.597         	3.634
MS.30          	28.54          	3.644
MS.31          	28.483         	3.609
MS.32          	28.425         	3.648
MS.33          	28.37          	3.607
MS.34          	28.312         	3.587
MS.35          	28.255         	3.563
MS.36          	28.2           	3.628
MS.37          	28.142         	3.579
MS.38          	28.087         	3.611
MS.39          	28.03          	3.609
MS.40          	27.975         	3.591
MS.41          	27.917         	3.605
MS.42          	27.862         	3.581
MS.43          	27.807         	3.573
MS.44          	27.752         	3.591
MS.45          	27.695         	3.623
MS.46          	27.64          	3.593
MS.47          	27.585         	3.583
MS.48          	27.53          	3.587
MS.49          	27.475         	3.525
MS.50          	27.42          	3.555
MS.51          	27.365         	3.543
MS.52          	27.31          	3.537
MS.53          	27.257         	3.555
MS.54          	27.202         	3.489
MS.55          	27.147         	3.549
MS.56          	27.092         	3.579
MS.57          	27.04          	3.581
MS.58          	26.985         	3.549
MS.59          	26.932         	3.517
MS.60          	26.877         	3.563
MS.61          	26.825         	3.523
MS.62          	26.77          	3.454
MS.63          	26.717         	3.525
MS.64          	26.662         	3.513
MS.65          	26.61          	3.513
MS.66          	26.557         	3.511
MS.67          	26.505         	3.472
MS.68          	26.45          	3.501
MS.69          	26.397         	3.505
MS.70          	26.345         	3.456
MS.71          	26.292         	3.487
MS.72          	26.24          	3.44
MS.73          	26.188         	3.42
MS.74          	26.135         	3.434
MS.75          	26.082         	3.416
MS.76          	26.03          	3.432
MS.77          	25.98          	3.45
MS.78          	25.927         	3.432
MS.79          	25.875         	3.46
MS.80          	25.823         	3.412
MS.81          	25.772         	3.454
MS.82          	25.72          	3.384
MS.83          	25.67          	3.434
MS.84          	25.618         	3.428
MS.85          	25.567         	3.43
MS.86          	25.515         	3.412
MS.87          	25.465         	3.378
MS.88          	25.415         	3.374
MS.89          	25.362         	3.356
MS.90          	25.312         	3.382
MS.91          	25.262         	3.35
MS.92          	25.212         	3.325
MS.93          	25.16          	3.356
MS.94          	25.11          	3.341
MS.95          	25.06          	3.311
MS.96          	25.01          	3.279
MS.97          	24.96          	3.249
MS.98          	24.91          	3.255
MS.99          	24.86          	3.231
MS.100         	24.81          	3.253
MS.101         	24.762         	3.247
MS.102         	24.712         	3.229
MS.103         	24.663         	3.277
MS.104         	24.612         	3.223
MS.105         	24.565         	3.18
MS.106         	24.515         	3.158
MS.107         	24.465         	3.166
MS.108         	24.417         	3.174
MS.109         	24.368         	3.14
MS.110         	24.32          	3.162
MS.111         	24.27          	3.106
MS.112         	24.222         	3.11
MS.113         	24.175         	3.138
MS.114         	24.125         	3.112
MS.115         	24.077         	3.094
MS.116         	24.03          	3.064
MS.117         	23.983         	3.098
MS.118         	23.935         	3.108
MS.119         	23.885         	3.047
MS.120         	23.837         	3.023
MS.121         	23.79          	3.029
MS.122         	23.743         	3.017
MS.123         	23.695         	3.062
MS.124         	23.647         	3.049
MS.125         	23.6           	2.973
MS.126         	23.555         	3.025
MS.127         	23.507         	2.989
MS.128         	23.46          	2.991
MS.129         	23.413         	3.007
MS.130         	23.365         	2.971
MS.131         	23.32          	2.965
MS.132         	23.272         	2.939
MS.133         	23.227         	3.015
MS.134         	23.18          	2.951
MS.135         	23.132         	2.912
MS.136         	23.087         	2.912
MS.137         	23.042         	2.88
MS.138         	22.995         	2.898
MS.139         	22.95          	2.866
MS.140         	22.903         	2.86
MS.141         	22.858         	2.906
MS.142         	22.812         	2.848
MS.143         	22.767         	2.834
MS.144         	22.72          	2.778
MS.145         	22.675         	2.88
MS.146         	22.63          	2.737
MS.147         	22.585         	2.711
MS.148         	22.54          	2.773
MS.149         	22.495         	2.711
MS.150         	22.45          	2.695
MS.151         	22.405         	2.782
MS.152         	22.36          	2.616
MS.153         	22.315         	2.695
MS.154         	22.27          	2.667
MS.155         	22.227         	2.637
MS.156         	22.182         	2.639
MS.157         	22.137         	2.739
MS.158         	22.092         	2.574
MS.159         	22.05          	2.624
MS.160         	22.005         	2.55
MS.161         	21.962         	2.528
MS.162         	21.917         	2.598
MS.163         	21.875         	2.548
MS.164         	21.83          	2.564
MS.165         	21.788         	2.544
MS.166         	21.743         	2.494
MS.167         	21.7           	2.502
MS.168         	21.655         	2.5
MS.169         	21.612         	2.494
MS.170         	21.57          	2.534
MS.171         	21.528         	2.463
MS.172         	21.483         	2.447
MS.173         	21.44          	2.429
MS.174         	21.397         	2.423
MS.175         	21.355         	2.449
MS.176         	21.312         	2.371
MS.177         	21.27          	2.461
MS.178         	21.227         	2.389
MS.179         	21.185         	2.375
MS.180         	21.142         	2.425
MS.181         	21.1           	2.367
MS.182         	21.057         	2.387
MS.183         	21.015         	2.423
MS.184         	20.975         	2.371
MS.185         	20.932         	2.288
MS.186         	20.89          	2.288
MS.187         	20.847         	2.276
MS.188         	20.807         	2.292
MS.189         	20.765         	2.29
MS.190         	20.725         	2.25
MS.191         	20.682         	2.246
MS.192         	20.642         	2.298
MS.193         	20.6           	2.236
MS.194         	20.56          	2.199
MS.195         	20.517         	2.203
MS.196         	20.477         	2.252
MS.197         	20.435         	2.135
MS.198         	20.395         	2.141
MS.199         	20.355         	2.101
MS.200         	20.312         	2.167
MS.201         	20.272         	2.093
MS.202         	20.233         	2.133
MS.203         	20.192         	2.079
MS.204         	20.153         	2.111
MS.205         	20.112         	2.06
MS.206         	20.073         	2.056
MS.207         	20.03          	2.02
MS.208         	19.99          	2.016
MS.209         	19.952         	2.048
MS.210         	19.913         	2.042
MS.211         	19.872         	2.058
MS.212         	19.833         	1.976
MS.213         	19.792         	1.976
MS.214         	19.752         	1.954
MS.215         	19.712         	1.942
MS.216         	19.675         	1.966
MS.217         	19.635         	1.958
MS.218         	19.595         	1.915
MS.219         	19.555         	1.913
MS.220         	19.517         	1.863
MS.221         	19.477         	1.952
MS.222         	19.44          	1.917
MS.223         	19.4           	1.934
MS.224         	19.362         	1.897
MS.225         	19.323         	1.879
MS.226         	19.285         	1.837
MS.227         	19.245         	1.831
MS.228         	19.208         	1.817
MS.229         	19.17          	1.821
MS.230         	19.13          	1.799
MS.231         	19.092         	1.821
MS.232         	19.055         	1.704
MS.233         	19.015         	1.696
MS.234         	18.977         	1.781
MS.235         	18.94          	1.688
MS.236         	18.903         	1.66
MS.237         	18.865         	1.72
MS.238         	18.827         	1.724
MS.239         	18.79          	1.704
MS.240         	18.753         	1.67
MS.241         	18.715         	1.635
MS.242         	18.677         	1.714
MS.243         	18.64          	1.692
MS.244         	18.602         	1.585
MS.245         	18.565         	1.644
MS.246         	18.528         	1.646
MS.247         	18.49          	1.593
MS.248         	18.455         	1.611
MS.249         	18.417         	1.627
MS.250         	18.38          	1.573
MS.251         	18.345         	1.583
MS.252         	18.307         	1.565
MS.253         	18.27          	1.559
MS.254         	18.235         	1.495
MS.255         	18.198         	1.525
MS.256         	18.163         	1.499
MS.257         	18.125         	1.515
MS.258         	18.09          	1.49
MS.259         	18.052         	1.488
MS.260         	18.017         	1.517
MS.261         	17.98          	1.488
MS.262         	17.945         	1.495
MS.263         	17.91          	1.519
MS.264         	17.872         	1.47
MS.265         	17.837         	1.452
MS.266         	17.802         	1.438
MS.267         	17.765         	1.43
MS.268         	17.73          	1.464
MS.269         	17.695         	1.41
MS.270         	17.66          	1.402
MS.271         	17.625         	1.364
MS.272         	17.59          	1.42
MS.273         	17.555         	1.402
MS.274         	17.52          	1.378
MS.275         	17.485         	1.347
MS.276         	17.45          	1.289
MS.277         	17.415         	1.291
MS.278         	17.38          	1.303
MS.279         	17.345         	1.206
MS.280         	17.31          	1.227
MS.281         	17.275         	1.283
MS.282         	17.24          	1.17
MS.283         	17.208         	1.19
MS.284         	17.172         	1.243
MS.285         	17.137         	1.208
MS.286         	17.102         	1.223
MS.287         	17.07          	1.221
MS.288         	17.035         	1.221
MS.289         	17.003         	1.251
MS.290         	16.967         	1.182
MS.291         	16.932         	1.154
MS.292         	16.9           	1.17
MS.293         	16.865         	1.126
MS.294         	16.833         	1.15
MS.295         	16.797         	1.158
MS.296         	16.765         	1.114
MS.297         	16.733         	1.136
MS.298         	16.698         	1.096
MS.299         	16.665         	1.168
MS.300         	16.632         	1.072
MS.301         	16.597         	1.061
MS.302         	16.565         	1.146
MS.303         	16.532         	1.047
MS.304         	16.5           	1.072
MS.305         	16.465         	1.029
MS.306         	16.432         	1.061
MS.307         	16.4           	0.945
MS.308         	16.368         	1.037
MS.309         	16.335         	1.029
MS.310         	16.302         	0.955
MS.311         	16.27          	0.943
MS.312         	16.237         	0.965
MS.313         	16.205         	0.886
MS.314         	16.172         	0.971
MS.315         	16.14          	0.929
MS.316         	16.108         	0.872
MS.317         	16.075         	0.918
MS.318         	16.042         	0.882
MS.319         	16.012         	0.892
MS.320         	15.98          	0.79
MS.321         	15.947         	0.798
MS.322         	15.915         	0.8
MS.323         	15.882         	0.779
MS.324         	15.852         	0.842
MS.325         	15.82          	0.858
MS.326         	15.787         	0.856
MS.327         	15.757         	0.814
MS.328         	15.725         	0.721
MS.329         	15.695         	0.832
MS.330         	15.662         	0.767
MS.331         	15.632         	0.759
MS.332         	15.6           	0.779
MS.333         	15.57          	0.691
MS.334         	15.537         	0.741
MS.335         	15.507         	0.679
MS.336         	15.475         	0.695
MS.337         	15.445         	0.661
MS.338         	15.415         	0.667
MS.339         	15.382         	0.705
MS.340         	15.352         	0.695
MS.341         	15.322         	0.685
MS.342         	15.292         	0.685
MS.343         	15.26          	0.701
MS.344         	15.23          	0.709
MS.345         	15.2           	0.647
MS.346         	15.17          	0.653
MS.347         	15.14          	0.62
MS.348         	15.11          	0.643
MS.349         	15.08          	0.651
MS.350         	15.047         	0.655
MS.351         	15.017         	0.677
MS.352         	14.987         	0.61
MS.353         	14.957         	0.657
MS.354         	14.93          	0.643
MS.355         	14.9           	0.63
MS.356         	14.87          	0.612
MS.357         	14.84          	0.643
MS.358         	14.81          	0.618
MS.359         	14.78          	0.622
MS.360         	14.75          	0.616
MS.361         	14.722         	0.628
MS.362         	14.693         	0.634
MS.363         	14.662         	0.596
MS.364         	14.632         	0.636
MS.365         	14.605         	0.638
MS.366         	14.575         	0.622
MS.367         	14.545         	0.624
MS.368         	14.517         	0.638
MS.369         	14.487         	0.622
MS.370         	14.457         	0.632
MS.371         	14.43          	0.572
MS.372         	14.4           	0.62
MS.373         	14.372         	0.592
MS.374         	14.342         	0.626
MS.375         	14.315         	0.618
MS.376         	14.285         	0.63
MS.377         	14.257         	0.594
MS.378         	14.23          	0.618
MS.379         	14.2           	0.624
MS.380         	14.172         	0.594
MS.381         	14.145         	0.574
MS.382         	14.115         	0.628
MS.383         	14.087         	0.558
MS.384         	14.06          	0.56
MS.385         	14.032         	0.632
MS.386         	14.002         	0.588
MS.387         	13.975         	0.616
MS.388         	13.947         	0.62
MS.389         	13.92          	0.63
MS.390         	13.892         	0.491
MS.391         	13.865         	0.479
MS.392         	13.837         	0.425
MS.393         	13.807         	0.508
MS.394         	13.78          	0.459
MS.395         	13.752         	0.532
MS.396         	13.725         	0.387
MS.397         	13.697         	0.411
MS.398         	13.67          	0.459
MS.399         	13.645         	0.51
MS.400         	13.617         	0.433
MS.401         	13.59          	0.455
MS.402         	13.562         	0.421
MS.403         	13.535         	0.375
MS.404         	13.507         	0.397
MS.405         	13.48          	0.389
MS.406         	13.455         	0.421
MS.407         	13.427         	0.306
MS.408         	13.4           	0.405
MS.409         	13.372         	0.348
MS.410         	13.347         	0.357
MS.411         	13.32          	0.344
MS.412         	13.292         	0.346
MS.413         	13.267         	0.312
MS.414         	13.24          	0.361
MS.415         	13.215         	0.328
MS.416         	13.188         	0.379
MS.417         	13.162         	0.292
MS.418         	13.135         	0.346
MS.419         	13.11          	0.288
MS.420         	13.082         	0.29
MS.421         	13.057         	0.296
MS.422         	13.03          	0.228
MS.423         	13.005         	0.276
MS.424         	12.977         	0.228
MS.425         	12.952         	0.282
MS.426         	12.927         	0.264
MS.427         	12.9           	0.232
MS.428         	12.875         	0.205
MS.429         	12.85          	0.27
MS.430         	12.822         	0.205
MS.431         	12.797         	0.207
MS.432         	12.773         	0.209
MS.433         	12.747         	0.209
MS.434         	12.722         	0.214
MS.435         	12.695         	0.191
MS.436         	12.67          	0.191
MS.437         	12.645         	0.167
MS.438         	12.62          	0.185
MS.439         	12.595         	0.179
MS.440         	12.57          	0.173
MS.441         	12.545         	0.157
MS.442         	12.52          	0.214
MS.443         	12.495         	0.191
MS.444         	12.47          	0.159
MS.445         	12.445         	0.151
MS.446         	12.42          	0.199
MS.447         	12.395         	0.264
MS.448         	12.37          	0.189
MS.449         	12.345         	0.199
MS.450         	12.32          	0.159
MS.451         	12.295         	0.129
MS.452         	12.273         	0.109
MS.453         	12.247         	0.155
MS.454         	12.222         	0.159
MS.455         	12.197         	0.159
MS.456         	12.175         	0.189
MS.457         	12.15          	0.181
MS.458         	12.125         	0.161
MS.459         	12.1           	0.189
MS.460         	12.077         	0.155
MS.461         	12.052         	0.181
MS.462         	12.028         	0.173
MS.463         	12.005         	0.107
MS.464         	11.98          	0.089
MS.465         	11.957         	0.131
MS.466         	11.932         	0.127
MS.467         	11.91          	0.119
MS.468         	11.885         	0.121
MS.469         	11.863         	0.117
MS.470         	11.837         	0.117
MS.471         	11.815         	0.147
MS.472         	11.79          	0.048
MS.473         	11.767         	0.127
MS.474         	11.742         	0.099
MS.475         	11.72          	0.06
MS.476         	11.697         	0.115
MS.477         	11.672         	0.056
MS.478         	11.65          	0.073
MS.479         	11.627         	0.103
MS.480         	11.602         	0.091
MS.481         	11.58          	0.06
MS.482         	11.557         	0.066
MS.483         	11.535         	0.077
MS.484         	11.51          	0.097
MS.485         	11.488         	0.07
MS.486         	11.465         	0.103
MS.487         	11.443         	0.068
MS.488         	11.42          	0.062
MS.489         	11.398         	0.093
MS.490         	11.372         	0.105
MS.491         	11.35          	0.056
MS.492         	11.327         	0.073
MS.493         	11.305         	0.115
MS.494         	11.282         	0.07
MS.495         	11.26          	0.077
MS.496         	11.238         	0.07
MS.497         	11.215         	0.058
MS.498         	11.193         	0.093
MS.499         	11.17          	0.075
MS.500         	11.148         	0.107
