File:              	C:\Qtrac\Data\Daniel M Sørensen\MScan multicentre study\Data from centres\Oxford\Raw data (sorted for use)\ATC01203A.QZD
Name:              	UK.OXF.NC.1.1
Protocol:          	MSCAN-R2
Date:              	3/12/20
Start time:        	16:19:21
Age:               	37
Sex:               	m
Temperature:       	35.7
S/R sites:         	APB
NC/disease:        	NC
Operator:          	AT
Comments:          	Healthy control trial 1
M-SCAN DATA (7.9-1.6m)
Scanpts: 150, 157, 589, 605
Stim. (mA)     	Amp. (mV)
MS.1           	16             	7.69
MS.2           	16             	7.666
MS.3           	16             	7.684
MS.4           	16             	7.662
MS.5           	16             	7.66
MS.6           	16             	7.674
MS.7           	16             	7.664
MS.8           	16             	7.642
MS.9           	16             	7.684
MS.10          	16             	7.642
MS.11          	16             	7.654
MS.12          	16             	7.668
MS.13          	16             	7.664
MS.14          	16             	7.67
MS.15          	16             	7.674
MS.16          	16             	7.68
MS.17          	16             	7.676
MS.18          	16             	7.686
MS.19          	16             	7.676
MS.20          	16             	7.672
MS.21          	16             	7.644
MS.22          	16             	7.656
MS.23          	16             	7.672
MS.24          	15.935         	7.66
MS.25          	15.905         	7.662
MS.26          	15.872         	7.664
MS.27          	15.84          	7.658
MS.28          	15.81          	7.664
MS.29          	15.777         	7.66
MS.30          	15.745         	7.656
MS.31          	15.715         	7.658
MS.32          	15.682         	7.658
MS.33          	15.652         	7.654
MS.34          	15.62          	7.658
MS.35          	15.59          	7.65
MS.36          	15.557         	7.646
MS.37          	15.527         	7.638
MS.38          	15.495         	7.614
MS.39          	15.465         	7.636
MS.40          	15.435         	7.636
MS.41          	15.402         	7.646
MS.42          	15.372         	7.628
MS.43          	15.342         	7.63
MS.44          	15.31          	7.605
MS.45          	15.28          	7.636
MS.46          	15.25          	7.622
MS.47          	15.22          	7.64
MS.48          	15.19          	7.64
MS.49          	15.16          	7.64
MS.50          	15.127         	7.65
MS.51          	15.097         	7.632
MS.52          	15.068         	7.63
MS.53          	15.037         	7.628
MS.54          	15.007         	7.609
MS.55          	14.977         	7.624
MS.56          	14.947         	7.638
MS.57          	14.917         	7.636
MS.58          	14.887         	7.628
MS.59          	14.858         	7.618
MS.60          	14.83          	7.616
MS.61          	14.8           	7.63
MS.62          	14.77          	7.63
MS.63          	14.74          	7.632
MS.64          	14.71          	7.63
MS.65          	14.682         	7.628
MS.66          	14.652         	7.634
MS.67          	14.622         	7.632
MS.68          	14.592         	7.646
MS.69          	14.565         	7.646
MS.70          	14.535         	7.624
MS.71          	14.507         	7.628
MS.72          	14.477         	7.632
MS.73          	14.447         	7.624
MS.74          	14.42          	7.626
MS.75          	14.39          	7.638
MS.76          	14.362         	7.622
MS.77          	14.332         	7.63
MS.78          	14.305         	7.612
MS.79          	14.275         	7.575
MS.80          	14.247         	7.622
MS.81          	14.22          	7.601
MS.82          	14.19          	7.609
MS.83          	14.162         	7.609
MS.84          	14.135         	7.616
MS.85          	14.105         	7.603
MS.86          	14.077         	7.605
MS.87          	14.05          	7.607
MS.88          	14.023         	7.599
MS.89          	13.992         	7.605
MS.90          	13.965         	7.587
MS.91          	13.938         	7.601
MS.92          	13.91          	7.605
MS.93          	13.882         	7.591
MS.94          	13.855         	7.601
MS.95          	13.827         	7.603
MS.96          	13.8           	7.581
MS.97          	13.773         	7.577
MS.98          	13.745         	7.587
MS.99          	13.717         	7.597
MS.100         	13.69          	7.587
MS.101         	13.662         	7.585
MS.102         	13.635         	7.583
MS.103         	13.608         	7.612
MS.104         	13.58          	7.603
MS.105         	13.552         	7.587
MS.106         	13.525         	7.593
MS.107         	13.497         	7.612
MS.108         	13.472         	7.601
MS.109         	13.445         	7.599
MS.110         	13.417         	7.612
MS.111         	13.39          	7.563
MS.112         	13.365         	7.585
MS.113         	13.337         	7.599
MS.114         	13.31          	7.567
MS.115         	13.285         	7.579
MS.116         	13.257         	7.585
MS.117         	13.233         	7.579
MS.118         	13.205         	7.561
MS.119         	13.177         	7.557
MS.120         	13.153         	7.573
MS.121         	13.125         	7.587
MS.122         	13.1           	7.575
MS.123         	13.072         	7.587
MS.124         	13.047         	7.587
MS.125         	13.023         	7.583
MS.126         	12.995         	7.587
MS.127         	12.97          	7.577
MS.128         	12.943         	7.577
MS.129         	12.917         	7.571
MS.130         	12.892         	7.577
MS.131         	12.865         	7.565
MS.132         	12.84          	7.565
MS.133         	12.815         	7.591
MS.134         	12.79          	7.589
MS.135         	12.762         	7.583
MS.136         	12.738         	7.583
MS.137         	12.712         	7.585
MS.138         	12.688         	7.581
MS.139         	12.662         	7.577
MS.140         	12.637         	7.587
MS.141         	12.61          	7.581
MS.142         	12.585         	7.583
MS.143         	12.56          	7.587
MS.144         	12.535         	7.585
MS.145         	12.51          	7.601
MS.146         	12.485         	7.591
MS.147         	12.46          	7.599
MS.148         	12.435         	7.579
MS.149         	12.41          	7.597
MS.150         	12.385         	7.614
MS.151         	12.363         	7.593
MS.152         	12.337         	7.589
MS.153         	12.312         	7.595
MS.154         	12.287         	7.601
MS.155         	12.262         	7.593
MS.156         	12.238         	7.614
MS.157         	12.215         	7.605
MS.158         	12.19          	7.589
MS.159         	12.165         	7.595
MS.160         	12.14          	7.597
MS.161         	12.117         	7.583
MS.162         	12.092         	7.587
MS.163         	12.068         	7.587
MS.164         	12.045         	7.591
MS.165         	12.02          	7.575
MS.166         	11.995         	7.585
MS.167         	11.972         	7.589
MS.168         	11.947         	7.589
MS.169         	11.925         	7.589
MS.170         	11.9           	7.575
MS.171         	11.877         	7.581
MS.172         	11.852         	7.587
MS.173         	11.83          	7.585
MS.174         	11.805         	7.575
MS.175         	11.782         	7.603
MS.176         	11.757         	7.567
MS.177         	11.735         	7.575
MS.178         	11.712         	7.595
MS.179         	11.688         	7.589
MS.180         	11.665         	7.591
MS.181         	11.642         	7.591
MS.182         	11.617         	7.597
MS.183         	11.595         	7.583
MS.184         	11.572         	7.599
MS.185         	11.55          	7.597
MS.186         	11.525         	7.581
MS.187         	11.502         	7.43
MS.188         	11.48          	7.489
MS.189         	11.457         	7.346
MS.190         	11.435         	7.362
MS.191         	11.41          	7.473
MS.192         	11.387         	7.311
MS.193         	11.365         	7.511
MS.194         	11.342         	7.499
MS.195         	11.32          	7.513
MS.196         	11.297         	7.197
MS.197         	11.275         	7.356
MS.198         	11.252         	7.38
MS.199         	11.23          	7.219
MS.200         	11.207         	7.517
MS.201         	11.185         	7.507
MS.202         	11.162         	7.462
MS.203         	11.14          	7.197
MS.204         	11.117         	7.118
MS.205         	11.095         	7.279
MS.206         	11.075         	7.364
MS.207         	11.052         	7.124
MS.208         	11.03          	7.394
MS.209         	11.007         	7.237
MS.210         	10.985         	7.132
MS.211         	10.962         	7.225
MS.212         	10.943         	7.108
MS.213         	10.92          	7.291
MS.214         	10.898         	7.148
MS.215         	10.877         	7.122
MS.216         	10.855         	7.215
MS.217         	10.832         	7.13
MS.218         	10.81          	7.128
MS.219         	10.79          	7.211
MS.220         	10.767         	7.13
MS.221         	10.747         	7.108
MS.222         	10.725         	7.12
MS.223         	10.702         	7.126
MS.224         	10.682         	7.118
MS.225         	10.66          	7.1
MS.226         	10.64          	7.12
MS.227         	10.617         	7.144
MS.228         	10.597         	7.074
MS.229         	10.575         	7.132
MS.230         	10.555         	7.033
MS.231         	10.535         	6.997
MS.232         	10.512         	7.094
MS.233         	10.492         	7.102
MS.234         	10.47          	7.102
MS.235         	10.45          	7.001
MS.236         	10.43          	7.086
MS.237         	10.407         	7.048
MS.238         	10.387         	7.068
MS.239         	10.367         	6.961
MS.240         	10.345         	6.983
MS.241         	10.325         	7.005
MS.242         	10.305         	6.963
MS.243         	10.285         	6.917
MS.244         	10.262         	6.941
MS.245         	10.242         	6.985
MS.246         	10.222         	6.862
MS.247         	10.202         	6.949
MS.248         	10.182         	6.909
MS.249         	10.162         	6.794
MS.250         	10.14          	6.876
MS.251         	10.12          	6.856
MS.252         	10.1           	6.731
MS.253         	10.08          	6.782
MS.254         	10.06          	6.82
MS.255         	10.04          	6.82
MS.256         	10.02          	6.695
MS.257         	10             	6.872
MS.258         	9.98           	6.717
MS.259         	9.96           	6.953
MS.260         	9.94           	6.814
MS.261         	9.92           	6.697
MS.262         	9.9            	6.6
MS.263         	9.88           	6.725
MS.264         	9.86           	6.739
MS.265         	9.842          	6.649
MS.266         	9.823          	6.627
MS.267         	9.802          	6.544
MS.268         	9.782          	6.606
MS.269         	9.762          	6.455
MS.270         	9.742          	6.637
MS.271         	9.725          	6.536
MS.272         	9.705          	6.286
MS.273         	9.685          	6.355
MS.274         	9.665          	6.196
MS.275         	9.648          	6.111
MS.276         	9.627          	6.139
MS.277         	9.608          	6.131
MS.278         	9.587          	6.135
MS.279         	9.57           	6.339
MS.280         	9.55           	6.113
MS.281         	9.532          	5.793
MS.282         	9.512          	5.678
MS.283         	9.492          	6.093
MS.284         	9.475          	5.626
MS.285         	9.455          	6.034
MS.286         	9.438          	6.01
MS.287         	9.417          	5.982
MS.288         	9.4            	5.867
MS.289         	9.38           	5.839
MS.290         	9.363          	5.91
MS.291         	9.342          	5.571
MS.292         	9.325          	5.483
MS.293         	9.305          	5.319
MS.294         	9.287          	5.509
MS.295         	9.267          	5.307
MS.296         	9.25           	5.233
MS.297         	9.23           	5.396
MS.298         	9.212          	5.142
MS.299         	9.195          	5.247
MS.300         	9.175          	5.09
MS.301         	9.158          	5.416
MS.302         	9.14           	5.201
MS.303         	9.12           	5.176
MS.304         	9.102          	5.203
MS.305         	9.085          	5.11
MS.306         	9.068          	4.957
MS.307         	9.047          	5.084
MS.308         	9.03           	4.997
MS.309         	9.012          	4.915
MS.310         	8.995          	4.993
MS.311         	8.977          	5.033
MS.312         	8.957          	4.951
MS.313         	8.94           	4.995
MS.314         	8.922          	4.965
MS.315         	8.905          	4.858
MS.316         	8.887          	4.945
MS.317         	8.87           	4.753
MS.318         	8.852          	4.719
MS.319         	8.835          	4.685
MS.320         	8.815          	4.691
MS.321         	8.797          	4.776
MS.322         	8.78           	4.794
MS.323         	8.762          	4.759
MS.324         	8.745          	4.471
MS.325         	8.727          	4.606
MS.326         	8.71           	4.711
MS.327         	8.693          	4.467
MS.328         	8.675          	4.516
MS.329         	8.66           	4.427
MS.330         	8.642          	4.391
MS.331         	8.625          	4.367
MS.332         	8.608          	4.332
MS.333         	8.59           	4.524
MS.334         	8.573          	4.306
MS.335         	8.555          	4.272
MS.336         	8.537          	4.314
MS.337         	8.523          	4.27
MS.338         	8.505          	4.328
MS.339         	8.488          	4.179
MS.340         	8.47           	4.117
MS.341         	8.452          	4.252
MS.342         	8.438          	4.198
MS.343         	8.42           	4.266
MS.344         	8.403          	4.069
MS.345         	8.385          	4.038
MS.346         	8.37           	4.089
MS.347         	8.352          	4.05
MS.348         	8.335          	3.956
MS.349         	8.32           	3.873
MS.350         	8.302          	3.986
MS.351         	8.285          	3.734
MS.352         	8.27           	3.793
MS.353         	8.252          	3.966
MS.354         	8.238          	3.686
MS.355         	8.22           	3.617
MS.356         	8.202          	3.716
MS.357         	8.188          	3.404
MS.358         	8.17           	3.567
MS.359         	8.155          	3.364
MS.360         	8.137          	3.577
MS.361         	8.122          	3.241
MS.362         	8.105          	3.63
MS.363         	8.09           	3.166
MS.364         	8.073          	3.215
MS.365         	8.057          	3.253
MS.366         	8.042          	3.057
MS.367         	8.025          	3.148
MS.368         	8.01           	3.128
MS.369         	7.992          	2.794
MS.370         	7.977          	2.985
MS.371         	7.96           	2.989
MS.372         	7.945          	2.792
MS.373         	7.93           	2.975
MS.374         	7.912          	2.818
MS.375         	7.898          	2.937
MS.376         	7.882          	2.822
MS.377         	7.867          	2.637
MS.378         	7.85           	2.914
MS.379         	7.835          	2.425
MS.380         	7.82           	2.576
MS.381         	7.802          	2.34
MS.382         	7.787          	2.498
MS.383         	7.773          	2.691
MS.384         	7.757          	2.409
MS.385         	7.742          	1.97
MS.386         	7.725          	2.53
MS.387         	7.71           	2.473
MS.388         	7.695          	2.181
MS.389         	7.68           	1.899
MS.390         	7.665          	1.944
MS.391         	7.65           	1.895
MS.392         	7.635          	2.159
MS.393         	7.617          	1.682
MS.394         	7.602          	1.849
MS.395         	7.587          	1.698
MS.396         	7.572          	1.621
MS.397         	7.557          	1.722
MS.398         	7.543          	1.648
MS.399         	7.527          	1.698
MS.400         	7.512          	1.601
MS.401         	7.497          	1.654
MS.402         	7.482          	1.456
MS.403         	7.467          	1.581
MS.404         	7.452          	1.378
MS.405         	7.438          	1.331
MS.406         	7.422          	1.456
MS.407         	7.407          	1.305
MS.408         	7.392          	1.591
MS.409         	7.378          	1.4
MS.410         	7.365          	1.444
MS.411         	7.35           	1.45
MS.412         	7.335          	1.16
MS.413         	7.32           	1.354
MS.414         	7.305          	1.432
MS.415         	7.29           	1.325
MS.416         	7.275          	1.166
MS.417         	7.262          	1.053
MS.418         	7.247          	1.15
MS.419         	7.233          	0.773
MS.420         	7.217          	1.37
MS.421         	7.202          	1.055
MS.422         	7.19           	0.989
MS.423         	7.175          	0.941
MS.424         	7.16           	0.798
MS.425         	7.145          	0.969
MS.426         	7.132          	0.961
MS.427         	7.117          	0.878
MS.428         	7.102          	0.679
MS.429         	7.09           	0.84
MS.430         	7.075          	0.945
MS.431         	7.06           	0.939
MS.432         	7.047          	0.794
MS.433         	7.032          	0.661
MS.434         	7.017          	0.661
MS.435         	7.005          	0.997
MS.436         	6.99           	0.955
MS.437         	6.977          	0.723
MS.438         	6.962          	0.665
MS.439         	6.95           	0.747
MS.440         	6.935          	0.733
MS.441         	6.92           	0.765
MS.442         	6.907          	0.572
MS.443         	6.892          	0.751
MS.444         	6.88           	0.663
MS.445         	6.865          	0.665
MS.446         	6.852          	0.608
MS.447         	6.837          	0.516
MS.448         	6.825          	0.493
MS.449         	6.812          	0.443
MS.450         	6.797          	0.431
MS.451         	6.785          	0.427
MS.452         	6.77           	0.401
MS.453         	6.757          	0.453
MS.454         	6.742          	0.375
MS.455         	6.73           	0.624
MS.456         	6.717          	0.365
MS.457         	6.702          	0.363
MS.458         	6.69           	0.431
MS.459         	6.677          	0.369
MS.460         	6.662          	0.443
MS.461         	6.65           	0.365
MS.462         	6.637          	0.381
MS.463         	6.622          	0.377
MS.464         	6.61           	0.399
MS.465         	6.597          	0.399
MS.466         	6.582          	0.354
MS.467         	6.57           	0.375
MS.468         	6.557          	0.373
MS.469         	6.545          	0.373
MS.470         	6.53           	0.387
MS.471         	6.517          	0.397
MS.472         	6.505          	0.365
MS.473         	6.492          	0.365
MS.474         	6.48           	0.377
MS.475         	6.465          	0.324
MS.476         	6.452          	0.399
MS.477         	6.44           	0.371
MS.478         	6.427          	0.354
MS.479         	6.415          	0.381
MS.480         	6.402          	0.314
MS.481         	6.39           	0.34
MS.482         	6.378          	0.35
MS.483         	6.362          	0.328
MS.484         	6.35           	0.25
MS.485         	6.338          	0.322
MS.486         	6.325          	0.296
MS.487         	6.312          	0.314
MS.488         	6.3            	0.306
MS.489         	6.287          	0.258
MS.490         	6.275          	0.322
MS.491         	6.262          	0.326
MS.492         	6.25           	0.324
MS.493         	6.237          	0.145
MS.494         	6.225          	0.298
MS.495         	6.213          	0.33
MS.496         	6.2            	0.238
MS.497         	6.188          	0.222
MS.498         	6.175          	0.203
MS.499         	6.162          	0.238
MS.500         	6.15           	0.145
