File:              	C:\Qtrac\Data\Daniel M Sørensen\MScan multicentre study\Data from centres\Oxford\Raw data (sorted for use)\ATC01207G.QZD
Name:              	UK.OXF.NC.3.1
Protocol:          	MSCAN-R2
Date:              	7/12/20
Start time:        	14:21:58
Age:               	45
Sex:               	F
Temperature:       	34,3
S/R sites:         	ADM
NC/disease:        	NC
Operator:          	AT
Comments:          	HC Ulnsr n 1st trial
M-SCAN DATA (Repeat 2/2, 13.9-8.4m)
Scanpts: 31, 37, 384, 391
Stim. (mA)     	Amp. (mV)
MS.1           	17             	4.826
MS.2           	17             	4.826
MS.3           	17             	4.792
MS.4           	17             	4.8
MS.5           	17             	4.81
MS.6           	17             	4.798
MS.7           	17             	4.788
MS.8           	17             	4.888
MS.9           	17             	4.312
MS.10          	17             	5.027
MS.11          	17             	4.838
MS.12          	17             	4.774
MS.13          	17             	4.77
MS.14          	17             	4.759
MS.15          	17             	4.747
MS.16          	17             	4.766
MS.17          	17             	4.763
MS.18          	17             	4.778
MS.19          	17             	4.763
MS.20          	17             	4.78
MS.21          	17             	4.796
MS.22          	17             	4.786
MS.23          	17             	4.772
MS.24          	16.965         	4.778
MS.25          	16.932         	4.816
MS.26          	16.897         	4.792
MS.27          	16.865         	4.774
MS.28          	16.83          	4.77
MS.29          	16.797         	4.774
MS.30          	16.762         	4.784
MS.31          	16.73          	4.768
MS.32          	16.698         	4.778
MS.33          	16.663         	4.774
MS.34          	16.63          	4.776
MS.35          	16.597         	4.788
MS.36          	16.562         	4.788
MS.37          	16.53          	4.806
MS.38          	16.497         	4.768
MS.39          	16.465         	4.774
MS.40          	16.432         	4.798
MS.41          	16.4           	4.784
MS.42          	16.365         	4.784
MS.43          	16.333         	4.794
MS.44          	16.3           	4.83
MS.45          	16.267         	4.81
MS.46          	16.235         	4.747
MS.47          	16.202         	4.848
MS.48          	16.17          	4.518
MS.49          	16.137         	4.757
MS.50          	16.108         	4.828
MS.51          	16.075         	4.739
MS.52          	16.042         	4.733
MS.53          	16.01          	4.681
MS.54          	15.977         	4.697
MS.55          	15.945         	4.675
MS.56          	15.915         	4.669
MS.57          	15.882         	4.675
MS.58          	15.85          	4.689
MS.59          	15.82          	4.747
MS.60          	15.787         	4.739
MS.61          	15.755         	4.707
MS.62          	15.725         	4.725
MS.63          	15.693         	4.739
MS.64          	15.662         	4.721
MS.65          	15.63          	4.731
MS.66          	15.6           	4.713
MS.67          	15.568         	4.701
MS.68          	15.537         	4.735
MS.69          	15.505         	4.685
MS.70          	15.475         	4.763
MS.71          	15.445         	4.743
MS.72          	15.412         	4.697
MS.73          	15.382         	4.715
MS.74          	15.352         	4.729
MS.75          	15.32          	4.737
MS.76          	15.29          	4.691
MS.77          	15.26          	4.723
MS.78          	15.23          	4.715
MS.79          	15.2           	4.729
MS.80          	15.167         	4.739
MS.81          	15.137         	4.677
MS.82          	15.108         	4.707
MS.83          	15.077         	4.717
MS.84          	15.047         	4.733
MS.85          	15.017         	4.689
MS.86          	14.987         	4.673
MS.87          	14.957         	4.689
MS.88          	14.927         	4.659
MS.89          	14.898         	4.683
MS.90          	14.867         	4.723
MS.91          	14.837         	4.699
MS.92          	14.807         	4.637
MS.93          	14.78          	4.645
MS.94          	14.75          	4.645
MS.95          	14.72          	4.661
MS.96          	14.69          	4.639
MS.97          	14.662         	4.663
MS.98          	14.632         	4.689
MS.99          	14.602         	4.61
MS.100         	14.572         	4.633
MS.101         	14.545         	4.582
MS.102         	14.515         	4.61
MS.103         	14.487         	4.586
MS.104         	14.457         	4.606
MS.105         	14.427         	4.538
MS.106         	14.4           	4.578
MS.107         	14.37          	4.57
MS.108         	14.342         	4.556
MS.109         	14.312         	4.556
MS.110         	14.285         	4.544
MS.111         	14.257         	4.564
MS.112         	14.227         	4.556
MS.113         	14.2           	4.604
MS.114         	14.17          	4.643
MS.115         	14.142         	4.512
MS.116         	14.115         	4.552
MS.117         	14.087         	4.55
MS.118         	14.057         	4.544
MS.119         	14.03          	4.516
MS.120         	14.002         	4.542
MS.121         	13.975         	4.54
MS.122         	13.947         	4.566
MS.123         	13.917         	4.578
MS.124         	13.89          	4.53
MS.125         	13.862         	4.562
MS.126         	13.835         	4.552
MS.127         	13.807         	4.526
MS.128         	13.78          	4.544
MS.129         	13.752         	4.524
MS.130         	13.725         	4.514
MS.131         	13.697         	4.548
MS.132         	13.67          	4.542
MS.133         	13.642         	4.405
MS.134         	13.615         	4.427
MS.135         	13.587         	4.479
MS.136         	13.56          	4.409
MS.137         	13.535         	4.421
MS.138         	13.507         	4.504
MS.139         	13.48          	4.451
MS.140         	13.452         	4.377
MS.141         	13.427         	4.51
MS.142         	13.4           	4.363
MS.143         	13.372         	4.341
MS.144         	13.345         	4.379
MS.145         	13.32          	4.445
MS.146         	13.292         	4.395
MS.147         	13.265         	4.471
MS.148         	13.24          	4.262
MS.149         	13.212         	4.29
MS.150         	13.188         	4.391
MS.151         	13.16          	4.292
MS.152         	13.135         	4.244
MS.153         	13.108         	4.274
MS.154         	13.082         	4.163
MS.155         	13.055         	4.312
MS.156         	13.03          	4.012
MS.157         	13.002         	4.242
MS.158         	12.977         	4.175
MS.159         	12.952         	4.137
MS.160         	12.925         	4.193
MS.161         	12.9           	3.984
MS.162         	12.875         	4.119
MS.163         	12.847         	4.036
MS.164         	12.822         	3.94
MS.165         	12.797         	4.135
MS.166         	12.773         	4.046
MS.167         	12.745         	4.133
MS.168         	12.72          	3.998
MS.169         	12.695         	4.075
MS.170         	12.67          	4.038
MS.171         	12.645         	3.956
MS.172         	12.62          	3.813
MS.173         	12.595         	4.01
MS.174         	12.568         	3.918
MS.175         	12.542         	3.762
MS.176         	12.517         	3.897
MS.177         	12.492         	3.887
MS.178         	12.467         	3.813
MS.179         	12.443         	3.851
MS.180         	12.42          	3.936
MS.181         	12.395         	3.73
MS.182         	12.37          	3.716
MS.183         	12.345         	3.692
MS.184         	12.32          	3.766
MS.185         	12.295         	3.559
MS.186         	12.27          	3.642
MS.187         	12.245         	3.668
MS.188         	12.222         	3.756
MS.189         	12.197         	3.652
MS.190         	12.172         	3.646
MS.191         	12.148         	3.642
MS.192         	12.125         	3.607
MS.193         	12.1           	3.555
MS.194         	12.075         	3.529
MS.195         	12.052         	3.573
MS.196         	12.028         	3.613
MS.197         	12.002         	3.607
MS.198         	11.98          	3.583
MS.199         	11.955         	3.489
MS.200         	11.932         	3.378
MS.201         	11.907         	3.448
MS.202         	11.885         	3.519
MS.203         	11.86          	3.39
MS.204         	11.837         	3.35
MS.205         	11.812         	3.362
MS.206         	11.79          	3.37
MS.207         	11.765         	3.339
MS.208         	11.742         	3.307
MS.209         	11.72          	3.265
MS.210         	11.695         	3.313
MS.211         	11.672         	3.38
MS.212         	11.65          	2.828
MS.213         	11.625         	3.029
MS.214         	11.602         	3.412
MS.215         	11.58          	3.368
MS.216         	11.555         	3.198
MS.217         	11.532         	3.261
MS.218         	11.51          	3.14
MS.219         	11.488         	3.078
MS.220         	11.465         	3.096
MS.221         	11.44          	3.168
MS.222         	11.417         	3.023
MS.223         	11.395         	3.106
MS.224         	11.372         	3.023
MS.225         	11.35          	3.096
MS.226         	11.327         	3.025
MS.227         	11.305         	2.902
MS.228         	11.282         	2.886
MS.229         	11.26          	2.965
MS.230         	11.238         	2.945
MS.231         	11.215         	2.955
MS.232         	11.193         	2.85
MS.233         	11.17          	2.896
MS.234         	11.148         	2.919
MS.235         	11.125         	2.868
MS.236         	11.102         	2.888
MS.237         	11.08          	2.886
MS.238         	11.057         	2.896
MS.239         	11.037         	2.854
MS.240         	11.015         	2.9
MS.241         	10.992         	2.921
MS.242         	10.97          	2.794
MS.243         	10.948         	2.743
MS.244         	10.927         	2.79
MS.245         	10.905         	2.755
MS.246         	10.882         	2.792
MS.247         	10.863         	2.818
MS.248         	10.84          	2.757
MS.249         	10.818         	2.784
MS.250         	10.797         	2.739
MS.251         	10.775         	2.725
MS.252         	10.752         	2.641
MS.253         	10.733         	2.687
MS.254         	10.71          	2.751
MS.255         	10.69          	2.725
MS.256         	10.667         	2.584
MS.257         	10.648         	2.651
MS.258         	10.625         	2.401
MS.259         	10.605         	2.393
MS.260         	10.582         	2.389
MS.261         	10.562         	2.371
MS.262         	10.54          	2.445
MS.263         	10.52          	2.155
MS.264         	10.497         	2.246
MS.265         	10.477         	2.083
MS.266         	10.457         	1.944
MS.267         	10.435         	1.924
MS.268         	10.415         	1.726
MS.269         	10.395         	1.859
MS.270         	10.372         	1.895
MS.271         	10.352         	1.964
MS.272         	10.332         	1.766
MS.273         	10.31          	1.801
MS.274         	10.29          	1.43
MS.275         	10.27          	1.847
MS.276         	10.25          	2.081
MS.277         	10.23          	1.926
MS.278         	10.207         	1.791
MS.279         	10.188         	1.515
MS.280         	10.167         	1.303
MS.281         	10.148         	1.615
MS.282         	10.127         	1.182
MS.283         	10.108         	1.428
MS.284         	10.087         	1.456
MS.285         	10.068         	1.404
MS.286         	10.047         	1.309
MS.287         	10.028         	1.341
MS.288         	10.007         	1.227
MS.289         	9.988          	1.408
MS.290         	9.967          	1.011
MS.291         	9.948          	0.981
MS.292         	9.927          	0.983
MS.293         	9.907          	0.902
MS.294         	9.887          	0.927
MS.295         	9.867          	0.759
MS.296         	9.847          	1.023
MS.297         	9.827          	0.931
MS.298         	9.807          	0.786
MS.299         	9.787          	0.777
MS.300         	9.77           	0.852
MS.301         	9.75           	0.852
MS.302         	9.73           	1.08
MS.303         	9.71           	0.578
MS.304         	9.69           	0.691
MS.305         	9.672          	0.622
MS.306         	9.653          	0.538
MS.307         	9.632          	0.463
MS.308         	9.615          	0.58
MS.309         	9.595          	0.473
MS.310         	9.575          	0.493
MS.311         	9.557          	0.427
MS.312         	9.537          	0.33
MS.313         	9.517          	0.508
MS.314         	9.5            	0.342
MS.315         	9.48           	0.483
MS.316         	9.462          	0.435
MS.317         	9.443          	0.546
MS.318         	9.422          	0.427
MS.319         	9.405          	0.409
MS.320         	9.385          	0.326
MS.321         	9.367          	0.27
MS.322         	9.347          	0.24
MS.323         	9.33           	0.377
MS.324         	9.31           	0.328
MS.325         	9.292          	0.298
MS.326         	9.275          	0.173
MS.327         	9.255          	0.266
MS.328         	9.238          	0.191
MS.329         	9.217          	0.22
MS.330         	9.2            	0.276
MS.331         	9.182          	0.038
MS.332         	9.162          	0.159
MS.333         	9.145          	0.137
MS.334         	9.127          	0.23
MS.335         	9.108          	0.173
MS.336         	9.09           	0.163
MS.337         	9.073          	0.236
MS.338         	9.055          	0.302
MS.339         	9.035          	0.167
MS.340         	9.017          	0.191
MS.341         	9              	0.159
MS.342         	8.983          	0.121
MS.343         	8.965          	0.157
MS.344         	8.945          	0.135
MS.345         	8.927          	0.133
MS.346         	8.91           	0.207
MS.347         	8.892          	0.201
MS.348         	8.875          	0.228
MS.349         	8.858          	0.147
MS.350         	8.84           	0.141
MS.351         	8.823          	0.125
MS.352         	8.805          	0.097
MS.353         	8.787          	0.093
MS.354         	8.77           	0.109
MS.355         	8.752          	0.101
MS.356         	8.735          	0.068
MS.357         	8.717          	0.075
MS.358         	8.7            	0.079
MS.359         	8.682          	0.093
MS.360         	8.665          	0.07
MS.361         	8.648          	0.068
MS.362         	8.63           	0.064
MS.363         	8.613          	0.113
MS.364         	8.595          	0.046
MS.365         	8.577          	0.056
MS.366         	8.56           	0.101
MS.367         	8.545          	0.087
MS.368         	8.528          	0.036
MS.369         	8.51           	0.048
MS.370         	8.492          	0.06
MS.371         	8.475          	0.097
MS.372         	8.46           	0.052
MS.373         	8.443          	0.099
MS.374         	8.425          	0.058
MS.375         	8.408          	0.077
MS.376         	8.392          	0.018
MS.377         	8.375          	0.02
MS.378         	8.358          	0.044
MS.379         	8.342          	0.016
MS.380         	8.325          	-0.01
MS.381         	8.307          	0.018
MS.382         	8.292          	0.014
MS.383         	8.275          	0.016
MS.384         	8.257          	0.018
MS.385         	8.242          	0.016
MS.386         	8.225          	0.02
MS.387         	8.21           	0.024
MS.388         	8.193          	0.024
MS.389         	8.175          	0.02
MS.390         	8.16           	0.018
MS.391         	8.142          	0.022
MS.392         	8.127          	0.014
MS.393         	8.11           	0.022
MS.394         	8.095          	0.018
MS.395         	8.077          	0.022
MS.396         	8.062          	0.073
MS.397         	8.047          	0.04
MS.398         	8.03           	0.062
MS.399         	8.015          	0.012
MS.400         	7.997          	0.06
MS.401         	7.982          	0.087
MS.402         	7.965          	0.097
MS.403         	7.95           	0.087
MS.404         	7.935          	0.052
MS.405         	7.918          	0.101
MS.406         	7.902          	0.097
MS.407         	7.887          	0.079
MS.408         	7.87           	0.034
MS.409         	7.855          	0.147
MS.410         	7.84           	0.05
MS.411         	7.825          	0.042
MS.412         	7.807          	0.066
MS.413         	7.793          	0.012
MS.414         	7.777          	0.101
MS.415         	7.762          	0.05
MS.416         	7.747          	0.016
MS.417         	7.73           	0.052
MS.418         	7.715          	0.042
MS.419         	7.7            	0.034
MS.420         	7.685          	0.05
MS.421         	7.67           	0.066
MS.422         	7.655          	0.099
MS.423         	7.637          	0.024
MS.424         	7.622          	0.139
MS.425         	7.607          	0.058
MS.426         	7.592          	-0.014
MS.427         	7.577          	0.075
MS.428         	7.562          	0.028
MS.429         	7.547          	0.01
MS.430         	7.532          	0.038
MS.431         	7.517          	0.081
MS.432         	7.503          	0.034
MS.433         	7.487          	0.042
MS.434         	7.472          	0.03
MS.435         	7.457          	0.07
MS.436         	7.442          	0.266
MS.437         	7.427          	0.165
MS.438         	7.412          	0.183
MS.439         	7.398          	-0.028
MS.440         	7.382          	0.131
MS.441         	7.367          	0.113
MS.442         	7.355          	0.119
MS.443         	7.34           	0.054
MS.444         	7.325          	0.079
MS.445         	7.31           	0.079
MS.446         	7.295          	0.068
MS.447         	7.28           	0.046
MS.448         	7.265          	0.097
MS.449         	7.253          	0.151
MS.450         	7.237          	0.02
MS.451         	7.222          	0.125
MS.452         	7.207          	0.03
MS.453         	7.195          	0.111
MS.454         	7.18           	0.068
MS.455         	7.165          	0.066
MS.456         	7.15           	0.058
MS.457         	7.137          	0.087
MS.458         	7.122          	0.151
MS.459         	7.108          	0.052
MS.460         	7.092          	0.139
MS.461         	7.08           	0.113
MS.462         	7.065          	0.008
MS.463         	7.052          	-0.002
MS.464         	7.037          	0.022
MS.465         	7.023          	0.089
MS.466         	7.01           	0.083
MS.467         	6.995          	0.143
MS.468         	6.98           	-0.016
MS.469         	6.967          	0.034
MS.470         	6.952          	-0.006
MS.471         	6.94           	0.044
MS.472         	6.925          	0.04
MS.473         	6.912          	0.064
MS.474         	6.898          	0.004
MS.475         	6.885          	0.036
MS.476         	6.87           	0.048
MS.477         	6.858          	0.038
MS.478         	6.842          	0.193
MS.479         	6.83           	0.026
MS.480         	6.815          	0.038
MS.481         	6.802          	0.073
MS.482         	6.787          	0.026
MS.483         	6.775          	-0.004
MS.484         	6.762          	0.068
MS.485         	6.747          	0.089
MS.486         	6.735          	0.044
MS.487         	6.72           	0.03
MS.488         	6.707          	0.026
MS.489         	6.695          	0.026
MS.490         	6.68           	0.079
MS.491         	6.668          	0.099
MS.492         	6.655          	0.038
MS.493         	6.64           	0.058
MS.494         	6.628          	0.038
MS.495         	6.615          	0.04
MS.496         	6.6            	0.02
MS.497         	6.587          	0.008
MS.498         	6.575          	0.012
MS.499         	6.562          	0.026
MS.500         	6.547          	0.05
