File:              	C:\Qtrac\Data\Daniel M Sørensen\MScan multicentre study\Data from centres\Oxford\Processed data\ATC01210F.QZD
Name:              	UK.OXF.NC.1.2
Protocol:          	MSCAN-R2
Date:              	10/12/20
Start time:        	16:27:57
Age:               	38
Sex:               	M
Temperature:       	35
S/R sites:         	APB
NC/disease:        	NC
Operator:          	AT
Comments:          	Median N 2nd
M-SCAN DATA (6.8-1.2m)
Scanpts: 11, 16, 579, 601
Stim. (mA)     	Amp. (mV)
MS.1           	17             	6.377
MS.2           	17             	6.391
MS.3           	17             	6.399
MS.4           	17             	6.395
MS.5           	17             	6.381
MS.6           	17             	6.379
MS.7           	17             	6.373
MS.8           	17             	6.409
MS.9           	17             	6.415
MS.10          	17             	6.423
MS.11          	17             	6.397
MS.12          	17             	6.399
MS.13          	17             	6.385
MS.14          	17             	6.407
MS.15          	17             	6.407
MS.16          	17             	6.395
MS.17          	17             	6.411
MS.18          	17             	6.389
MS.19          	17             	6.419
MS.20          	17             	6.419
MS.21          	17             	6.395
MS.22          	17             	6.413
MS.23          	17             	6.397
MS.24          	16.932         	6.401
MS.25          	16.897         	6.419
MS.26          	16.865         	6.488
MS.27          	16.83          	6.423
MS.28          	16.797         	6.403
MS.29          	16.762         	6.403
MS.30          	16.73          	6.399
MS.31          	16.698         	6.429
MS.32          	16.663         	6.413
MS.33          	16.63          	6.411
MS.34          	16.597         	6.443
MS.35          	16.562         	6.421
MS.36          	16.53          	6.417
MS.37          	16.497         	6.401
MS.38          	16.465         	6.417
MS.39          	16.432         	6.461
MS.40          	16.4           	6.427
MS.41          	16.365         	6.409
MS.42          	16.333         	6.389
MS.43          	16.3           	6.391
MS.44          	16.267         	6.324
MS.45          	16.235         	6.407
MS.46          	16.202         	6.421
MS.47          	16.17          	6.429
MS.48          	16.137         	6.423
MS.49          	16.108         	6.423
MS.50          	16.075         	6.335
MS.51          	16.042         	6.461
MS.52          	16.01          	6.367
MS.53          	15.977         	6.453
MS.54          	15.945         	6.417
MS.55          	15.915         	6.254
MS.56          	15.882         	6.381
MS.57          	15.85          	6.278
MS.58          	15.82          	6.365
MS.59          	15.787         	6.181
MS.60          	15.755         	6.449
MS.61          	15.725         	6.399
MS.62          	15.693         	6.403
MS.63          	15.662         	6.331
MS.64          	15.63          	6.254
MS.65          	15.6           	6.272
MS.66          	15.568         	6.433
MS.67          	15.537         	6.24
MS.68          	15.505         	6.302
MS.69          	15.475         	6.433
MS.70          	15.445         	6.218
MS.71          	15.412         	6.228
MS.72          	15.382         	6.31
MS.73          	15.352         	6.308
MS.74          	15.32          	6.216
MS.75          	15.29          	6.21
MS.76          	15.26          	6.232
MS.77          	15.23          	6.181
MS.78          	15.197         	6.234
MS.79          	15.167         	6.153
MS.80          	15.137         	6.238
MS.81          	15.108         	6.25
MS.82          	15.077         	6.236
MS.83          	15.047         	6.242
MS.84          	15.017         	6.169
MS.85          	14.987         	6.248
MS.86          	14.957         	6.244
MS.87          	14.927         	6.192
MS.88          	14.898         	6.198
MS.89          	14.867         	6.175
MS.90          	14.837         	6.171
MS.91          	14.807         	6.123
MS.92          	14.78          	6.121
MS.93          	14.75          	6.139
MS.94          	14.72          	6.105
MS.95          	14.69          	6.161
MS.96          	14.662         	6.123
MS.97          	14.632         	6.119
MS.98          	14.602         	6.123
MS.99          	14.572         	6.139
MS.100         	14.545         	6.149
MS.101         	14.515         	6.151
MS.102         	14.487         	6.151
MS.103         	14.457         	6.119
MS.104         	14.427         	6.119
MS.105         	14.4           	6.145
MS.106         	14.37          	6.087
MS.107         	14.342         	6.095
MS.108         	14.312         	6.115
MS.109         	14.285         	6.057
MS.110         	14.257         	6.125
MS.111         	14.227         	6.131
MS.112         	14.2           	6.131
MS.113         	14.17          	6.101
MS.114         	14.142         	6.121
MS.115         	14.115         	6.117
MS.116         	14.087         	6.143
MS.117         	14.057         	6.127
MS.118         	14.03          	6.167
MS.119         	14.002         	6.099
MS.120         	13.975         	6.073
MS.121         	13.945         	6.113
MS.122         	13.917         	6.109
MS.123         	13.89          	6.131
MS.124         	13.862         	6.067
MS.125         	13.835         	5.988
MS.126         	13.807         	5.968
MS.127         	13.78          	6.047
MS.128         	13.752         	6.061
MS.129         	13.725         	5.972
MS.130         	13.697         	5.976
MS.131         	13.67          	6.01
MS.132         	13.642         	5.98
MS.133         	13.615         	6.057
MS.134         	13.587         	5.962
MS.135         	13.56          	5.926
MS.136         	13.535         	5.823
MS.137         	13.507         	5.92
MS.138         	13.48          	5.906
MS.139         	13.452         	5.712
MS.140         	13.425         	5.924
MS.141         	13.4           	5.823
MS.142         	13.372         	6.004
MS.143         	13.345         	5.946
MS.144         	13.32          	5.845
MS.145         	13.292         	5.752
MS.146         	13.265         	5.871
MS.147         	13.24          	5.922
MS.148         	13.212         	5.69
MS.149         	13.188         	5.718
MS.150         	13.16          	5.865
MS.151         	13.135         	5.686
MS.152         	13.108         	5.771
MS.153         	13.082         	5.664
MS.154         	13.055         	5.617
MS.155         	13.03          	5.597
MS.156         	13.002         	5.607
MS.157         	12.977         	5.573
MS.158         	12.952         	5.704
MS.159         	12.925         	5.599
MS.160         	12.9           	5.622
MS.161         	12.875         	5.601
MS.162         	12.847         	5.587
MS.163         	12.822         	5.523
MS.164         	12.797         	5.454
MS.165         	12.773         	5.481
MS.166         	12.745         	5.531
MS.167         	12.72          	5.43
MS.168         	12.695         	5.404
MS.169         	12.67          	5.446
MS.170         	12.645         	5.434
MS.171         	12.62          	5.45
MS.172         	12.595         	5.474
MS.173         	12.568         	5.462
MS.174         	12.542         	5.315
MS.175         	12.517         	5.255
MS.176         	12.492         	5.277
MS.177         	12.467         	5.438
MS.178         	12.443         	5.241
MS.179         	12.42          	5.102
MS.180         	12.395         	5.195
MS.181         	12.37          	5.174
MS.182         	12.345         	5.195
MS.183         	12.32          	5.251
MS.184         	12.295         	5.289
MS.185         	12.27          	5.162
MS.186         	12.245         	4.925
MS.187         	12.222         	4.979
MS.188         	12.197         	5.035
MS.189         	12.172         	4.985
MS.190         	12.148         	4.943
MS.191         	12.125         	4.872
MS.192         	12.1           	4.919
MS.193         	12.075         	4.719
MS.194         	12.052         	4.776
MS.195         	12.028         	4.997
MS.196         	12.002         	4.951
MS.197         	11.98          	4.58
MS.198         	11.955         	4.482
MS.199         	11.932         	4.882
MS.200         	11.907         	4.794
MS.201         	11.885         	4.429
MS.202         	11.86          	4.538
MS.203         	11.837         	4.443
MS.204         	11.812         	4.405
MS.205         	11.79          	4.371
MS.206         	11.765         	4.431
MS.207         	11.742         	4.326
MS.208         	11.72          	4.345
MS.209         	11.695         	4.383
MS.210         	11.672         	4.383
MS.211         	11.65          	4.306
MS.212         	11.625         	4.161
MS.213         	11.602         	4.22
MS.214         	11.58          	4.052
MS.215         	11.555         	3.992
MS.216         	11.532         	4.262
MS.217         	11.51          	4.131
MS.218         	11.488         	4.014
MS.219         	11.465         	3.887
MS.220         	11.44          	4.014
MS.221         	11.417         	4.185
MS.222         	11.395         	4.061
MS.223         	11.372         	4.075
MS.224         	11.35          	4.101
MS.225         	11.327         	3.936
MS.226         	11.305         	3.843
MS.227         	11.282         	3.841
MS.228         	11.26          	3.803
MS.229         	11.238         	3.762
MS.230         	11.215         	3.809
MS.231         	11.193         	3.7
MS.232         	11.17          	3.777
MS.233         	11.148         	3.632
MS.234         	11.125         	3.69
MS.235         	11.102         	3.72
MS.236         	11.08          	3.827
MS.237         	11.057         	3.714
MS.238         	11.037         	3.756
MS.239         	11.015         	3.525
MS.240         	10.992         	3.523
MS.241         	10.97          	3.251
MS.242         	10.948         	3.356
MS.243         	10.927         	3.388
MS.244         	10.905         	3.482
MS.245         	10.882         	3.352
MS.246         	10.863         	3.402
MS.247         	10.84          	3.344
MS.248         	10.818         	3.245
MS.249         	10.797         	3.331
MS.250         	10.775         	3.225
MS.251         	10.752         	3.094
MS.252         	10.733         	3.053
MS.253         	10.71          	3.37
MS.254         	10.69          	3.255
MS.255         	10.667         	3.152
MS.256         	10.648         	2.741
MS.257         	10.625         	3.037
MS.258         	10.605         	2.921
MS.259         	10.582         	2.798
MS.260         	10.562         	2.773
MS.261         	10.54          	2.939
MS.262         	10.52          	2.788
MS.263         	10.497         	2.828
MS.264         	10.477         	2.727
MS.265         	10.457         	2.628
MS.266         	10.435         	2.834
MS.267         	10.415         	2.485
MS.268         	10.395         	2.729
MS.269         	10.372         	2.558
MS.270         	10.352         	2.228
MS.271         	10.332         	2.332
MS.272         	10.31          	2.534
MS.273         	10.29          	2.022
MS.274         	10.27          	2.487
MS.275         	10.25          	2.242
MS.276         	10.23          	2.409
MS.277         	10.207         	1.799
MS.278         	10.188         	1.843
MS.279         	10.167         	1.889
MS.280         	10.148         	2.369
MS.281         	10.127         	2.298
MS.282         	10.108         	2.05
MS.283         	10.087         	1.466
MS.284         	10.068         	1.448
MS.285         	10.047         	1.347
MS.286         	10.028         	1.486
MS.287         	10.005         	1.347
MS.288         	9.988          	1.408
MS.289         	9.967          	1.406
MS.290         	9.948          	1.372
MS.291         	9.927          	1.64
MS.292         	9.907          	1.412
MS.293         	9.887          	1.406
MS.294         	9.867          	1.184
MS.295         	9.847          	1.37
MS.296         	9.827          	1.378
MS.297         	9.807          	1.265
MS.298         	9.787          	1.16
MS.299         	9.77           	1.065
MS.300         	9.75           	1.158
MS.301         	9.73           	1.1
MS.302         	9.71           	1.156
MS.303         	9.69           	1.017
MS.304         	9.672          	1.102
MS.305         	9.653          	1.176
MS.306         	9.632          	1.118
MS.307         	9.615          	1.023
MS.308         	9.595          	1.094
MS.309         	9.575          	1.015
MS.310         	9.557          	1.007
MS.311         	9.537          	0.929
MS.312         	9.517          	1.065
MS.313         	9.5            	1.104
MS.314         	9.48           	0.945
MS.315         	9.462          	0.951
MS.316         	9.443          	0.894
MS.317         	9.422          	0.941
MS.318         	9.405          	0.914
MS.319         	9.385          	0.896
MS.320         	9.367          	0.918
MS.321         	9.347          	0.777
MS.322         	9.33           	0.931
MS.323         	9.31           	0.85
MS.324         	9.292          	0.898
MS.325         	9.275          	0.931
MS.326         	9.255          	0.777
MS.327         	9.238          	0.88
MS.328         	9.217          	0.832
MS.329         	9.2            	0.87
MS.330         	9.182          	0.824
MS.331         	9.162          	0.737
MS.332         	9.145          	0.675
MS.333         	9.127          	0.735
MS.334         	9.108          	0.777
MS.335         	9.09           	0.798
MS.336         	9.073          	0.737
MS.337         	9.055          	0.703
MS.338         	9.035          	0.711
MS.339         	9.017          	0.737
MS.340         	9              	0.786
MS.341         	8.983          	0.711
MS.342         	8.965          	0.608
MS.343         	8.945          	0.566
MS.344         	8.927          	0.705
MS.345         	8.91           	0.645
MS.346         	8.892          	0.528
MS.347         	8.875          	0.624
MS.348         	8.858          	0.449
MS.349         	8.84           	0.5
MS.350         	8.823          	0.524
MS.351         	8.805          	0.407
MS.352         	8.787          	0.457
MS.353         	8.77           	0.594
MS.354         	8.752          	0.502
MS.355         	8.735          	0.453
MS.356         	8.717          	0.536
MS.357         	8.7            	0.441
MS.358         	8.682          	0.542
MS.359         	8.665          	0.407
MS.360         	8.648          	0.363
MS.361         	8.63           	0.278
MS.362         	8.613          	0.379
MS.363         	8.595          	0.391
MS.364         	8.577          	0.379
MS.365         	8.56           	0.344
MS.366         	8.545          	0.365
MS.367         	8.528          	0.334
MS.368         	8.51           	0.296
MS.369         	8.492          	0.272
MS.370         	8.475          	0.282
MS.371         	8.46           	0.238
MS.372         	8.443          	0.117
MS.373         	8.425          	0.141
MS.374         	8.408          	0.24
MS.375         	8.392          	0.181
MS.376         	8.375          	0.252
MS.377         	8.358          	0.117
MS.378         	8.34           	0.218
MS.379         	8.325          	0.115
MS.380         	8.307          	0.115
MS.381         	8.292          	0.121
MS.382         	8.275          	0.123
MS.383         	8.257          	0.109
MS.384         	8.242          	0.149
MS.385         	8.225          	0.147
MS.386         	8.21           	0.151
MS.387         	8.193          	0.109
MS.388         	8.175          	0.25
MS.389         	8.16           	0.193
MS.390         	8.142          	0.105
MS.391         	8.127          	0.105
MS.392         	8.11           	0.139
MS.393         	8.095          	0.151
MS.394         	8.077          	0.105
MS.395         	8.062          	0.105
MS.396         	8.047          	0.105
MS.397         	8.03           	0.107
MS.398         	8.015          	0.137
MS.399         	7.997          	0.109
MS.400         	7.982          	0.115
MS.401         	7.965          	0.103
MS.402         	7.95           	0.109
MS.403         	7.935          	0.107
MS.404         	7.918          	0.107
MS.405         	7.902          	0.109
MS.406         	7.887          	0.107
MS.407         	7.87           	0.105
MS.408         	7.855          	0.107
MS.409         	7.84           	0.109
MS.410         	7.825          	0.107
MS.411         	7.807          	0.111
MS.412         	7.793          	0.113
MS.413         	7.777          	0.113
MS.414         	7.762          	0.107
MS.415         	7.747          	0.101
MS.416         	7.73           	0.103
MS.417         	7.715          	0.111
MS.418         	7.7            	0.111
MS.419         	7.685          	0.105
MS.420         	7.67           	0.111
MS.421         	7.655          	0.107
MS.422         	7.637          	0.105
MS.423         	7.622          	0.109
MS.424         	7.607          	0.101
MS.425         	7.592          	0.103
MS.426         	7.577          	0.103
MS.427         	7.562          	0.107
MS.428         	7.547          	0.107
MS.429         	7.532          	0.101
MS.430         	7.517          	0.107
MS.431         	7.503          	0.103
MS.432         	7.487          	0.105
MS.433         	7.472          	0.105
MS.434         	7.457          	0.113
MS.435         	7.442          	0.107
MS.436         	7.427          	0.105
MS.437         	7.412          	0.107
MS.438         	7.398          	0.105
MS.439         	7.382          	0.111
MS.440         	7.367          	0.109
MS.441         	7.352          	0.105
MS.442         	7.34           	0.107
MS.443         	7.325          	0.107
MS.444         	7.31           	0.103
MS.445         	7.295          	0.103
MS.446         	7.28           	0.109
MS.447         	7.265          	0.107
MS.448         	7.253          	0.109
MS.449         	7.237          	0.111
MS.450         	7.222          	0.107
MS.451         	7.207          	0.103
MS.452         	7.192          	0.107
MS.453         	7.18           	0.105
MS.454         	7.165          	0.109
MS.455         	7.15           	0.107
MS.456         	7.137          	0.103
MS.457         	7.122          	0.105
MS.458         	7.108          	0.111
MS.459         	7.092          	0.103
MS.460         	7.08           	0.103
MS.461         	7.065          	0.105
MS.462         	7.052          	0.115
MS.463         	7.037          	0.107
MS.464         	7.023          	0.103
MS.465         	7.01           	0.107
MS.466         	6.995          	0.103
MS.467         	6.98           	0.107
MS.468         	6.967          	0.105
MS.469         	6.952          	0.105
MS.470         	6.94           	0.109
MS.471         	6.925          	0.105
MS.472         	6.912          	0.109
MS.473         	6.898          	0.107
MS.474         	6.885          	0.109
MS.475         	6.87           	0.103
MS.476         	6.858          	0.101
MS.477         	6.842          	0.105
MS.478         	6.83           	0.101
MS.479         	6.815          	0.103
MS.480         	6.802          	0.107
MS.481         	6.787          	0.109
MS.482         	6.775          	0.107
MS.483         	6.762          	0.105
MS.484         	6.747          	0.109
MS.485         	6.735          	0.107
MS.486         	6.72           	0.107
MS.487         	6.707          	0.107
MS.488         	6.695          	0.107
MS.489         	6.68           	0.099
MS.490         	6.668          	0.103
MS.491         	6.655          	0.107
MS.492         	6.64           	0.101
MS.493         	6.628          	0.103
MS.494         	6.615          	0.109
MS.495         	6.6            	0.101
MS.496         	6.587          	0.107
MS.497         	6.575          	0.107
MS.498         	6.562          	0.107
MS.499         	6.547          	0.105
MS.500         	6.535          	0.107
