File:              	C:\Qtrac\Data\Daniel M Sørensen\MScan multicentre study\Data from centres\Oxford\Processed data\ATC01208A.QZD
Name:              	UK.OXF.NC.8.1
Protocol:          	MSCAN-R2
Date:              	8/12/20
Start time:        	10:09:23
Age:               	30
Sex:               	F
Temperature:       	35
S/R sites:         	APB
NC/disease:        	NC
Operator:          	AT
Comments:          	HC Median N APB 1st
M-SCAN DATA (6.7-1.1m)
Scanpts: 13, 19, 570, 578
Stim. (mA)     	Amp. (mV)
MS.1           	18.5           	5.215
MS.2           	18.5           	5.257
MS.3           	18.5           	5.176
MS.4           	18.5           	5.197
MS.5           	18.5           	5.245
MS.6           	18.5           	5.299
MS.7           	18.5           	5.261
MS.8           	18.5           	5.16
MS.9           	18.5           	5.184
MS.10          	18.5           	5.225
MS.11          	18.5           	5.237
MS.12          	18.5           	5.19
MS.13          	18.5           	5.203
MS.14          	18.5           	5.237
MS.15          	18.5           	5.199
MS.16          	18.5           	5.199
MS.17          	18.5           	5.235
MS.18          	18.5           	5.203
MS.19          	18.5           	5.227
MS.20          	18.5           	5.225
MS.21          	18.5           	5.219
MS.22          	18.5           	5.209
MS.23          	18.5           	5.193
MS.24          	18.425         	5.217
MS.25          	18.39          	5.215
MS.26          	18.352         	5.225
MS.27          	18.315         	5.193
MS.28          	18.28          	5.186
MS.29          	18.243         	5.249
MS.30          	18.208         	5.168
MS.31          	18.17          	5.168
MS.32          	18.132         	5.168
MS.33          	18.097         	5.168
MS.34          	18.06          	5.176
MS.35          	18.025         	5.182
MS.36          	17.99          	5.152
MS.37          	17.952         	5.154
MS.38          	17.917         	5.162
MS.39          	17.882         	5.174
MS.40          	17.845         	5.182
MS.41          	17.81          	5.186
MS.42          	17.775         	5.18
MS.43          	17.74          	5.178
MS.44          	17.702         	5.195
MS.45          	17.667         	5.176
MS.46          	17.632         	5.158
MS.47          	17.597         	5.14
MS.48          	17.562         	5.13
MS.49          	17.528         	5.114
MS.50          	17.493         	5.142
MS.51          	17.458         	5.134
MS.52          	17.422         	5.176
MS.53          	17.387         	5.172
MS.54          	17.352         	5.16
MS.55          	17.317         	5.13
MS.56          	17.285         	5.124
MS.57          	17.25          	5.11
MS.58          	17.215         	5.104
MS.59          	17.18          	5.118
MS.60          	17.145         	5.126
MS.61          	17.112         	5.132
MS.62          	17.077         	5.13
MS.63          	17.042         	5.114
MS.64          	17.01          	5.114
MS.65          	16.975         	5.106
MS.66          	16.942         	5.112
MS.67          	16.907         	5.104
MS.68          	16.875         	5.1
MS.69          	16.84          	5.128
MS.70          	16.807         	5.106
MS.71          	16.772         	5.104
MS.72          	16.74          	5.086
MS.73          	16.705         	5.16
MS.74          	16.672         	5.16
MS.75          	16.64          	5.118
MS.76          	16.605         	5.064
MS.77          	16.573         	5.072
MS.78          	16.54          	5.096
MS.79          	16.507         	5.058
MS.80          	16.472         	5.078
MS.81          	16.44          	5.086
MS.82          	16.407         	5.092
MS.83          	16.375         	5.052
MS.84          	16.342         	5.06
MS.85          	16.31          	5.136
MS.86          	16.278         	5.138
MS.87          	16.245         	5.132
MS.88          	16.212         	5.094
MS.89          	16.18          	5.08
MS.90          	16.147         	5.084
MS.91          	16.115         	5.082
MS.92          	16.083         	5.104
MS.93          	16.05          	5.086
MS.94          	16.02          	5.056
MS.95          	15.987         	5.054
MS.96          	15.955         	5.058
MS.97          	15.922         	5.09
MS.98          	15.89          	5.076
MS.99          	15.86          	5.049
MS.100         	15.827         	5.027
MS.101         	15.795         	5.058
MS.102         	15.765         	5.07
MS.103         	15.733         	5.062
MS.104         	15.702         	5.066
MS.105         	15.67          	5.084
MS.106         	15.64          	5.06
MS.107         	15.608         	5.084
MS.108         	15.577         	5.072
MS.109         	15.545         	5.104
MS.110         	15.515         	5.094
MS.111         	15.483         	5.072
MS.112         	15.452         	5.039
MS.113         	15.422         	4.985
MS.114         	15.39          	5.033
MS.115         	15.36          	5.023
MS.116         	15.33          	5.007
MS.117         	15.297         	4.997
MS.118         	15.267         	4.957
MS.119         	15.237         	4.939
MS.120         	15.207         	4.955
MS.121         	15.177         	4.939
MS.122         	15.148         	4.961
MS.123         	15.115         	4.949
MS.124         	15.085         	4.957
MS.125         	15.055         	4.874
MS.126         	15.025         	4.939
MS.127         	14.995         	4.947
MS.128         	14.965         	4.951
MS.129         	14.935         	4.917
MS.130         	14.905         	4.949
MS.131         	14.877         	4.957
MS.132         	14.847         	4.951
MS.133         	14.818         	4.961
MS.134         	14.787         	4.973
MS.135         	14.757         	4.919
MS.136         	14.727         	4.911
MS.137         	14.7           	4.941
MS.138         	14.67          	4.925
MS.139         	14.64          	4.913
MS.140         	14.61          	4.935
MS.141         	14.582         	4.927
MS.142         	14.552         	4.945
MS.143         	14.523         	4.923
MS.144         	14.495         	4.894
MS.145         	14.465         	4.9
MS.146         	14.438         	4.898
MS.147         	14.407         	4.917
MS.148         	14.38          	4.898
MS.149         	14.35          	4.904
MS.150         	14.322         	4.925
MS.151         	14.292         	4.917
MS.152         	14.265         	4.927
MS.153         	14.235         	4.913
MS.154         	14.207         	4.925
MS.155         	14.18          	4.927
MS.156         	14.15          	4.927
MS.157         	14.122         	4.884
MS.158         	14.095         	4.86
MS.159         	14.065         	4.929
MS.160         	14.037         	4.834
MS.161         	14.01          	4.919
MS.162         	13.983         	4.87
MS.163         	13.955         	4.854
MS.164         	13.925         	4.856
MS.165         	13.898         	4.868
MS.166         	13.87          	4.86
MS.167         	13.842         	4.868
MS.168         	13.815         	4.8
MS.169         	13.787         	4.856
MS.170         	13.76          	4.806
MS.171         	13.733         	4.8
MS.172         	13.705         	4.854
MS.173         	13.677         	4.862
MS.174         	13.65          	4.806
MS.175         	13.622         	4.806
MS.176         	13.595         	4.8
MS.177         	13.568         	4.794
MS.178         	13.542         	4.798
MS.179         	13.515         	4.804
MS.180         	13.487         	4.822
MS.181         	13.46          	4.82
MS.182         	13.432         	4.802
MS.183         	13.407         	4.794
MS.184         	13.38          	4.786
MS.185         	13.352         	4.792
MS.186         	13.327         	4.79
MS.187         	13.3           	4.747
MS.188         	13.273         	4.782
MS.189         	13.247         	4.766
MS.190         	13.22          	4.774
MS.191         	13.195         	4.77
MS.192         	13.167         	4.747
MS.193         	13.142         	4.739
MS.194         	13.115         	4.713
MS.195         	13.09          	4.719
MS.196         	13.062         	4.753
MS.197         	13.037         	4.772
MS.198         	13.01          	4.753
MS.199         	12.985         	4.733
MS.200         	12.957         	4.731
MS.201         	12.932         	4.548
MS.202         	12.907         	4.747
MS.203         	12.88          	4.737
MS.204         	12.855         	4.735
MS.205         	12.83          	4.735
MS.206         	12.805         	4.568
MS.207         	12.778         	4.727
MS.208         	12.752         	4.562
MS.209         	12.727         	4.562
MS.210         	12.702         	4.552
MS.211         	12.677         	4.729
MS.212         	12.653         	4.55
MS.213         	12.625         	4.552
MS.214         	12.6           	4.546
MS.215         	12.575         	4.55
MS.216         	12.55          	4.54
MS.217         	12.525         	4.55
MS.218         	12.5           	4.566
MS.219         	12.475         	4.437
MS.220         	12.45          	4.544
MS.221         	12.425         	4.55
MS.222         	12.4           	4.405
MS.223         	12.375         	4.542
MS.224         	12.352         	4.401
MS.225         	12.327         	4.399
MS.226         	12.302         	4.393
MS.227         	12.278         	4.453
MS.228         	12.252         	4.528
MS.229         	12.227         	4.441
MS.230         	12.205         	4.332
MS.231         	12.18          	4.399
MS.232         	12.155         	4.318
MS.233         	12.13          	4.318
MS.234         	12.108         	4.32
MS.235         	12.082         	4.282
MS.236         	12.057         	4.427
MS.237         	12.035         	4.288
MS.238         	12.01          	4.3
MS.239         	11.988         	4.345
MS.240         	11.962         	4.278
MS.241         	11.938         	4.268
MS.242         	11.915         	4.27
MS.243         	11.89          	4.234
MS.244         	11.867         	4.25
MS.245         	11.842         	4.248
MS.246         	11.82          	4.272
MS.247         	11.795         	4.294
MS.248         	11.773         	4.262
MS.249         	11.75          	4.222
MS.250         	11.725         	4.238
MS.251         	11.702         	4.155
MS.252         	11.677         	4.187
MS.253         	11.655         	4.141
MS.254         	11.632         	4.189
MS.255         	11.61          	4.143
MS.256         	11.585         	4.091
MS.257         	11.562         	4.087
MS.258         	11.54          	4.042
MS.259         	11.517         	4.065
MS.260         	11.492         	4.024
MS.261         	11.47          	3.978
MS.262         	11.447         	4.016
MS.263         	11.425         	3.998
MS.264         	11.403         	3.984
MS.265         	11.38          	3.98
MS.266         	11.355         	3.958
MS.267         	11.332         	3.926
MS.268         	11.31          	3.954
MS.269         	11.287         	3.883
MS.270         	11.265         	3.97
MS.271         	11.242         	3.841
MS.272         	11.22          	4.002
MS.273         	11.197         	3.932
MS.274         	11.175         	3.865
MS.275         	11.153         	3.837
MS.276         	11.132         	3.869
MS.277         	11.11          	3.758
MS.278         	11.087         	3.756
MS.279         	11.065         	3.823
MS.280         	11.042         	3.819
MS.281         	11.02          	3.752
MS.282         	10.997         	3.813
MS.283         	10.977         	3.817
MS.284         	10.955         	3.557
MS.285         	10.932         	3.752
MS.286         	10.91          	3.547
MS.287         	10.89          	3.773
MS.288         	10.867         	3.722
MS.289         	10.845         	3.632
MS.290         	10.825         	3.74
MS.291         	10.802         	3.708
MS.292         	10.78          	3.736
MS.293         	10.76          	3.674
MS.294         	10.738         	3.525
MS.295         	10.717         	3.533
MS.296         	10.695         	3.452
MS.297         	10.672         	3.422
MS.298         	10.653         	3.505
MS.299         	10.63          	3.487
MS.300         	10.61          	3.718
MS.301         	10.587         	3.543
MS.302         	10.568         	3.519
MS.303         	10.545         	3.386
MS.304         	10.525         	3.563
MS.305         	10.505         	3.382
MS.306         	10.483         	3.414
MS.307         	10.462         	3.382
MS.308         	10.443         	3.41
MS.309         	10.42          	3.386
MS.310         	10.4           	3.374
MS.311         	10.38          	3.184
MS.312         	10.358         	3.38
MS.313         	10.337         	3.311
MS.314         	10.318         	3.06
MS.315         	10.295         	3.301
MS.316         	10.275         	3.313
MS.317         	10.255         	3.235
MS.318         	10.235         	3.227
MS.319         	10.215         	3.166
MS.320         	10.193         	3.194
MS.321         	10.172         	3.273
MS.322         	10.153         	3.14
MS.323         	10.132         	2.912
MS.324         	10.113         	2.884
MS.325         	10.092         	3.003
MS.326         	10.073         	2.888
MS.327         	10.052         	3.086
MS.328         	10.032         	3.168
MS.329         	10.012         	2.796
MS.330         	9.992          	2.852
MS.331         	9.972          	3.217
MS.332         	9.952          	2.872
MS.333         	9.932          	2.84
MS.334         	9.912          	2.816
MS.335         	9.892          	2.79
MS.336         	9.872          	2.643
MS.337         	9.852          	2.79
MS.338         	9.832          	2.848
MS.339         	9.812          	2.822
MS.340         	9.795          	2.798
MS.341         	9.775          	2.689
MS.342         	9.755          	2.81
MS.343         	9.735          	2.747
MS.344         	9.715          	2.671
MS.345         	9.698          	2.604
MS.346         	9.677          	2.508
MS.347         	9.657          	2.584
MS.348         	9.637          	2.624
MS.349         	9.62           	2.526
MS.350         	9.6            	2.395
MS.351         	9.58           	2.536
MS.352         	9.562          	2.264
MS.353         	9.542          	2.338
MS.354         	9.523          	2.359
MS.355         	9.505          	2.383
MS.356         	9.485          	2.135
MS.357         	9.467          	2.353
MS.358         	9.448          	2.304
MS.359         	9.43           	2.171
MS.360         	9.41           	2.159
MS.361         	9.39           	2.268
MS.362         	9.372          	2.197
MS.363         	9.352          	2.177
MS.364         	9.335          	2.326
MS.365         	9.318          	1.911
MS.366         	9.297          	2.228
MS.367         	9.28           	2.109
MS.368         	9.26           	2.065
MS.369         	9.242          	2.008
MS.370         	9.222          	1.944
MS.371         	9.205          	1.45
MS.372         	9.188          	1.871
MS.373         	9.167          	1.337
MS.374         	9.15           	1.317
MS.375         	9.132          	2.014
MS.376         	9.113          	1.507
MS.377         	9.095          	1.797
MS.378         	9.077          	1.984
MS.379         	9.06           	1.307
MS.380         	9.04           	1.325
MS.381         	9.023          	1.825
MS.382         	9.005          	1.241
MS.383         	8.988          	1.237
MS.384         	8.97           	1.714
MS.385         	8.95           	1.227
MS.386         	8.932          	1.233
MS.387         	8.915          	1.208
MS.388         	8.898          	1.047
MS.389         	8.88           	1.204
MS.390         	8.863          	1.148
MS.391         	8.845          	1.031
MS.392         	8.827          	0.844
MS.393         	8.81           	1.007
MS.394         	8.792          	0.999
MS.395         	8.775          	0.872
MS.396         	8.755          	0.916
MS.397         	8.74           	0.963
MS.398         	8.722          	0.812
MS.399         	8.705          	0.818
MS.400         	8.688          	0.709
MS.401         	8.67           	0.781
MS.402         	8.653          	0.824
MS.403         	8.635          	0.671
MS.404         	8.617          	0.844
MS.405         	8.6            	0.691
MS.406         	8.582          	0.582
MS.407         	8.565          	0.671
MS.408         	8.547          	0.604
MS.409         	8.533          	0.703
MS.410         	8.515          	0.584
MS.411         	8.497          	0.57
MS.412         	8.48           	0.721
MS.413         	8.462          	0.516
MS.414         	8.448          	0.542
MS.415         	8.43           	0.558
MS.416         	8.412          	0.528
MS.417         	8.395          	0.53
MS.418         	8.38           	0.532
MS.419         	8.363          	0.51
MS.420         	8.345          	0.556
MS.421         	8.33           	0.6
MS.422         	8.312          	0.602
MS.423         	8.295          	0.57
MS.424         	8.28           	0.465
MS.425         	8.262          	0.334
MS.426         	8.247          	0.367
MS.427         	8.23           	0.522
MS.428         	8.212          	0.506
MS.429         	8.198          	0.359
MS.430         	8.18           	0.409
MS.431         	8.165          	0.153
MS.432         	8.148          	0.312
MS.433         	8.132          	0.5
MS.434         	8.115          	0.218
MS.435         	8.1            	0.264
MS.436         	8.082          	0.264
MS.437         	8.068          	0.383
MS.438         	8.05           	0.177
MS.439         	8.035          	0.23
MS.440         	8.017          	0.135
MS.441         	8.002          	0.137
MS.442         	7.987          	0.181
MS.443         	7.97           	0.292
MS.444         	7.955          	0.169
MS.445         	7.94           	0.199
MS.446         	7.922          	0.179
MS.447         	7.907          	0.159
MS.448         	7.892          	0.342
MS.449         	7.875          	0.193
MS.450         	7.86           	0.151
MS.451         	7.845          	0.153
MS.452         	7.827          	0.119
MS.453         	7.812          	0.224
MS.454         	7.797          	0.171
MS.455         	7.782          	0.177
MS.456         	7.765          	0.232
MS.457         	7.75           	0.181
MS.458         	7.735          	0.214
MS.459         	7.72           	0.222
MS.460         	7.705          	0.095
MS.461         	7.69           	0.201
MS.462         	7.672          	0.111
MS.463         	7.657          	0.093
MS.464         	7.642          	0.095
MS.465         	7.628          	0.097
MS.466         	7.612          	0.089
MS.467         	7.597          	0.095
MS.468         	7.582          	0.095
MS.469         	7.567          	0.179
MS.470         	7.552          	0.091
MS.471         	7.537          	0.097
MS.472         	7.523          	0.101
MS.473         	7.507          	0.101
MS.474         	7.492          	0.075
MS.475         	7.477          	0.097
MS.476         	7.462          	0.062
MS.477         	7.447          	0.062
MS.478         	7.432          	0.052
MS.479         	7.418          	0.075
MS.480         	7.402          	0.081
MS.481         	7.387          	0.077
MS.482         	7.372          	0.095
MS.483         	7.357          	0.095
MS.484         	7.342          	0.062
MS.485         	7.327          	0.081
MS.486         	7.315          	0.068
MS.487         	7.3            	0.101
MS.488         	7.285          	0.066
MS.489         	7.27           	0.115
MS.490         	7.255          	0.07
MS.491         	7.24           	0.097
MS.492         	7.227          	0.07
MS.493         	7.212          	0.07
MS.494         	7.197          	0.077
MS.495         	7.182          	0.077
MS.496         	7.17           	0.081
MS.497         	7.155          	0.075
MS.498         	7.14           	0.077
MS.499         	7.125          	0.077
MS.500         	7.112          	0.075
MS.501         	7.097          	0.075
