File:              	C:\Qtrac\Data\Daniel M Sørensen\MScan multicentre study\Data from centres\Oxford\Raw data (sorted for use)\ATC01204B.QZD
Name:              	UK.OXF.NC.4.1
Protocol:          	MSCAN-R2
Date:              	4/12/20
Start time:        	14:05:22
Age:               	37
Sex:               	F
Temperature:       	33.3
S/R sites:         	ADM
NC/disease:        	NC
Operator:          	AT
Comments:          	HC trial 1 ulnar n
M-SCAN DATA (5.2-2.1m)
Scanpts: 21, 26, 330, 352
Stim. (mA)     	Amp. (mV)
MS.1           	25             	6.179
MS.2           	25             	6.188
MS.3           	25             	6.276
MS.4           	25             	6.236
MS.5           	25             	6.185
MS.6           	25             	6.274
MS.7           	25             	6.171
MS.8           	25             	6.167
MS.9           	25             	6.202
MS.10          	25             	6.103
MS.11          	25             	6.105
MS.12          	25             	6.059
MS.13          	25             	6.173
MS.14          	25             	6.21
MS.15          	25             	6.155
MS.16          	25             	6.133
MS.17          	25             	6.175
MS.18          	25             	6.294
MS.19          	25             	6.26
MS.20          	25             	6.202
MS.21          	25             	6.272
MS.22          	25             	6.304
MS.23          	25             	6.212
MS.24          	24.9           	6.25
MS.25          	24.85          	6.183
MS.26          	24.8           	6.188
MS.27          	24.75          	6.23
MS.28          	24.702         	6.206
MS.29          	24.653         	6.222
MS.30          	24.602         	6.256
MS.31          	24.555         	6.192
MS.32          	24.505         	6.109
MS.33          	24.455         	6.123
MS.34          	24.407         	6.065
MS.35          	24.358         	5.964
MS.36          	24.31          	5.819
MS.37          	24.26          	5.901
MS.38          	24.212         	5.924
MS.39          	24.165         	5.833
MS.40          	24.115         	5.992
MS.41          	24.067         	5.825
MS.42          	24.02          	5.897
MS.43          	23.972         	5.926
MS.44          	23.925         	6.02
MS.45          	23.875         	5.883
MS.46          	23.827         	5.845
MS.47          	23.78          	5.829
MS.48          	23.733         	5.805
MS.49          	23.685         	5.843
MS.50          	23.637         	5.803
MS.51          	23.59          	5.74
MS.52          	23.545         	5.837
MS.53          	23.497         	5.763
MS.54          	23.45          	5.781
MS.55          	23.403         	5.771
MS.56          	23.358         	5.734
MS.57          	23.31          	5.781
MS.58          	23.262         	5.674
MS.59          	23.217         	5.692
MS.60          	23.17          	5.74
MS.61          	23.125         	5.704
MS.62          	23.077         	5.555
MS.63          	23.032         	5.567
MS.64          	22.985         	5.636
MS.65          	22.94          	5.601
MS.66          	22.895         	5.543
MS.67          	22.847         	5.72
MS.68          	22.802         	5.632
MS.69          	22.757         	5.513
MS.70          	22.712         	5.452
MS.71          	22.665         	5.579
MS.72          	22.62          	5.611
MS.73          	22.575         	5.497
MS.74          	22.53          	5.519
MS.75          	22.485         	5.472
MS.76          	22.44          	5.42
MS.77          	22.395         	5.398
MS.78          	22.35          	5.319
MS.79          	22.307         	5.458
MS.80          	22.262         	5.468
MS.81          	22.217         	5.37
MS.82          	22.172         	5.319
MS.83          	22.127         	5.273
MS.84          	22.085         	5.158
MS.85          	22.04          	5.203
MS.86          	21.995         	5.229
MS.87          	21.952         	5.045
MS.88          	21.907         	5.1
MS.89          	21.865         	5.1
MS.90          	21.82          	5.12
MS.91          	21.778         	5.066
MS.92          	21.735         	5.015
MS.93          	21.69          	5.005
MS.94          	21.647         	5.112
MS.95          	21.605         	4.913
MS.96          	21.56          	4.826
MS.97          	21.517         	4.864
MS.98          	21.475         	4.927
MS.99          	21.432         	4.79
MS.100         	21.39          	4.798
MS.101         	21.345         	4.802
MS.102         	21.302         	4.707
MS.103         	21.26          	4.745
MS.104         	21.217         	4.594
MS.105         	21.175         	4.671
MS.106         	21.135         	4.812
MS.107         	21.092         	4.58
MS.108         	21.05          	4.546
MS.109         	21.007         	4.425
MS.110         	20.965         	4.475
MS.111         	20.922         	4.33
MS.112         	20.882         	4.51
MS.113         	20.84          	4.477
MS.114         	20.797         	4.415
MS.115         	20.757         	4.191
MS.116         	20.715         	4.353
MS.117         	20.675         	4.262
MS.118         	20.632         	4.171
MS.119         	20.592         	4.288
MS.120         	20.55          	4.248
MS.121         	20.51          	4.282
MS.122         	20.467         	4.024
MS.123         	20.427         	4.222
MS.124         	20.387         	4.079
MS.125         	20.345         	3.968
MS.126         	20.305         	4.089
MS.127         	20.265         	3.905
MS.128         	20.225         	3.831
MS.129         	20.182         	3.94
MS.130         	20.142         	4
MS.131         	20.102         	3.889
MS.132         	20.062         	3.807
MS.133         	20.022         	3.605
MS.134         	19.983         	3.607
MS.135         	19.942         	3.684
MS.136         	19.903         	3.756
MS.137         	19.862         	3.777
MS.138         	19.823         	3.73
MS.139         	19.785         	3.573
MS.140         	19.745         	3.448
MS.141         	19.705         	3.37
MS.142         	19.665         	3.517
MS.143         	19.627         	3.484
MS.144         	19.587         	3.482
MS.145         	19.547         	3.537
MS.146         	19.51          	3.333
MS.147         	19.47          	3.311
MS.148         	19.43          	3.297
MS.149         	19.392         	3.291
MS.150         	19.352         	3.084
MS.151         	19.315         	3.203
MS.152         	19.275         	3.043
MS.153         	19.237         	3.037
MS.154         	19.2           	2.989
MS.155         	19.16          	3.045
MS.156         	19.122         	3.08
MS.157         	19.085         	2.751
MS.158         	19.047         	3.064
MS.159         	19.007         	2.731
MS.160         	18.97          	2.912
MS.161         	18.932         	2.616
MS.162         	18.895         	2.651
MS.163         	18.858         	2.24
MS.164         	18.82          	2.272
MS.165         	18.782         	2.451
MS.166         	18.745         	2.457
MS.167         	18.708         	2.544
MS.168         	18.67          	2.415
MS.169         	18.632         	2.292
MS.170         	18.595         	2.322
MS.171         	18.557         	2.238
MS.172         	18.52          	2.089
MS.173         	18.483         	2.266
MS.174         	18.448         	2.234
MS.175         	18.41          	2.097
MS.176         	18.372         	2.022
MS.177         	18.335         	1.982
MS.178         	18.3           	2.028
MS.179         	18.262         	1.988
MS.180         	18.227         	2.153
MS.181         	18.19          	2.258
MS.182         	18.153         	2.113
MS.183         	18.118         	1.954
MS.184         	18.08          	1.958
MS.185         	18.045         	2.042
MS.186         	18.01          	1.845
MS.187         	17.972         	1.99
MS.188         	17.938         	1.716
MS.189         	17.903         	1.817
MS.190         	17.865         	1.772
MS.191         	17.83          	1.926
MS.192         	17.795         	1.762
MS.193         	17.757         	1.605
MS.194         	17.722         	1.764
MS.195         	17.688         	1.746
MS.196         	17.653         	1.71
MS.197         	17.618         	1.563
MS.198         	17.583         	1.613
MS.199         	17.547         	1.545
MS.200         	17.512         	1.76
MS.201         	17.477         	1.571
MS.202         	17.442         	1.583
MS.203         	17.407         	1.652
MS.204         	17.372         	1.456
MS.205         	17.337         	1.432
MS.206         	17.302         	1.352
MS.207         	17.267         	1.38
MS.208         	17.235         	1.388
MS.209         	17.2           	1.331
MS.210         	17.165         	1.211
MS.211         	17.13          	1.273
MS.212         	17.097         	1.098
MS.213         	17.062         	1.08
MS.214         	17.028         	1.285
MS.215         	16.995         	1.279
MS.216         	16.96          	1.031
MS.217         	16.927         	0.953
MS.218         	16.892         	1.122
MS.219         	16.86          	0.963
MS.220         	16.825         	1.198
MS.221         	16.792         	0.816
MS.222         	16.757         	1.202
MS.223         	16.725         	0.816
MS.224         	16.69          	0.753
MS.225         	16.657         	1.078
MS.226         	16.625         	0.943
MS.227         	16.59          	0.902
MS.228         	16.557         	0.943
MS.229         	16.525         	0.681
MS.230         	16.493         	0.836
MS.231         	16.46          	0.685
MS.232         	16.425         	0.598
MS.233         	16.392         	0.786
MS.234         	16.36          	0.59
MS.235         	16.327         	0.647
MS.236         	16.295         	0.679
MS.237         	16.262         	0.542
MS.238         	16.23          	0.592
MS.239         	16.198         	0.495
MS.240         	16.165         	0.566
MS.241         	16.132         	0.544
MS.242         	16.1           	0.604
MS.243         	16.067         	0.52
MS.244         	16.038         	0.469
MS.245         	16.005         	0.57
MS.246         	15.972         	0.417
MS.247         	15.94          	0.491
MS.248         	15.91          	0.443
MS.249         	15.877         	0.31
MS.250         	15.845         	0.429
MS.251         	15.812         	0.463
MS.252         	15.782         	0.252
MS.253         	15.75          	0.318
MS.254         	15.72          	0.348
MS.255         	15.688         	0.361
MS.256         	15.657         	0.312
MS.257         	15.625         	0.342
MS.258         	15.595         	0.363
MS.259         	15.562         	0.226
MS.260         	15.532         	0.485
MS.261         	15.5           	0.433
MS.262         	15.47          	0.312
MS.263         	15.438         	0.248
MS.264         	15.407         	0.294
MS.265         	15.377         	0.201
MS.266         	15.347         	0.242
MS.267         	15.315         	0.222
MS.268         	15.285         	0.252
MS.269         	15.255         	0.35
MS.270         	15.225         	0.298
MS.271         	15.193         	0.236
MS.272         	15.162         	0.181
MS.273         	15.132         	0.205
MS.274         	15.102         	0.151
MS.275         	15.072         	0.3
MS.276         	15.042         	0.101
MS.277         	15.012         	0.141
MS.278         	14.983         	0.175
MS.279         	14.952         	0.222
MS.280         	14.922         	0.099
MS.281         	14.892         	0.135
MS.282         	14.862         	0.197
MS.283         	14.832         	0.232
MS.284         	14.802         	0.185
MS.285         	14.775         	0.103
MS.286         	14.745         	0.105
MS.287         	14.715         	0.107
MS.288         	14.685         	0.105
MS.289         	14.657         	0.201
MS.290         	14.627         	0.203
MS.291         	14.597         	0.062
MS.292         	14.568         	0.111
MS.293         	14.54          	0.113
MS.294         	14.51          	0.004
MS.295         	14.483         	0.103
MS.296         	14.452         	0.06
MS.297         	14.422         	0.062
MS.298         	14.395         	0.109
MS.299         	14.365         	0.064
MS.300         	14.337         	0.062
MS.301         	14.31          	0.062
MS.302         	14.28          	0.034
MS.303         	14.252         	0.062
MS.304         	14.222         	0.066
MS.305         	14.195         	-0.008
MS.306         	14.167         	-0.008
MS.307         	14.137         	-0.008
MS.308         	14.11          	-0.008
MS.309         	14.082         	-0.008
MS.310         	14.052         	0.004
MS.311         	14.025         	0.066
MS.312         	13.997         	-0.006
MS.313         	13.97          	-0.008
MS.314         	13.943         	0.032
MS.315         	13.912         	-0.008
MS.316         	13.885         	-0.008
MS.317         	13.858         	-0.006
MS.318         	13.83          	0.000
MS.319         	13.802         	0.066
MS.320         	13.775         	-0.006
MS.321         	13.747         	-0.006
MS.322         	13.72          	-0.006
MS.323         	13.693         	-0.008
MS.324         	13.665         	0.03
MS.325         	13.637         	-0.008
MS.326         	13.61          	-0.006
MS.327         	13.582         	-0.004
MS.328         	13.557         	-0.004
MS.329         	13.53          	-0.006
MS.330         	13.502         	-0.004
MS.331         	13.475         	-0.004
MS.332         	13.447         	-0.006
MS.333         	13.422         	-0.004
MS.334         	13.395         	-0.006
MS.335         	13.367         	-0.006
MS.336         	13.342         	-0.004
MS.337         	13.315         	-0.006
MS.338         	13.287         	-0.008
MS.339         	13.262         	-0.006
MS.340         	13.235         	-0.006
MS.341         	13.207         	-0.006
MS.342         	13.182         	-0.006
MS.343         	13.155         	-0.004
MS.344         	13.13          	-0.008
MS.345         	13.102         	-0.002
MS.346         	13.077         	-0.004
MS.347         	13.05          	-0.004
MS.348         	13.025         	-0.004
MS.349         	13             	-0.004
MS.350         	12.972         	-0.006
MS.351         	12.947         	-0.004
MS.352         	12.92          	-0.006
DERIVED EXCITABILITY VARIABLES
Program = QTracP 3/4/2020
Threshold method = 6 (optimised for CAP, using data for present condition only)
SR method = 1 (using actual data values)
6.                 	0.000               	Peak response\(mV)
9.                 	33.3                	Temperature ( C)
17.                	37                  	Age (years)
18.                	2                   	Sex (M=1, F=2)

EXTRA VARIABLES

MScPeak(mV) = 6.2
MScS5(mA) = 15.52
MScS50(mA) = 19.33
MScS95(mA) = 24.13
MScNSteps = 0
MScSteps(%) = 0.0
MScStepMax(%) = 0.0
MScD50 = 52
MScSlope = 5.25
MSFPeakAmp(mV) = 6.24
MSFNUnits = 123
MSFMeanUnitAmp(uV) = 50.7
MSFHuntTime(m) = 1.98
MSFError(%) = 3.29
MSFNLarge = 35.6
MSFMedianAmp(%) = 0.655
MSFMedianAmp(mV) = 0.0409
MSFHalfAmpAmp(%) = 0.903
MSFHalfAmpAmp(mV) = 0.0563
MSFLargestAmp(%) = 3.98
MSFLargestAmp(mV) = 0.248
MSFMeanRS(%) = 2
MSFOpts = 10106121
MScDuration(min) = 3.1
MSFTraces = 332
MSFSizeLimit(uV) = 15.6
MSFLimitType = 1
MSFSmallestAmp(uV) = 16.7

EXTRA WAVEFORMS


!MScan Model
!123
	1	14.17	0.47	2
	2	14.28	0.3	2
	3	14.42	1.06	2
	4	14.94	1.23	2
	5	15.24	1.01	2
	6	15.47	1.04	2
	7	15.75	0.93	2
	8	15.83	0.65	2
	9	15.89	0.41	2
	10	15.96	0.53	2
	11	16.04	0.87	2
	12	16.13	0.61	2
	13	16.23	0.71	2
	14	16.31	0.7	2
	15	16.36	0.42	2
	16	16.41	0.67	2
	17	16.45	0.85	2
	18	16.58	1.31	2
	19	16.9	3.98	2
	20	17.01	0.85	2
	21	17.06	0.59	2
	22	17.12	0.84	2
	23	17.15	0.42	2
	24	17.17	0.33	2
	25	17.19	0.33	2
	26	17.21	0.33	2
	27	17.24	0.33	2
	28	17.26	0.46	2
	29	17.28	0.46	2
	30	17.3	0.47	2
	31	17.36	1.24	2
	32	17.42	0.41	2
	33	17.49	0.83	2
	34	17.62	1.46	2
	35	17.71	0.83	2
	36	17.79	0.65	2
	37	17.86	0.83	2
	38	17.92	0.65	2
	39	18.03	1.73	2
	40	18.35	2.48	2
	41	18.42	0.36	2
	42	18.45	0.27	2
	43	18.49	0.64	2
	44	18.53	0.85	2
	45	18.71	2.13	2
	46	18.78	1.3	2
	47	18.85	1.4	2
	48	18.91	1.81	2
	49	18.97	1.18	2
	50	19.02	0.66	2
	51	19.07	1.21	2
	52	19.13	1.44	2
	53	19.19	1.62	2
	54	19.26	1.04	2
	55	19.3	0.59	2
	56	19.33	0.48	2
	57	19.37	0.51	2
	58	19.4	0.54	2
	59	19.43	0.53	2
	60	19.46	0.53	2
	61	19.52	0.87	2
	62	19.58	1.07	2
	63	19.63	0.93	2
	64	19.71	1.18	2
	65	19.82	0.78	2
	66	19.94	1.48	2
	67	20.06	2.02	2
	68	20.12	0.59	2
	69	20.17	0.55	2
	70	20.23	0.78	2
	71	20.28	0.77	2
	72	20.32	0.64	2
	73	20.4	0.81	2
	74	20.45	0.6	2
	75	20.53	1.26	2
	76	20.67	1.53	2
	77	20.73	0.56	2
	78	20.78	0.4	2
	79	20.84	0.65	2
	80	20.89	0.82	2
	81	20.96	0.93	2
	82	21.02	0.69	2
	83	21.08	0.77	2
	84	21.16	0.9	2
	85	21.24	1.03	2
	86	21.31	0.64	2
	87	21.34	0.28	2
	88	21.37	0.28	2
	89	21.4	0.34	2
	90	21.43	0.47	2
	91	21.46	0.35	2
	92	21.49	0.34	2
	93	21.53	0.42	2
	94	21.59	0.65	2
	95	21.65	0.61	2
	96	21.71	0.54	2
	97	21.77	0.58	2
	98	21.82	0.45	2
	99	21.87	0.47	2
	100	21.92	0.62	2
	101	21.98	0.51	2
	102	22.03	0.42	2
	103	22.07	0.34	2
	104	22.11	0.4	2
	105	22.15	0.46	2
	106	22.21	0.63	2
	107	22.28	0.85	2
	108	22.35	0.77	2
	109	22.43	0.66	2
	110	22.75	1.79	2
	111	23.08	1.51	2
	112	23.26	0.65	2
	113	23.36	0.55	2
	114	23.46	0.51	2
	115	23.58	0.39	2
	116	23.75	0.78	2
	117	24.1	0.78	2
	118	24.21	0.95	2
	119	24.3	0.95	2
	120	24.41	0.4	2
	121	24.45	0.46	2
	122	24.49	0.98	2
	123	24.69	1.26	2

