File:              	C:\Qtrac\Data\Daniel M Sørensen\MScan multicentre study\Data from centres\Newcastle\Processed data\SMC00303A.QZD
Name:              	UK.NEW.NC.6.2
Protocol:          	MSCAN-R2
Date:              	3/3/20
Start time:        	12:36:45
Age:               	54
Sex:               	F
Temperature:       	31.6
S/R sites:         	APB
NC/disease:        	NC
Operator:          	SM
Comments:
M-SCAN DATA (6-1.6m)
Scanpts: 45, 61, 459, 481
Stim. (mA)     	Amp. (mV)
MS.1           	14             	11.958
MS.2           	14             	11.956
MS.3           	14             	11.952
MS.4           	14             	11.926
MS.5           	14             	11.93
MS.6           	14             	11.928
MS.7           	14             	11.928
MS.8           	14             	11.93
MS.9           	14             	11.946
MS.10          	14             	11.934
MS.11          	14             	11.932
MS.12          	14             	11.922
MS.13          	14             	11.918
MS.14          	14             	11.922
MS.15          	14             	11.916
MS.16          	14             	11.92
MS.17          	14             	11.92
MS.18          	14             	11.912
MS.19          	14             	11.91
MS.20          	14             	11.926
MS.21          	14             	11.916
MS.22          	14             	11.91
MS.23          	14             	11.942
MS.24          	13.945         	11.918
MS.25          	13.915         	11.936
MS.26          	13.887         	11.942
MS.27          	13.86          	11.92
MS.28          	13.832         	11.932
MS.29          	13.805         	11.926
MS.30          	13.778         	11.932
MS.31          	13.75          	11.928
MS.32          	13.722         	11.922
MS.33          	13.695         	11.928
MS.34          	13.667         	11.912
MS.35          	13.64          	11.922
MS.36          	13.612         	11.926
MS.37          	13.585         	11.918
MS.38          	13.56          	11.928
MS.39          	13.532         	11.916
MS.40          	13.505         	11.918
MS.41          	13.477         	11.928
MS.42          	13.45          	11.918
MS.43          	13.425         	11.93
MS.44          	13.398         	11.93
MS.45          	13.37          	11.906
MS.46          	13.345         	11.926
MS.47          	13.318         	11.928
MS.48          	13.29          	11.916
MS.49          	13.265         	11.91
MS.50          	13.237         	11.92
MS.51          	13.21          	11.908
MS.52          	13.185         	11.916
MS.53          	13.157         	11.922
MS.54          	13.132         	11.908
MS.55          	13.105         	11.91
MS.56          	13.08          	11.916
MS.57          	13.052         	11.922
MS.58          	13.028         	11.924
MS.59          	13.002         	11.93
MS.60          	12.975         	11.92
MS.61          	12.95          	11.908
MS.62          	12.922         	11.932
MS.63          	12.898         	11.922
MS.64          	12.872         	11.938
MS.65          	12.847         	11.896
MS.66          	12.82          	11.932
MS.67          	12.795         	11.894
MS.68          	12.77          	11.9
MS.69          	12.745         	11.918
MS.70          	12.717         	11.898
MS.71          	12.693         	11.91
MS.72          	12.667         	11.91
MS.73          	12.642         	11.886
MS.74          	12.617         	11.89
MS.75          	12.592         	11.89
MS.76          	12.568         	11.898
MS.77          	12.542         	11.9
MS.78          	12.517         	11.906
MS.79          	12.492         	11.698
MS.80          	12.467         	11.896
MS.81          	12.443         	11.755
MS.82          	12.417         	11.888
MS.83          	12.392         	11.873
MS.84          	12.367         	11.833
MS.85          	12.342         	11.704
MS.86          	12.318         	11.696
MS.87          	12.292         	11.739
MS.88          	12.267         	11.696
MS.89          	12.245         	11.732
MS.90          	12.22          	11.692
MS.91          	12.195         	11.694
MS.92          	12.17          	11.712
MS.93          	12.148         	11.68
MS.94          	12.122         	11.694
MS.95          	12.097         	11.666
MS.96          	12.075         	11.688
MS.97          	12.05          	11.686
MS.98          	12.025         	11.674
MS.99          	12.002         	11.692
MS.100         	11.977         	11.694
MS.101         	11.955         	11.68
MS.102         	11.93          	11.694
MS.103         	11.905         	11.692
MS.104         	11.882         	11.67
MS.105         	11.858         	11.696
MS.106         	11.835         	11.672
MS.107         	11.812         	11.668
MS.108         	11.787         	11.688
MS.109         	11.765         	11.682
MS.110         	11.74          	11.678
MS.111         	11.717         	11.696
MS.112         	11.693         	11.668
MS.113         	11.67          	11.678
MS.114         	11.648         	11.684
MS.115         	11.625         	11.692
MS.116         	11.6           	11.694
MS.117         	11.577         	11.688
MS.118         	11.555         	11.7
MS.119         	11.53          	11.68
MS.120         	11.507         	11.696
MS.121         	11.485         	11.692
MS.122         	11.462         	11.674
MS.123         	11.44          	11.644
MS.124         	11.417         	11.583
MS.125         	11.392         	11.571
MS.126         	11.37          	11.575
MS.127         	11.347         	11.563
MS.128         	11.325         	11.596
MS.129         	11.302         	11.463
MS.130         	11.28          	11.686
MS.131         	11.257         	11.545
MS.132         	11.235         	11.471
MS.133         	11.212         	11.688
MS.134         	11.19          	11.495
MS.135         	11.167         	11.453
MS.136         	11.145         	11.461
MS.137         	11.122         	11.457
MS.138         	11.1           	11.575
MS.139         	11.08          	11.473
MS.140         	11.057         	11.469
MS.141         	11.035         	11.463
MS.142         	11.012         	11.533
MS.143         	10.99          	11.473
MS.144         	10.97          	11.432
MS.145         	10.948         	11.446
MS.146         	10.925         	11.432
MS.147         	10.903         	11.451
MS.148         	10.882         	11.473
MS.149         	10.86          	11.477
MS.150         	10.837         	11.465
MS.151         	10.818         	11.432
MS.152         	10.795         	11.473
MS.153         	10.773         	11.453
MS.154         	10.752         	11.434
MS.155         	10.73          	11.473
MS.156         	10.707         	11.404
MS.157         	10.688         	11.448
MS.158         	10.665         	11.41
MS.159         	10.645         	11.279
MS.160         	10.622         	11.406
MS.161         	10.602         	11.402
MS.162         	10.58          	11.356
MS.163         	10.56          	11.378
MS.164         	10.537         	11.293
MS.165         	10.517         	11.402
MS.166         	10.497         	11.269
MS.167         	10.475         	11.42
MS.168         	10.455         	11.06
MS.169         	10.435         	11.32
MS.170         	10.412         	11.201
MS.171         	10.392         	11.114
MS.172         	10.372         	11.257
MS.173         	10.35          	11.007
MS.174         	10.33          	11.134
MS.175         	10.31          	10.828
MS.176         	10.29          	10.997
MS.177         	10.267         	10.995
MS.178         	10.247         	11.084
MS.179         	10.227         	10.915
MS.180         	10.207         	10.895
MS.181         	10.188         	10.659
MS.182         	10.165         	10.796
MS.183         	10.145         	10.707
MS.184         	10.125         	10.653
MS.185         	10.105         	10.824
MS.186         	10.085         	10.621
MS.187         	10.065         	10.776
MS.188         	10.045         	10.709
MS.189         	10.025         	10.681
MS.190         	10.005         	10.578
MS.191         	9.985          	10.667
MS.192         	9.965          	10.695
MS.193         	9.945          	10.667
MS.194         	9.925          	10.534
MS.195         	9.905          	10.599
MS.196         	9.885          	10.566
MS.197         	9.865          	10.655
MS.198         	9.845          	10.401
MS.199         	9.825          	10.453
MS.200         	9.807          	10.546
MS.201         	9.787          	10.339
MS.202         	9.767          	10.419
MS.203         	9.747          	10.296
MS.204         	9.727          	10.363
MS.205         	9.71           	10.347
MS.206         	9.69           	10.19
MS.207         	9.67           	10.325
MS.208         	9.65           	10.323
MS.209         	9.632          	10.296
MS.210         	9.613          	10.2
MS.211         	9.592          	10.133
MS.212         	9.575          	10.095
MS.213         	9.555          	10.228
MS.214         	9.535          	10.093
MS.215         	9.517          	10.113
MS.216         	9.497          	9.978
MS.217         	9.48           	9.964
MS.218         	9.46           	10.143
MS.219         	9.44           	9.942
MS.220         	9.422          	9.942
MS.221         	9.403          	9.755
MS.222         	9.385          	9.879
MS.223         	9.365          	9.883
MS.224         	9.347          	9.817
MS.225         	9.327          	9.996
MS.226         	9.31           	9.863
MS.227         	9.29           	9.545
MS.228         	9.273          	9.885
MS.229         	9.255          	9.831
MS.230         	9.235          	9.634
MS.231         	9.217          	9.597
MS.232         	9.198          	9.593
MS.233         	9.18           	9.869
MS.234         	9.162          	9.73
MS.235         	9.142          	9.569
MS.236         	9.125          	9.751
MS.237         	9.108          	9.545
MS.238         	9.09           	9.43
MS.239         	9.07           	9.579
MS.240         	9.052          	9.521
MS.241         	9.035          	9.422
MS.242         	9.017          	9.602
MS.243         	8.997          	9.41
MS.244         	8.98           	9.247
MS.245         	8.962          	9.382
MS.246         	8.945          	9.479
MS.247         	8.927          	9.32
MS.248         	8.91           	9.191
MS.249         	8.89           	8.973
MS.250         	8.872          	9.14
MS.251         	8.855          	8.88
MS.252         	8.837          	8.693
MS.253         	8.82           	8.455
MS.254         	8.802          	8.876
MS.255         	8.785          	8.514
MS.256         	8.767          	8.248
MS.257         	8.75           	8.266
MS.258         	8.733          	8.306
MS.259         	8.715          	7.779
MS.260         	8.698          	7.382
MS.261         	8.68           	7.779
MS.262         	8.662          	7.763
MS.263         	8.645          	7.885
MS.264         	8.627          	7.342
MS.265         	8.61           	7.178
MS.266         	8.595          	7.847
MS.267         	8.577          	6.999
MS.268         	8.56           	7.394
MS.269         	8.542          	7.328
MS.270         	8.525          	6.774
MS.271         	8.507          	7.039
MS.272         	8.492          	6.324
MS.273         	8.475          	6.969
MS.274         	8.457          	6.214
MS.275         	8.44           	6.194
MS.276         	8.422          	6.371
MS.277         	8.408          	6.272
MS.278         	8.39           	5.942
MS.279         	8.372          	6.04
MS.280         	8.358          	5.779
MS.281         	8.34           	5.231
MS.282         	8.323          	5.801
MS.283         	8.307          	5.483
MS.284         	8.29           	5.43
MS.285         	8.273          	4.804
MS.286         	8.257          	5.696
MS.287         	8.24           	5.505
MS.288         	8.225          	4.816
MS.289         	8.207          	4.717
MS.290         	8.19           	4.776
MS.291         	8.175          	4.54
MS.292         	8.158          	4.643
MS.293         	8.142          	4.824
MS.294         	8.125          	4.671
MS.295         	8.11           	4.367
MS.296         	8.092          	4.075
MS.297         	8.077          	4.548
MS.298         	8.06           	4.298
MS.299         	8.045          	4.288
MS.300         	8.03           	4.081
MS.301         	8.012          	3.793
MS.302         	7.997          	4.226
MS.303         	7.98           	3.897
MS.304         	7.965          	4.016
MS.305         	7.95           	3.499
MS.306         	7.932          	3.378
MS.307         	7.918          	3.754
MS.308         	7.902          	3.815
MS.309         	7.885          	3.434
MS.310         	7.87           	3.366
MS.311         	7.855          	3.464
MS.312         	7.837          	3.086
MS.313         	7.822          	3.293
MS.314         	7.807          	3.273
MS.315         	7.793          	3.142
MS.316         	7.775          	2.888
MS.317         	7.76           	2.796
MS.318         	7.745          	2.792
MS.319         	7.73           	2.912
MS.320         	7.715          	2.782
MS.321         	7.697          	2.927
MS.322         	7.682          	3.09
MS.323         	7.668          	2.991
MS.324         	7.652          	2.782
MS.325         	7.637          	2.786
MS.326         	7.622          	2.616
MS.327         	7.607          	2.562
MS.328         	7.592          	2.765
MS.329         	7.577          	2.653
MS.330         	7.562          	2.342
MS.331         	7.547          	2.633
MS.332         	7.53           	2.417
MS.333         	7.515          	2.622
MS.334         	7.5            	2.212
MS.335         	7.485          	2.302
MS.336         	7.47           	2.334
MS.337         	7.457          	2.316
MS.338         	7.442          	2.187
MS.339         	7.427          	2.258
MS.340         	7.412          	2.191
MS.341         	7.398          	2.214
MS.342         	7.382          	2.103
MS.343         	7.367          	2.276
MS.344         	7.352          	2.01
MS.345         	7.337          	1.996
MS.346         	7.322          	2.089
MS.347         	7.307          	1.964
MS.348         	7.295          	1.823
MS.349         	7.28           	1.668
MS.350         	7.265          	1.875
MS.351         	7.25           	1.948
MS.352         	7.235          	1.93
MS.353         	7.222          	1.581
MS.354         	7.207          	1.926
MS.355         	7.192          	1.897
MS.356         	7.177          	1.706
MS.357         	7.165          	1.827
MS.358         	7.15           	1.539
MS.359         	7.135          	1.635
MS.360         	7.12           	1.505
MS.361         	7.108          	1.388
MS.362         	7.092          	1.347
MS.363         	7.077          	1.323
MS.364         	7.065          	1.313
MS.365         	7.05           	1.233
MS.366         	7.035          	1.299
MS.367         	7.023          	1.402
MS.368         	7.007          	1.267
MS.369         	6.995          	1.132
MS.370         	6.98           	1.41
MS.371         	6.965          	0.997
MS.372         	6.952          	0.814
MS.373         	6.938          	1.065
MS.374         	6.925          	0.9
MS.375         	6.91           	0.971
MS.376         	6.898          	0.884
MS.377         	6.882          	0.826
MS.378         	6.87           	0.79
MS.379         	6.855          	0.808
MS.380         	6.842          	0.588
MS.381         	6.827          	0.588
MS.382         	6.815          	0.624
MS.383         	6.8            	0.868
MS.384         	6.787          	0.413
MS.385         	6.773          	0.695
MS.386         	6.76           	0.433
MS.387         	6.747          	0.306
MS.388         	6.733          	0.489
MS.389         	6.72           	0.254
MS.390         	6.707          	0.139
MS.391         	6.692          	0.226
MS.392         	6.68           	0.066
MS.393         	6.665          	0.282
MS.394         	6.652          	0.328
MS.395         	6.64           	0.254
MS.396         	6.628          	0.046
MS.397         	6.612          	0.068
MS.398         	6.6            	0.097
MS.399         	6.587          	0.062
MS.400         	6.572          	0.127
MS.401         	6.56           	0.097
MS.402         	6.547          	0.05
MS.403         	6.535          	0.093
MS.404         	6.52           	0.052
MS.405         	6.507          	0.03
MS.406         	6.495          	0.05
MS.407         	6.483          	0.03
MS.408         	6.47           	0.048
MS.409         	6.457          	0.054
MS.410         	6.442          	0.107
MS.411         	6.43           	0.05
MS.412         	6.418          	0.024
MS.413         	6.405          	0.03
MS.414         	6.392          	0.03
MS.415         	6.38           	0.032
MS.416         	6.367          	0.032
MS.417         	6.355          	0.024
MS.418         	6.34           	0.028
MS.419         	6.327          	0.03
MS.420         	6.315          	0.03
MS.421         	6.302          	0.03
MS.422         	6.29           	0.028
MS.423         	6.277          	0.028
MS.424         	6.265          	0.026
MS.425         	6.253          	0.022
MS.426         	6.24           	0.028
MS.427         	6.227          	0.032
MS.428         	6.215          	0.034
MS.429         	6.202          	0.026
MS.430         	6.19           	0.026
MS.431         	6.177          	0.022
MS.432         	6.165          	0.026
MS.433         	6.152          	0.026
MS.434         	6.142          	0.02
MS.435         	6.13           	0.024
MS.436         	6.117          	0.006
MS.437         	6.105          	0.026
MS.438         	6.092          	0.02
MS.439         	6.08           	0.022
MS.440         	6.067          	0.028
MS.441         	6.055          	0.026
MS.442         	6.045          	0.022
MS.443         	6.032          	0.034
MS.444         	6.02           	0.024
MS.445         	6.007          	0.024
MS.446         	5.995          	0.028
MS.447         	5.985          	0.02
MS.448         	5.972          	0.024
MS.449         	5.96           	0.028
MS.450         	5.947          	0.026
MS.451         	5.935          	0.026
MS.452         	5.925          	0.02
MS.453         	5.912          	0.03
MS.454         	5.9            	0.028
MS.455         	5.89           	0.024
MS.456         	5.878          	0.000
MS.457         	5.865          	0.000
MS.458         	5.852          	0.024
MS.459         	5.842          	0.02
MS.460         	5.83           	0.004
MS.461         	5.817          	0.016
MS.462         	5.807          	0.002
MS.463         	5.795          	0.008
MS.464         	5.785          	0.000
MS.465         	5.773          	0.022
MS.466         	5.76           	0.04
MS.467         	5.75           	0.024
MS.468         	5.737          	-0.002
MS.469         	5.725          	0.014
MS.470         	5.715          	0.000
MS.471         	5.702          	-0.002
MS.472         	5.692          	-0.002
MS.473         	5.68           	0.000
MS.474         	5.67           	0.004
MS.475         	5.657          	-0.006
MS.476         	5.648          	0.018
MS.477         	5.635          	0.024
MS.478         	5.625          	0.002
MS.479         	5.612          	-0.002
MS.480         	5.602          	-0.002
MS.481         	5.59           	-0.002
DERIVED EXCITABILITY VARIABLES
Program = QTracP 9/10/2021
Threshold method = 6 (optimised for CAP, using data for present condition only)
SR method = 1 (using actual data values)
6.                 	0.000               	Peak response\(mV)
9.                 	31.6                	Temperature ( C)
17.                	54                  	Age (years)
18.                	2                   	Sex (M=1, F=2)

EXTRA VARIABLES

MScPeak(mV) = 11.92
MScS5(mA) = 6.8
MScS50(mA) = 8.38
MScS95(mA) = 10.55
MScNSteps = 4
MScSteps(%) = 11.7
MScStepMax(%) = 3.4
MScD50 = 39
