File:              	C:\Qtrac\Data\Daniel M Sørensen\MScan multicentre study\Data from centres\Newcastle\Processed data\SMC00226D.QZD
Name:              	UK.NEW.NC.8.1
Protocol:          	MSCAN-R2
Date:              	26/2/20
Start time:        	11:43:18
Age:               	62
Sex:               	M
Temperature:       	23.9
S/R sites:         	APB
NC/disease:        	NC
Operator:          	SM
Comments:          	Low peak despite replace
M-SCAN DATA (8.2-3.1m)
Scanpts: 140, 153, 531, 553
Stim. (mA)     	Amp. (mV)
MS.1           	20             	7.954
MS.2           	20             	7.972
MS.3           	20             	7.942
MS.4           	20             	7.98
MS.5           	20             	7.948
MS.6           	20             	7.944
MS.7           	20             	7.962
MS.8           	20             	7.92
MS.9           	20             	7.92
MS.10          	20             	7.883
MS.11          	20             	7.841
MS.12          	20             	7.891
MS.13          	20             	7.867
MS.14          	20             	7.821
MS.15          	20             	7.823
MS.16          	20             	7.841
MS.17          	20             	7.877
MS.18          	20             	7.918
MS.19          	20             	7.805
MS.20          	20             	7.902
MS.21          	20             	7.859
MS.22          	20             	7.885
MS.23          	20             	7.855
MS.24          	19.92          	7.879
MS.25          	19.88          	7.914
MS.26          	19.84          	7.849
MS.27          	19.8           	7.891
MS.28          	19.762         	7.851
MS.29          	19.722         	7.883
MS.30          	19.682         	7.843
MS.31          	19.642         	7.891
MS.32          	19.605         	7.839
MS.33          	19.565         	7.831
MS.34          	19.525         	7.893
MS.35          	19.487         	7.934
MS.36          	19.448         	7.932
MS.37          	19.41          	7.984
MS.38          	19.37          	7.908
MS.39          	19.333         	7.99
MS.40          	19.292         	8.026
MS.41          	19.255         	8.069
MS.42          	19.215         	7.978
MS.43          	19.177         	7.994
MS.44          	19.14          	8.036
MS.45          	19.1           	7.996
MS.46          	19.062         	7.962
MS.47          	19.025         	8.022
MS.48          	18.987         	7.988
MS.49          	18.948         	7.962
MS.50          	18.91          	7.976
MS.51          	18.872         	7.984
MS.52          	18.835         	8.014
MS.53          	18.797         	7.964
MS.54          	18.76          	7.962
MS.55          	18.722         	7.914
MS.56          	18.685         	7.95
MS.57          	18.647         	7.996
MS.58          	18.61          	7.998
MS.59          	18.573         	8
MS.60          	18.535         	8.01
MS.61          	18.5           	8
MS.62          	18.462         	7.982
MS.63          	18.425         	8.006
MS.64          	18.387         	7.958
MS.65          	18.352         	7.972
MS.66          	18.315         	8
MS.67          	18.278         	8.01
MS.68          	18.243         	8.004
MS.69          	18.205         	7.988
MS.70          	18.17          	8.018
MS.71          	18.132         	8.032
MS.72          	18.097         	7.918
MS.73          	18.06          	7.984
MS.74          	18.025         	7.946
MS.75          	17.987         	7.966
MS.76          	17.952         	8.016
MS.77          	17.917         	7.992
MS.78          	17.88          	7.964
MS.79          	17.845         	8.002
MS.80          	17.81          	7.974
MS.81          	17.775         	7.97
MS.82          	17.737         	7.96
MS.83          	17.702         	8.004
MS.84          	17.667         	7.952
MS.85          	17.632         	7.996
MS.86          	17.597         	8.036
MS.87          	17.562         	7.988
MS.88          	17.528         	7.976
MS.89          	17.493         	7.94
MS.90          	17.458         	7.952
MS.91          	17.422         	7.952
MS.92          	17.387         	7.936
MS.93          	17.352         	8
MS.94          	17.317         	7.97
MS.95          	17.282         	7.962
MS.96          	17.247         	7.998
MS.97          	17.215         	7.966
MS.98          	17.18          	7.982
MS.99          	17.145         	7.996
MS.100         	17.11          	7.95
MS.101         	17.077         	7.94
MS.102         	17.042         	7.982
MS.103         	17.01          	8.006
MS.104         	16.975         	7.962
MS.105         	16.94          	8.006
MS.106         	16.907         	7.996
MS.107         	16.872         	7.968
MS.108         	16.84          	8.055
MS.109         	16.805         	8.081
MS.110         	16.772         	8.085
MS.111         	16.74          	7.998
MS.112         	16.705         	8.022
MS.113         	16.672         	7.972
MS.114         	16.637         	8.004
MS.115         	16.605         	7.978
MS.116         	16.573         	8.093
MS.117         	16.54          	8.03
MS.118         	16.505         	7.994
MS.119         	16.472         	8.006
MS.120         	16.44          	8.018
MS.121         	16.407         	8.008
MS.122         	16.375         	8.036
MS.123         	16.342         	8.012
MS.124         	16.31          	7.99
MS.125         	16.278         	7.908
MS.126         	16.245         	7.974
MS.127         	16.212         	7.998
MS.128         	16.18          	7.954
MS.129         	16.147         	7.974
MS.130         	16.115         	7.918
MS.131         	16.083         	7.946
MS.132         	16.05          	7.958
MS.133         	16.017         	7.978
MS.134         	15.985         	8.053
MS.135         	15.955         	8.002
MS.136         	15.922         	7.98
MS.137         	15.89          	7.916
MS.138         	15.86          	7.998
MS.139         	15.827         	8
MS.140         	15.795         	8.041
MS.141         	15.765         	8.002
MS.142         	15.733         	8.079
MS.143         	15.7           	8.043
MS.144         	15.67          	7.992
MS.145         	15.637         	8.01
MS.146         	15.608         	8.002
MS.147         	15.575         	8.01
MS.148         	15.545         	7.956
MS.149         	15.515         	7.948
MS.150         	15.483         	7.972
MS.151         	15.452         	8.018
MS.152         	15.42          	7.984
MS.153         	15.39          	7.98
MS.154         	15.36          	7.964
MS.155         	15.327         	8.01
MS.156         	15.297         	8.02
MS.157         	15.267         	7.873
MS.158         	15.237         	8
MS.159         	15.207         	7.916
MS.160         	15.175         	7.883
MS.161         	15.145         	7.996
MS.162         	15.115         	7.855
MS.163         	15.085         	7.904
MS.164         	15.055         	7.904
MS.165         	15.025         	7.889
MS.166         	14.995         	7.893
MS.167         	14.965         	7.865
MS.168         	14.935         	7.877
MS.169         	14.905         	8.01
MS.170         	14.875         	7.863
MS.171         	14.845         	7.904
MS.172         	14.818         	7.889
MS.173         	14.787         	7.908
MS.174         	14.757         	7.902
MS.175         	14.727         	7.797
MS.176         	14.697         	7.755
MS.177         	14.67          	7.942
MS.178         	14.64          	7.793
MS.179         	14.61          	7.765
MS.180         	14.58          	7.753
MS.181         	14.552         	7.75
MS.182         	14.523         	7.906
MS.183         	14.495         	7.811
MS.184         	14.465         	7.805
MS.185         	14.435         	7.791
MS.186         	14.407         	7.787
MS.187         	14.377         	7.773
MS.188         	14.35          	7.9
MS.189         	14.32          	7.817
MS.190         	14.292         	7.797
MS.191         	14.265         	7.803
MS.192         	14.235         	7.809
MS.193         	14.207         	7.789
MS.194         	14.177         	7.845
MS.195         	14.15          	7.829
MS.196         	14.122         	7.817
MS.197         	14.092         	7.811
MS.198         	14.065         	7.821
MS.199         	14.037         	7.805
MS.200         	14.01          	7.789
MS.201         	13.983         	7.791
MS.202         	13.952         	7.791
MS.203         	13.925         	7.716
MS.204         	13.898         	7.795
MS.205         	13.87          	7.799
MS.206         	13.842         	7.787
MS.207         	13.815         	7.761
MS.208         	13.787         	7.678
MS.209         	13.76          	7.698
MS.210         	13.733         	7.692
MS.211         	13.705         	7.706
MS.212         	13.677         	7.698
MS.213         	13.65          	7.71
MS.214         	13.622         	7.704
MS.215         	13.595         	7.722
MS.216         	13.568         	7.712
MS.217         	13.54          	7.744
MS.218         	13.515         	7.714
MS.219         	13.487         	7.67
MS.220         	13.46          	7.686
MS.221         	13.432         	7.722
MS.222         	13.407         	7.716
MS.223         	13.38          	7.712
MS.224         	13.352         	7.694
MS.225         	13.325         	7.72
MS.226         	13.3           	7.716
MS.227         	13.273         	7.692
MS.228         	13.247         	7.718
MS.229         	13.22          	7.704
MS.230         	13.193         	7.704
MS.231         	13.167         	7.72
MS.232         	13.14          	7.668
MS.233         	13.115         	7.622
MS.234         	13.087         	7.692
MS.235         	13.062         	7.644
MS.236         	13.035         	7.668
MS.237         	13.01          	7.473
MS.238         	12.985         	7.634
MS.239         	12.957         	7.511
MS.240         	12.932         	7.624
MS.241         	12.907         	7.438
MS.242         	12.88          	7.402
MS.243         	12.855         	7.579
MS.244         	12.83          	7.444
MS.245         	12.802         	7.458
MS.246         	12.778         	7.249
MS.247         	12.752         	7.342
MS.248         	12.727         	7.442
MS.249         	12.702         	7.39
MS.250         	12.675         	7.565
MS.251         	12.65          	7.36
MS.252         	12.625         	7.207
MS.253         	12.6           	7.37
MS.254         	12.575         	7.18
MS.255         	12.55          	7.243
MS.256         	12.525         	7.241
MS.257         	12.5           	7.17
MS.258         	12.475         	7.388
MS.259         	12.45          	7.249
MS.260         	12.425         	7.197
MS.261         	12.4           	7.267
MS.262         	12.375         	7.182
MS.263         	12.35          	7.195
MS.264         	12.325         	7.18
MS.265         	12.302         	7.174
MS.266         	12.278         	7.154
MS.267         	12.252         	7.162
MS.268         	12.227         	7.187
MS.269         	12.202         	7.16
MS.270         	12.18          	7.172
MS.271         	12.155         	7.17
MS.272         	12.13          	7.174
MS.273         	12.108         	7.144
MS.274         	12.082         	7.126
MS.275         	12.057         	7.122
MS.276         	12.035         	7.191
MS.277         	12.01          	7.128
MS.278         	11.985         	7.144
MS.279         	11.962         	7.17
MS.280         	11.938         	7.182
MS.281         	11.915         	7.152
MS.282         	11.89          	7.16
MS.283         	11.867         	7.08
MS.284         	11.842         	7.108
MS.285         	11.82          	7.162
MS.286         	11.795         	7.176
MS.287         	11.773         	7.168
MS.288         	11.747         	7.136
MS.289         	11.725         	7.001
MS.290         	11.702         	7.039
MS.291         	11.677         	6.997
MS.292         	11.655         	7.086
MS.293         	11.632         	6.999
MS.294         	11.608         	7.068
MS.295         	11.585         	7.011
MS.296         	11.562         	6.637
MS.297         	11.54          	7.046
MS.298         	11.515         	6.959
MS.299         	11.492         	6.963
MS.300         	11.47          	6.5
MS.301         	11.447         	6.915
MS.302         	11.425         	6.347
MS.303         	11.403         	6.272
MS.304         	11.377         	6.302
MS.305         	11.355         	6.179
MS.306         	11.332         	6.296
MS.307         	11.31          	6.685
MS.308         	11.287         	6.181
MS.309         	11.265         	6.117
MS.310         	11.242         	6.157
MS.311         	11.22          	6.139
MS.312         	11.197         	6.002
MS.313         	11.175         	6.109
MS.314         	11.153         	5.942
MS.315         	11.13          	6.036
MS.316         	11.108         	5.861
MS.317         	11.087         	5.97
MS.318         	11.065         	5.839
MS.319         	11.042         	5.899
MS.320         	11.02          	5.893
MS.321         	10.997         	5.152
MS.322         	10.975         	5.104
MS.323         	10.955         	5.082
MS.324         	10.932         	5.11
MS.325         	10.91          	4.951
MS.326         	10.887         	5.06
MS.327         	10.867         	5.019
MS.328         	10.845         	5.648
MS.329         	10.823         	4.419
MS.330         	10.802         	4.87
MS.331         	10.78          	4.909
MS.332         	10.76          	4.848
MS.333         	10.738         	4.848
MS.334         	10.715         	4.421
MS.335         	10.695         	4.782
MS.336         	10.672         	4.328
MS.337         	10.653         	4.582
MS.338         	10.63          	4.169
MS.339         	10.61          	4.298
MS.340         	10.587         	4.193
MS.341         	10.568         	4.093
MS.342         	10.545         	4.02
MS.343         	10.525         	4.069
MS.344         	10.502         	4.075
MS.345         	10.483         	4.097
MS.346         	10.462         	4.067
MS.347         	10.44          	4.065
MS.348         	10.42          	3.996
MS.349         	10.4           	3.877
MS.350         	10.377         	3.936
MS.351         	10.358         	3.764
MS.352         	10.337         	3.797
MS.353         	10.318         	3.823
MS.354         	10.295         	3.758
MS.355         	10.275         	3.601
MS.356         	10.255         	3.76
MS.357         	10.235         	3.76
MS.358         	10.212         	3.785
MS.359         	10.193         	3.76
MS.360         	10.172         	3.686
MS.361         	10.153         	3.531
MS.362         	10.132         	3.666
MS.363         	10.113         	3.283
MS.364         	10.092         	3.348
MS.365         	10.073         	3.309
MS.366         	10.052         	3.277
MS.367         	10.032         	3.275
MS.368         	10.012         	3.17
MS.369         	9.992          	3.237
MS.370         	9.972          	3.354
MS.371         	9.952          	3.025
MS.372         	9.932          	3.07
MS.373         	9.912          	3.003
MS.374         	9.892          	3.122
MS.375         	9.872          	3.11
MS.376         	9.852          	2.886
MS.377         	9.832          	2.985
MS.378         	9.812          	2.935
MS.379         	9.792          	3.051
MS.380         	9.775          	2.846
MS.381         	9.755          	3.005
MS.382         	9.735          	3.082
MS.383         	9.715          	2.977
MS.384         	9.695          	2.967
MS.385         	9.677          	2.937
MS.386         	9.657          	2.703
MS.387         	9.637          	2.886
MS.388         	9.62           	2.57
MS.389         	9.6            	2.653
MS.390         	9.58           	2.596
MS.391         	9.562          	2.653
MS.392         	9.542          	2.546
MS.393         	9.523          	2.594
MS.394         	9.505          	2.457
MS.395         	9.485          	2.58
MS.396         	9.465          	2.429
MS.397         	9.448          	2.377
MS.398         	9.427          	2.534
MS.399         	9.41           	2.405
MS.400         	9.39           	2.506
MS.401         	9.372          	2.268
MS.402         	9.352          	2.332
MS.403         	9.335          	2.377
MS.404         	9.315          	2.25
MS.405         	9.297          	2.32
MS.406         	9.28           	2.197
MS.407         	9.26           	2.113
MS.408         	9.242          	2.105
MS.409         	9.222          	2.119
MS.410         	9.205          	2.056
MS.411         	9.188          	2.048
MS.412         	9.167          	2.133
MS.413         	9.15           	1.986
MS.414         	9.132          	1.952
MS.415         	9.113          	1.905
MS.416         	9.095          	2.056
MS.417         	9.077          	1.889
MS.418         	9.057          	1.928
MS.419         	9.04           	1.863
MS.420         	9.023          	1.873
MS.421         	9.005          	1.672
MS.422         	8.988          	1.724
MS.423         	8.967          	1.907
MS.424         	8.95           	1.654
MS.425         	8.932          	1.642
MS.426         	8.915          	1.714
MS.427         	8.898          	1.668
MS.428         	8.88           	1.793
MS.429         	8.863          	1.575
MS.430         	8.845          	1.519
MS.431         	8.825          	1.499
MS.432         	8.807          	1.398
MS.433         	8.79           	1.565
MS.434         	8.773          	1.422
MS.435         	8.755          	1.204
MS.436         	8.738          	1.335
MS.437         	8.72           	1.174
MS.438         	8.702          	1.265
MS.439         	8.685          	1.317
MS.440         	8.67           	1.043
MS.441         	8.653          	1.14
MS.442         	8.635          	0.999
MS.443         	8.617          	1.045
MS.444         	8.6            	1.043
MS.445         	8.582          	1.023
MS.446         	8.565          	0.848
MS.447         	8.547          	0.892
MS.448         	8.53           	1.005
MS.449         	8.515          	0.931
MS.450         	8.497          	0.612
MS.451         	8.48           	0.924
MS.452         	8.462          	0.796
MS.453         	8.448          	0.939
MS.454         	8.43           	0.784
MS.455         	8.412          	0.572
MS.456         	8.395          	0.705
MS.457         	8.38           	0.747
MS.458         	8.363          	0.665
MS.459         	8.345          	0.538
MS.460         	8.33           	0.598
MS.461         	8.312          	0.683
MS.462         	8.295          	0.536
MS.463         	8.28           	0.532
MS.464         	8.262          	0.679
MS.465         	8.245          	0.54
MS.466         	8.23           	0.504
MS.467         	8.212          	0.477
MS.468         	8.198          	0.493
MS.469         	8.18           	0.493
MS.470         	8.165          	0.528
MS.471         	8.148          	0.443
MS.472         	8.132          	0.487
MS.473         	8.115          	0.463
MS.474         	8.1            	0.371
MS.475         	8.082          	0.342
MS.476         	8.068          	0.487
MS.477         	8.05           	0.419
MS.478         	8.035          	0.471
MS.479         	8.017          	0.318
MS.480         	8.002          	0.312
MS.481         	7.987          	0.371
MS.482         	7.97           	0.375
MS.483         	7.955          	0.264
MS.484         	7.938          	0.284
MS.485         	7.922          	0.27
MS.486         	7.907          	0.322
MS.487         	7.89           	0.338
MS.488         	7.875          	0.157
MS.489         	7.86           	0.24
MS.490         	7.845          	0.155
MS.491         	7.827          	0.201
MS.492         	7.812          	0.171
MS.493         	7.797          	0.131
MS.494         	7.782          	0.147
MS.495         	7.765          	0.163
MS.496         	7.75           	0.22
MS.497         	7.735          	0.089
MS.498         	7.72           	0.175
MS.499         	7.705          	0.131
MS.500         	7.688          	0.139
MS.501         	7.672          	0.077
