File:              	C:\Qtrac\Data\Daniel M Sørensen\MScan multicentre study\Data from centres\Newcastle\Processed data\SMC00225B.QZD
Name:              	UK.NEW.NC.1.2
Protocol:          	MSCAN-R2
Date:              	25/2/20
Start time:        	16:11:31
Age:               	31
Sex:               	F
Temperature:       	29.1
S/R sites:         	ADM
NC/disease:        	NC
Operator:          	SM
Comments:
M-SCAN DATA (5.6-1.4m)
Scanpts: 20, 35, 440, 461
Stim. (mA)     	Amp. (mV)
MS.1           	16             	12.391
MS.2           	16             	12.395
MS.3           	16             	12.375
MS.4           	16             	12.393
MS.5           	16             	12.405
MS.6           	16             	12.439
MS.7           	16             	12.45
MS.8           	16             	12.429
MS.9           	16             	12.433
MS.10          	16             	12.413
MS.11          	16             	12.427
MS.12          	16             	12.427
MS.13          	16             	12.395
MS.14          	16             	12.425
MS.15          	16             	12.385
MS.16          	16             	12.385
MS.17          	16             	12.401
MS.18          	16             	12.375
MS.19          	16             	12.403
MS.20          	16             	12.441
MS.21          	16             	12.419
MS.22          	16             	12.375
MS.23          	16             	12.393
MS.24          	15.935         	12.391
MS.25          	15.905         	12.357
MS.26          	15.872         	12.377
MS.27          	15.84          	12.365
MS.28          	15.81          	12.385
MS.29          	15.777         	12.333
MS.30          	15.745         	12.363
MS.31          	15.715         	12.349
MS.32          	15.682         	12.349
MS.33          	15.652         	12.343
MS.34          	15.62          	12.327
MS.35          	15.59          	12.323
MS.36          	15.557         	12.319
MS.37          	15.527         	12.347
MS.38          	15.495         	12.335
MS.39          	15.465         	12.363
MS.40          	15.435         	12.345
MS.41          	15.402         	12.327
MS.42          	15.372         	12.349
MS.43          	15.342         	12.347
MS.44          	15.31          	12.317
MS.45          	15.28          	12.323
MS.46          	15.25          	12.331
MS.47          	15.22          	12.329
MS.48          	15.19          	12.339
MS.49          	15.16          	12.327
MS.50          	15.127         	12.337
MS.51          	15.097         	12.305
MS.52          	15.068         	12.325
MS.53          	15.037         	12.305
MS.54          	15.007         	12.298
MS.55          	14.977         	12.321
MS.56          	14.947         	12.274
MS.57          	14.917         	12.264
MS.58          	14.887         	12.28
MS.59          	14.858         	12.282
MS.60          	14.83          	12.298
MS.61          	14.8           	12.262
MS.62          	14.77          	12.133
MS.63          	14.74          	12.244
MS.64          	14.71          	12.272
MS.65          	14.682         	12.246
MS.66          	14.652         	12.244
MS.67          	14.622         	12.22
MS.68          	14.592         	12.238
MS.69          	14.565         	12.236
MS.70          	14.535         	12.097
MS.71          	14.507         	12.19
MS.72          	14.477         	12.079
MS.73          	14.447         	12.047
MS.74          	14.42          	12.079
MS.75          	14.39          	12.059
MS.76          	14.362         	12.012
MS.77          	14.332         	12.016
MS.78          	14.305         	12.059
MS.79          	14.275         	12.014
MS.80          	14.247         	12.014
MS.81          	14.22          	12.037
MS.82          	14.19          	12.012
MS.83          	14.162         	11.974
MS.84          	14.135         	12.045
MS.85          	14.105         	12.018
MS.86          	14.077         	11.98
MS.87          	14.05          	12.035
MS.88          	14.023         	11.988
MS.89          	13.992         	11.972
MS.90          	13.965         	11.932
MS.91          	13.938         	11.988
MS.92          	13.91          	11.974
MS.93          	13.882         	11.994
MS.94          	13.855         	11.938
MS.95          	13.827         	11.972
MS.96          	13.8           	11.944
MS.97          	13.773         	11.964
MS.98          	13.745         	11.912
MS.99          	13.717         	11.938
MS.100         	13.69          	11.932
MS.101         	13.662         	11.89
MS.102         	13.635         	11.912
MS.103         	13.608         	11.934
MS.104         	13.58          	11.914
MS.105         	13.552         	11.924
MS.106         	13.525         	11.853
MS.107         	13.497         	11.875
MS.108         	13.472         	11.9
MS.109         	13.445         	11.875
MS.110         	13.417         	11.92
MS.111         	13.39          	11.859
MS.112         	13.365         	11.884
MS.113         	13.337         	11.849
MS.114         	13.31          	11.847
MS.115         	13.285         	11.853
MS.116         	13.257         	11.837
MS.117         	13.233         	11.805
MS.118         	13.205         	11.811
MS.119         	13.177         	11.795
MS.120         	13.153         	11.797
MS.121         	13.125         	11.811
MS.122         	13.1           	11.775
MS.123         	13.072         	11.817
MS.124         	13.047         	11.775
MS.125         	13.023         	11.757
MS.126         	12.995         	11.749
MS.127         	12.97          	11.741
MS.128         	12.943         	11.734
MS.129         	12.917         	11.793
MS.130         	12.892         	11.664
MS.131         	12.865         	11.668
MS.132         	12.84          	11.62
MS.133         	12.815         	11.65
MS.134         	12.79          	11.64
MS.135         	12.762         	11.616
MS.136         	12.738         	11.642
MS.137         	12.712         	11.587
MS.138         	12.688         	11.553
MS.139         	12.662         	11.531
MS.140         	12.637         	11.511
MS.141         	12.61          	11.507
MS.142         	12.585         	11.495
MS.143         	12.56          	11.471
MS.144         	12.535         	11.444
MS.145         	12.51          	11.573
MS.146         	12.485         	11.418
MS.147         	12.46          	11.471
MS.148         	12.435         	11.529
MS.149         	12.41          	11.374
MS.150         	12.385         	11.314
MS.151         	12.363         	11.451
MS.152         	12.337         	11.364
MS.153         	12.312         	11.297
MS.154         	12.287         	11.219
MS.155         	12.262         	11.261
MS.156         	12.238         	11.356
MS.157         	12.215         	11.334
MS.158         	12.19          	11.225
MS.159         	12.165         	11.229
MS.160         	12.14          	11.305
MS.161         	12.117         	11.164
MS.162         	12.092         	11.209
MS.163         	12.068         	11.175
MS.164         	12.045         	11.201
MS.165         	12.02          	11.211
MS.166         	11.995         	11.189
MS.167         	11.972         	11.134
MS.168         	11.947         	11.199
MS.169         	11.925         	11.16
MS.170         	11.9           	11.112
MS.171         	11.877         	11.017
MS.172         	11.852         	11.052
MS.173         	11.83          	11.011
MS.174         	11.805         	10.75
MS.175         	11.782         	10.768
MS.176         	11.757         	10.768
MS.177         	11.735         	10.899
MS.178         	11.712         	10.81
MS.179         	11.688         	10.735
MS.180         	11.665         	10.796
MS.181         	11.642         	10.615
MS.182         	11.617         	10.643
MS.183         	11.595         	10.631
MS.184         	11.572         	10.615
MS.185         	11.55          	10.443
MS.186         	11.525         	10.439
MS.187         	11.502         	10.484
MS.188         	11.48          	10.496
MS.189         	11.457         	10.357
MS.190         	11.435         	10.252
MS.191         	11.41          	10.224
MS.192         	11.387         	10.228
MS.193         	11.365         	10.274
MS.194         	11.342         	10.071
MS.195         	11.32          	9.883
MS.196         	11.297         	10.115
MS.197         	11.275         	9.932
MS.198         	11.252         	9.922
MS.199         	11.23          	9.954
MS.200         	11.207         	9.745
MS.201         	11.185         	9.783
MS.202         	11.162         	9.809
MS.203         	11.14          	9.751
MS.204         	11.117         	9.606
MS.205         	11.095         	9.785
MS.206         	11.075         	9.702
MS.207         	11.052         	9.374
MS.208         	11.03          	9.523
MS.209         	11.007         	9.485
MS.210         	10.985         	9.485
MS.211         	10.962         	9.174
MS.212         	10.943         	9.261
MS.213         	10.92          	9.213
MS.214         	10.898         	9.269
MS.215         	10.877         	9.247
MS.216         	10.855         	9.058
MS.217         	10.832         	9.249
MS.218         	10.81          	9.253
MS.219         	10.79          	8.991
MS.220         	10.767         	9.146
MS.221         	10.747         	8.925
MS.222         	10.725         	9.023
MS.223         	10.702         	8.915
MS.224         	10.682         	8.967
MS.225         	10.66          	9.09
MS.226         	10.64          	8.995
MS.227         	10.617         	8.886
MS.228         	10.597         	8.675
MS.229         	10.575         	8.306
MS.230         	10.555         	8.611
MS.231         	10.535         	8.754
MS.232         	10.512         	8.631
MS.233         	10.492         	8.772
MS.234         	10.47          	8.566
MS.235         	10.45          	8.327
MS.236         	10.43          	8.19
MS.237         	10.407         	8.49
MS.238         	10.387         	8.125
MS.239         	10.367         	8.524
MS.240         	10.345         	8.186
MS.241         	10.325         	8.214
MS.242         	10.305         	8.047
MS.243         	10.285         	8.182
MS.244         	10.262         	7.515
MS.245         	10.242         	7.251
MS.246         	10.222         	7.561
MS.247         	10.202         	7.404
MS.248         	10.182         	7.493
MS.249         	10.162         	7.493
MS.250         	10.14          	7.509
MS.251         	10.12          	7.13
MS.252         	10.1           	7.088
MS.253         	10.08          	7.235
MS.254         	10.06          	7.247
MS.255         	10.04          	7.118
MS.256         	10.02          	6.951
MS.257         	10             	6.838
MS.258         	9.98           	6.844
MS.259         	9.96           	6.484
MS.260         	9.94           	6.419
MS.261         	9.92           	6.604
MS.262         	9.9            	6.528
MS.263         	9.88           	6.369
MS.264         	9.86           	6.19
MS.265         	9.842          	6.478
MS.266         	9.823          	6.161
MS.267         	9.802          	6.326
MS.268         	9.782          	5.873
MS.269         	9.762          	5.893
MS.270         	9.742          	5.615
MS.271         	9.725          	5.591
MS.272         	9.705          	5.585
MS.273         	9.685          	5.577
MS.274         	9.665          	5.495
MS.275         	9.648          	5.674
MS.276         	9.627          	3.833
MS.277         	9.608          	4.236
MS.278         	9.587          	4.03
MS.279         	9.57           	3.762
MS.280         	9.55           	3.505
MS.281         	9.532          	3.71
MS.282         	9.512          	3.752
MS.283         	9.492          	3.571
MS.284         	9.475          	3.565
MS.285         	9.455          	3.303
MS.286         	9.438          	3.487
MS.287         	9.417          	2.792
MS.288         	9.4            	3.362
MS.289         	9.38           	3.182
MS.290         	9.363          	3.176
MS.291         	9.342          	3.112
MS.292         	9.325          	3.196
MS.293         	9.305          	3.124
MS.294         	9.287          	3.198
MS.295         	9.267          	3.289
MS.296         	9.25           	3.072
MS.297         	9.23           	3.011
MS.298         	9.212          	2.929
MS.299         	9.195          	2.649
MS.300         	9.175          	2.755
MS.301         	9.158          	3.088
MS.302         	9.14           	2.963
MS.303         	9.12           	2.381
MS.304         	9.102          	2.33
MS.305         	9.085          	2.393
MS.306         	9.068          	2.473
MS.307         	9.047          	2.419
MS.308         	9.03           	2.355
MS.309         	9.012          	1.994
MS.310         	8.995          	1.924
MS.311         	8.977          	2.165
MS.312         	8.957          	2.121
MS.313         	8.94           	1.736
MS.314         	8.922          	2.046
MS.315         	8.905          	1.662
MS.316         	8.887          	1.726
MS.317         	8.87           	1.537
MS.318         	8.852          	1.509
MS.319         	8.835          	1.654
MS.320         	8.815          	1.567
MS.321         	8.797          	1.446
MS.322         	8.78           	1.706
MS.323         	8.762          	1.116
MS.324         	8.745          	1.255
MS.325         	8.727          	1.402
MS.326         	8.71           	1.356
MS.327         	8.693          	1.372
MS.328         	8.675          	1.055
MS.329         	8.66           	1.039
MS.330         	8.642          	1.144
MS.331         	8.625          	1.225
MS.332         	8.608          	1.257
MS.333         	8.59           	0.82
MS.334         	8.573          	0.939
MS.335         	8.555          	0.92
MS.336         	8.537          	0.912
MS.337         	8.523          	1.059
MS.338         	8.505          	0.989
MS.339         	8.488          	1.078
MS.340         	8.47           	0.951
MS.341         	8.452          	0.85
MS.342         	8.438          	1.013
MS.343         	8.42           	0.874
MS.344         	8.403          	0.846
MS.345         	8.385          	0.83
MS.346         	8.37           	0.822
MS.347         	8.352          	0.848
MS.348         	8.335          	0.86
MS.349         	8.32           	0.731
MS.350         	8.302          	0.943
MS.351         	8.285          	0.842
MS.352         	8.27           	0.693
MS.353         	8.252          	0.711
MS.354         	8.238          	0.608
MS.355         	8.22           	0.616
MS.356         	8.202          	0.651
MS.357         	8.188          	0.624
MS.358         	8.17           	0.737
MS.359         	8.155          	0.715
MS.360         	8.137          	0.647
MS.361         	8.122          	0.659
MS.362         	8.105          	0.661
MS.363         	8.09           	0.622
MS.364         	8.073          	0.655
MS.365         	8.057          	0.634
MS.366         	8.042          	0.504
MS.367         	8.025          	0.622
MS.368         	8.01           	0.538
MS.369         	7.992          	0.558
MS.370         	7.977          	0.57
MS.371         	7.96           	0.608
MS.372         	7.945          	0.538
MS.373         	7.93           	0.61
MS.374         	7.912          	0.479
MS.375         	7.898          	0.3
MS.376         	7.882          	0.242
MS.377         	7.867          	0.175
MS.378         	7.85           	0.56
MS.379         	7.835          	0.369
MS.380         	7.82           	0.544
MS.381         	7.802          	0.359
MS.382         	7.787          	0.244
MS.383         	7.773          	0.246
MS.384         	7.757          	0.089
MS.385         	7.742          	0.081
MS.386         	7.725          	0.181
MS.387         	7.71           	0.161
MS.388         	7.695          	0.157
MS.389         	7.68           	0.083
MS.390         	7.665          	0.083
MS.391         	7.65           	0.079
MS.392         	7.635          	0.079
MS.393         	7.617          	0.081
MS.394         	7.602          	0.083
MS.395         	7.587          	0.207
MS.396         	7.572          	0.081
MS.397         	7.557          	0.079
MS.398         	7.543          	0.062
MS.399         	7.527          	0.079
MS.400         	7.512          	0.077
MS.401         	7.497          	0.064
MS.402         	7.482          	0.077
MS.403         	7.467          	0.081
MS.404         	7.452          	0.079
MS.405         	7.438          	0.079
MS.406         	7.422          	0.073
MS.407         	7.407          	0.073
MS.408         	7.392          	0.081
MS.409         	7.378          	0.07
MS.410         	7.365          	0.075
MS.411         	7.35           	0.083
MS.412         	7.335          	0.077
MS.413         	7.32           	0.075
MS.414         	7.305          	0.081
MS.415         	7.29           	0.05
MS.416         	7.275          	0.068
MS.417         	7.262          	0.068
MS.418         	7.247          	0.068
MS.419         	7.233          	0.075
MS.420         	7.217          	0.077
MS.421         	7.202          	0.079
MS.422         	7.19           	0.079
MS.423         	7.175          	0.075
MS.424         	7.16           	0.075
MS.425         	7.145          	0.073
MS.426         	7.132          	0.079
MS.427         	7.117          	0.075
MS.428         	7.102          	0.077
MS.429         	7.09           	0.07
MS.430         	7.075          	0.07
MS.431         	7.06           	0.07
MS.432         	7.047          	0.075
MS.433         	7.032          	0.073
MS.434         	7.017          	0.077
MS.435         	7.005          	0.073
MS.436         	6.99           	0.075
MS.437         	6.977          	0.075
MS.438         	6.962          	0.068
MS.439         	6.95           	0.073
MS.440         	6.935          	0.075
MS.441         	6.92           	0.07
MS.442         	6.907          	0.068
MS.443         	6.892          	0.073
MS.444         	6.88           	0.073
MS.445         	6.865          	0.07
MS.446         	6.852          	0.07
MS.447         	6.837          	0.073
MS.448         	6.825          	0.073
MS.449         	6.812          	0.073
MS.450         	6.797          	0.07
MS.451         	6.785          	0.07
MS.452         	6.77           	0.077
MS.453         	6.757          	0.07
MS.454         	6.742          	0.073
MS.455         	6.73           	0.075
MS.456         	6.717          	0.073
MS.457         	6.702          	0.079
MS.458         	6.69           	0.083
MS.459         	6.677          	0.07
MS.460         	6.662          	0.077
MS.461         	6.65           	0.068
DERIVED EXCITABILITY VARIABLES
Program = QTracP 9/10/2021
Threshold method = 6 (optimised for CAP, using data for present condition only)
SR method = 1 (using actual data values)
6.                 	0.000               	Peak response\(mV)
9.                 	29.1                	Temperature ( C)
17.                	31                  	Age (years)
18.                	2                   	Sex (M=1, F=2)

EXTRA VARIABLES

MScPeak(mV) = 12.34
MScS5(mA) = 8.11
MScS50(mA) = 9.81
MScS95(mA) = 12.9
MScNSteps = 3
MScSteps(%) = 16.3
MScStepMax(%) = 10.2
MScD50 = 35
MScSlope = 6.08
MScDuration(min) = 4.2
MSFTraces = 442
MSFPeakAmp(mV) = 12.3
MSFNUnits = 139
MSFMeanUnitAmp(uV) = 88.5
MSFHuntTime(m) = 2.56
MSFError(%) = 4.64
MSFNLarge = 33.04
MSFMedianAmp(%) = 0.506
MSFMedianAmp(mV) = 0.0622
MSFHalfAmpAmp(%) = 0.808
MSFHalfAmpAmp(mV) = 0.0994
MSFLargestAmp(%) = 2.85
MSFLargestAmp(mV) = 0.351
MSFMeanRS(%) = 2
MSFSizeLimit(uV) = 30.7
MSFLimitType = 1
MSFSmallestAmp(uV) = 31.3
MSFOpts = 10106121

EXTRA WAVEFORMS


!MScan Model
!139
	1	7.72	0.71	2
	2	7.89	2.34	2
	3	7.95	0.37	2
	4	8.05	0.9	2
	5	8.2	0.74	2
	6	8.3	0.61	2
	7	8.44	1.11	2
	8	8.54	0.81	2
	9	8.62	0.56	2
	10	8.66	0.89	2
	11	8.72	0.94	2
	12	8.78	1.18	2
	13	8.83	0.71	2
	14	8.85	0.53	2
	15	8.87	0.62	2
	16	8.89	0.55	2
	17	8.91	0.46	2
	18	8.93	0.48	2
