File:              	C:\Qtrac\Data\Daniel M Sørensen\MScan multicentre study\Data from centres\Newcastle\Processed data\SMC00304F.QZD
Name:              	UK.NEW.NC.8.2
Protocol:          	MSCAN-R2
Date:              	4/3/20
Start time:        	12:39:30
Age:               	62
Sex:               	M
Temperature:       	31.8
S/R sites:         	TA
NC/disease:        	NC
Operator:          	SM
Comments:
M-SCAN DATA (9.8-2m)
Scanpts: 26, 54, 750, 762
Stim. (mA)     	Amp. (mV)
MS.1           	18             	4.892
MS.2           	18             	4.868
MS.3           	18             	4.925
MS.4           	18             	4.925
MS.5           	18             	4.915
MS.6           	18             	4.882
MS.7           	18             	4.89
MS.8           	18             	4.884
MS.9           	18             	4.896
MS.10          	18             	4.931
MS.11          	18             	4.898
MS.12          	18             	4.808
MS.13          	18             	4.85
MS.14          	18             	4.911
MS.15          	18             	4.894
MS.16          	18             	4.941
MS.17          	18             	4.961
MS.18          	18             	4.919
MS.19          	18             	4.884
MS.20          	18             	4.892
MS.21          	18             	4.896
MS.22          	18             	4.88
MS.23          	18             	4.868
MS.24          	17.927         	4.9
MS.25          	17.892         	4.884
MS.26          	17.858         	4.896
MS.27          	17.82          	4.9
MS.28          	17.785         	4.953
MS.29          	17.75          	4.872
MS.30          	17.715         	4.911
MS.31          	17.68          	4.88
MS.32          	17.642         	4.9
MS.33          	17.608         	4.894
MS.34          	17.573         	4.88
MS.35          	17.538         	4.866
MS.36          	17.503         	4.862
MS.37          	17.467         	4.913
MS.38          	17.432         	4.868
MS.39          	17.397         	4.848
MS.40          	17.362         	4.89
MS.41          	17.33          	4.892
MS.42          	17.295         	4.874
MS.43          	17.26          	4.87
MS.44          	17.225         	4.886
MS.45          	17.19          	4.856
MS.46          	17.157         	4.876
MS.47          	17.122         	4.913
MS.48          	17.087         	4.876
MS.49          	17.052         	4.882
MS.50          	17.02          	4.816
MS.51          	16.985         	4.884
MS.52          	16.952         	4.838
MS.53          	16.917         	4.921
MS.54          	16.885         	4.85
MS.55          	16.85          	4.838
MS.56          	16.817         	4.844
MS.57          	16.782         	4.856
MS.58          	16.75          	4.872
MS.59          	16.715         	4.844
MS.60          	16.682         	4.898
MS.61          	16.65          	4.858
MS.62          	16.615         	4.884
MS.63          	16.583         	4.868
MS.64          	16.55          	4.618
MS.65          	16.517         	4.848
MS.66          	16.483         	4.86
MS.67          	16.45          	4.858
MS.68          	16.417         	4.898
MS.69          	16.385         	4.864
MS.70          	16.352         	4.836
MS.71          	16.32          	4.798
MS.72          	16.288         	4.814
MS.73          	16.255         	4.848
MS.74          	16.222         	4.86
MS.75          	16.19          	4.85
MS.76          	16.157         	4.86
MS.77          	16.125         	4.838
MS.78          	16.092         	4.806
MS.79          	16.06          	4.846
MS.80          	16.028         	4.85
MS.81          	15.997         	4.878
MS.82          	15.965         	4.846
MS.83          	15.932         	4.86
MS.84          	15.9           	4.808
MS.85          	15.87          	4.904
MS.86          	15.837         	4.876
MS.87          	15.805         	4.927
MS.88          	15.775         	4.87
MS.89          	15.742         	4.902
MS.90          	15.71          	4.89
MS.91          	15.68          	4.848
MS.92          	15.648         	4.902
MS.93          	15.617         	4.842
MS.94          	15.585         	4.81
MS.95          	15.555         	4.86
MS.96          	15.523         	4.832
MS.97          	15.492         	4.856
MS.98          	15.462         	4.826
MS.99          	15.43          	4.88
MS.100         	15.4           	4.812
MS.101         	15.37          	4.86
MS.102         	15.337         	4.798
MS.103         	15.307         	4.951
MS.104         	15.277         	4.906
MS.105         	15.247         	4.888
MS.106         	15.217         	4.84
MS.107         	15.185         	4.874
MS.108         	15.155         	4.852
MS.109         	15.125         	4.828
MS.110         	15.095         	4.753
MS.111         	15.065         	4.788
MS.112         	15.035         	4.768
MS.113         	15.005         	4.802
MS.114         	14.975         	4.784
MS.115         	14.945         	4.792
MS.116         	14.915         	4.778
MS.117         	14.885         	4.784
MS.118         	14.855         	4.79
MS.119         	14.825         	4.757
MS.120         	14.795         	4.816
MS.121         	14.767         	4.763
MS.122         	14.737         	4.826
MS.123         	14.707         	4.774
MS.124         	14.677         	4.768
MS.125         	14.65          	4.735
MS.126         	14.62          	4.747
MS.127         	14.59          	4.755
MS.128         	14.562         	4.802
MS.129         	14.532         	4.792
MS.130         	14.502         	4.806
MS.131         	14.475         	4.81
MS.132         	14.445         	4.824
MS.133         	14.417         	4.854
MS.134         	14.387         	4.822
MS.135         	14.36          	4.784
MS.136         	14.33          	4.709
MS.137         	14.302         	4.846
MS.138         	14.273         	4.794
MS.139         	14.245         	4.826
MS.140         	14.215         	4.836
MS.141         	14.188         	4.804
MS.142         	14.16          	4.814
MS.143         	14.13          	4.8
MS.144         	14.102         	4.792
MS.145         	14.075         	4.804
MS.146         	14.047         	4.822
MS.147         	14.017         	4.814
MS.148         	13.99          	4.82
MS.149         	13.962         	4.832
MS.150         	13.935         	4.816
MS.151         	13.907         	4.822
MS.152         	13.88          	4.82
MS.153         	13.85          	4.812
MS.154         	13.822         	4.82
MS.155         	13.795         	4.802
MS.156         	13.767         	4.804
MS.157         	13.74          	4.846
MS.158         	13.712         	4.838
MS.159         	13.685         	4.755
MS.160         	13.657         	4.804
MS.161         	13.632         	4.782
MS.162         	13.605         	4.838
MS.163         	13.577         	4.82
MS.164         	13.55          	4.842
MS.165         	13.523         	4.846
MS.166         	13.495         	4.784
MS.167         	13.467         	4.844
MS.168         	13.443         	4.82
MS.169         	13.415         	4.816
MS.170         	13.387         	4.814
MS.171         	13.362         	4.814
MS.172         	13.335         	4.804
MS.173         	13.307         	4.806
MS.174         	13.282         	4.743
MS.175         	13.255         	4.806
MS.176         	13.227         	4.802
MS.177         	13.202         	4.822
MS.178         	13.175         	4.814
MS.179         	13.15          	4.8
MS.180         	13.122         	4.81
MS.181         	13.097         	4.81
MS.182         	13.07          	4.802
MS.183         	13.045         	4.802
MS.184         	13.017         	4.796
MS.185         	12.992         	4.766
MS.186         	12.967         	4.8
MS.187         	12.94          	4.778
MS.188         	12.915         	4.733
MS.189         	12.89          	4.8
MS.190         	12.862         	4.792
MS.191         	12.837         	4.802
MS.192         	12.812         	4.852
MS.193         	12.785         	4.796
MS.194         	12.76          	4.768
MS.195         	12.735         	4.808
MS.196         	12.71          	4.796
MS.197         	12.685         	4.749
MS.198         	12.66          	4.733
MS.199         	12.632         	4.735
MS.200         	12.608         	4.778
MS.201         	12.582         	4.737
MS.202         	12.557         	4.645
MS.203         	12.532         	4.659
MS.204         	12.507         	4.675
MS.205         	12.483         	4.753
MS.206         	12.457         	4.772
MS.207         	12.432         	4.671
MS.208         	12.407         	4.622
MS.209         	12.382         	4.709
MS.210         	12.36          	4.586
MS.211         	12.335         	4.651
MS.212         	12.31          	4.703
MS.213         	12.285         	4.651
MS.214         	12.26          	4.643
MS.215         	12.235         	4.653
MS.216         	12.212         	4.633
MS.217         	12.188         	4.627
MS.218         	12.162         	4.61
MS.219         	12.137         	4.629
MS.220         	12.115         	4.629
MS.221         	12.09          	4.58
MS.222         	12.065         	4.614
MS.223         	12.042         	4.58
MS.224         	12.017         	4.578
MS.225         	11.992         	4.627
MS.226         	11.97          	4.639
MS.227         	11.945         	4.582
MS.228         	11.922         	4.645
MS.229         	11.898         	4.608
MS.230         	11.875         	4.58
MS.231         	11.85          	4.558
MS.232         	11.827         	4.57
MS.233         	11.802         	4.622
MS.234         	11.78          	4.618
MS.235         	11.755         	4.604
MS.236         	11.733         	4.558
MS.237         	11.71          	4.564
MS.238         	11.685         	4.679
MS.239         	11.662         	4.55
MS.240         	11.64          	4.594
MS.241         	11.615         	4.616
MS.242         	11.592         	4.55
MS.243         	11.57          	4.627
MS.244         	11.547         	4.582
MS.245         	11.523         	4.616
MS.246         	11.5           	4.584
MS.247         	11.477         	4.614
MS.248         	11.455         	4.552
MS.249         	11.432         	4.55
MS.250         	11.407         	4.596
MS.251         	11.385         	4.566
MS.252         	11.363         	4.58
MS.253         	11.34          	4.562
MS.254         	11.318         	4.574
MS.255         	11.295         	4.562
MS.256         	11.273         	4.562
MS.257         	11.25          	4.588
MS.258         	11.227         	4.582
MS.259         	11.205         	4.61
MS.260         	11.182         	4.54
MS.261         	11.16          	4.558
MS.262         	11.137         	4.538
MS.263         	11.115         	4.578
MS.264         	11.092         	4.512
MS.265         	11.073         	4.558
MS.266         	11.05          	4.582
MS.267         	11.028         	4.618
MS.268         	11.005         	4.49
MS.269         	10.983         	4.564
MS.270         	10.962         	4.582
MS.271         	10.94          	4.58
MS.272         	10.917         	4.582
MS.273         	10.895         	4.572
MS.274         	10.875         	4.592
MS.275         	10.852         	4.578
MS.276         	10.83          	4.606
MS.277         	10.81          	4.582
MS.278         	10.787         	4.598
MS.279         	10.765         	4.566
MS.280         	10.745         	4.54
MS.281         	10.722         	4.475
MS.282         	10.702         	4.647
MS.283         	10.68          	4.55
MS.284         	10.657         	4.469
MS.285         	10.637         	4.403
MS.286         	10.615         	4.266
MS.287         	10.595         	4.278
MS.288         	10.573         	4.534
MS.289         	10.552         	4.304
MS.290         	10.532         	4.288
MS.291         	10.51          	4.425
MS.292         	10.49          	4.443
MS.293         	10.467         	4.391
MS.294         	10.448         	4.216
MS.295         	10.427         	4.195
MS.296         	10.405         	4.401
MS.297         	10.385         	4.22
MS.298         	10.365         	4.191
MS.299         	10.342         	4.379
MS.300         	10.323         	4.177
MS.301         	10.302         	4.198
MS.302         	10.282         	4.193
MS.303         	10.26          	4.193
MS.304         	10.24          	4.169
MS.305         	10.22          	4.185
MS.306         	10.2           	4.24
MS.307         	10.18          	4.244
MS.308         	10.16          	4.208
MS.309         	10.14          	4.26
MS.310         	10.117         	4.189
MS.311         	10.097         	4.208
MS.312         	10.077         	4.228
MS.313         	10.057         	4.258
MS.314         	10.037         	4.212
MS.315         	10.017         	4.222
MS.316         	9.997          	4.119
MS.317         	9.977          	4.173
MS.318         	9.957          	4.161
MS.319         	9.938          	4.183
MS.320         	9.917          	4.141
MS.321         	9.898          	4.153
MS.322         	9.877          	4.145
MS.323         	9.86           	4.135
MS.324         	9.84           	4.125
MS.325         	9.82           	4.147
MS.326         	9.8            	4.123
MS.327         	9.78           	4.165
MS.328         	9.76           	4.093
MS.329         	9.74           	4.135
MS.330         	9.722          	4.123
MS.331         	9.702          	4.107
MS.332         	9.682          	4.228
MS.333         	9.662          	4.167
MS.334         	9.645          	4.129
MS.335         	9.625          	4.163
MS.336         	9.605          	4.151
MS.337         	9.587          	4.157
MS.338         	9.568          	4.101
MS.339         	9.547          	4.208
MS.340         	9.53           	4.147
MS.341         	9.51           	4.155
MS.342         	9.49           	4.067
MS.343         	9.472          	4.139
MS.344         	9.452          	4.25
MS.345         	9.435          	4.161
MS.346         	9.415          	4.097
MS.347         	9.398          	4.121
MS.348         	9.377          	4.115
MS.349         	9.36           	4.123
MS.350         	9.34           	4.093
MS.351         	9.323          	4.075
MS.352         	9.302          	3.968
MS.353         	9.285          	4.127
MS.354         	9.265          	4.119
MS.355         	9.247          	4.123
MS.356         	9.23           	4.131
MS.357         	9.21           	4.109
MS.358         	9.193          	4.145
MS.359         	9.175          	4.014
MS.360         	9.155          	4.097
MS.361         	9.137          	4.109
MS.362         	9.12           	4.063
MS.363         	9.1            	4.008
MS.364         	9.082          	4.059
MS.365         	9.065          	4.028
MS.366         	9.047          	4.121
MS.367         	9.028          	4.226
MS.368         	9.01           	4.059
MS.369         	8.992          	3.98
MS.370         	8.975          	3.968
MS.371         	8.957          	4.149
MS.372         	8.938          	4.016
MS.373         	8.92           	4.085
MS.374         	8.903          	3.914
MS.375         	8.885          	3.938
MS.376         	8.867          	3.968
MS.377         	8.85           	3.899
MS.378         	8.832          	4.022
MS.379         	8.815          	3.833
MS.380         	8.797          	3.907
MS.381         	8.78           	3.916
MS.382         	8.762          	3.887
MS.383         	8.745          	3.903
MS.384         	8.727          	3.853
MS.385         	8.71           	3.905
MS.386         	8.693          	3.829
MS.387         	8.675          	3.829
MS.388         	8.658          	3.879
MS.389         	8.64           	3.714
MS.390         	8.622          	3.899
MS.391         	8.605          	3.775
MS.392         	8.587          	3.714
MS.393         	8.57           	3.861
MS.394         	8.552          	3.865
MS.395         	8.537          	3.734
MS.396         	8.52           	3.775
MS.397         	8.502          	3.791
MS.398         	8.485          	3.811
MS.399         	8.467          	3.718
MS.400         	8.452          	3.722
MS.401         	8.435          	3.7
MS.402         	8.417          	3.722
MS.403         	8.4            	3.73
MS.404         	8.385          	3.694
MS.405         	8.367          	3.696
MS.406         	8.35           	3.656
MS.407         	8.335          	3.724
MS.408         	8.318          	3.7
MS.409         	8.3            	3.67
MS.410         	8.285          	3.684
MS.411         	8.267          	3.714
MS.412         	8.252          	3.692
MS.413         	8.235          	3.652
MS.414         	8.217          	3.648
MS.415         	8.202          	3.656
MS.416         	8.185          	3.779
MS.417         	8.17           	3.72
MS.418         	8.153          	3.64
MS.419         	8.137          	3.676
MS.420         	8.12           	3.577
MS.421         	8.105          	3.748
MS.422         	8.087          	3.708
MS.423         	8.073          	3.611
MS.424         	8.055          	3.678
MS.425         	8.04           	3.603
MS.426         	8.023          	3.686
MS.427         	8.007          	3.587
MS.428         	7.992          	3.511
MS.429         	7.975          	3.621
MS.430         	7.96           	3.553
MS.431         	7.942          	3.581
MS.432         	7.927          	3.543
MS.433         	7.912          	3.426
MS.434         	7.895          	3.505
MS.435         	7.88           	3.321
MS.436         	7.865          	3.352
MS.437         	7.85           	3.43
MS.438         	7.832          	3.462
MS.439         	7.817          	3.386
MS.440         	7.802          	3.44
MS.441         	7.787          	3.42
MS.442         	7.77           	3.313
MS.443         	7.755          	3.489
MS.444         	7.74           	3.44
MS.445         	7.725          	3.474
MS.446         	7.71           	3.384
MS.447         	7.692          	3.472
MS.448         	7.677          	3.507
MS.449         	7.662          	3.497
MS.450         	7.648          	3.44
MS.451         	7.632          	3.43
MS.452         	7.617          	3.402
MS.453         	7.602          	3.48
MS.454         	7.587          	3.406
MS.455         	7.572          	3.404
MS.456         	7.555          	3.446
MS.457         	7.54           	3.426
MS.458         	7.525          	3.44
MS.459         	7.51           	3.448
MS.460         	7.495          	3.39
MS.461         	7.48           	3.36
MS.462         	7.465          	3.352
MS.463         	7.45           	3.35
MS.464         	7.438          	3.4
MS.465         	7.422          	3.339
MS.466         	7.407          	3.275
MS.467         	7.392          	3.35
MS.468         	7.378          	3.366
MS.469         	7.362          	3.362
MS.470         	7.347          	3.323
MS.471         	7.332          	3.307
MS.472         	7.317          	3.313
MS.473         	7.302          	3.331
MS.474         	7.29           	3.279
MS.475         	7.275          	3.295
MS.476         	7.26           	3.237
MS.477         	7.245          	3.307
MS.478         	7.23           	3.265
MS.479         	7.217          	3.219
MS.480         	7.202          	3.188
MS.481         	7.188          	3.241
MS.482         	7.172          	3.148
MS.483         	7.16           	3.14
MS.484         	7.145          	3.233
MS.485         	7.13           	3.198
MS.486         	7.115          	3.221
MS.487         	7.102          	3.132
MS.488         	7.087          	3.146
MS.489         	7.072          	3.106
MS.490         	7.06           	3.114
MS.491         	7.045          	3.11
MS.492         	7.032          	3.084
MS.493         	7.017          	3.045
MS.494         	7.003          	3.108
MS.495         	6.99           	3.124
MS.496         	6.975          	3.114
MS.497         	6.962          	3.144
MS.498         	6.947          	3.122
MS.499         	6.932          	3.084
MS.500         	6.92           	3.053
MS.501         	6.905          	3.017
MS.502         	6.892          	3.064
