File:              	C:\Qtrac\Data\Daniel M Sørensen\MScan multicentre study\Data from centres\Newcastle\Processed data\SMC00224B.QZD
Name:              	UK.NEW.NC.7.1
Protocol:          	MSCAN-R2
Date:              	24/2/20
Start time:        	14:23:32
Age:               	56
Sex:               	M
Temperature:       	33.8
S/R sites:         	ADM
NC/disease:        	NC
Operator:          	SM
Comments:
M-SCAN DATA (7.4-2.1m)
Scanpts: 7, 14, 522, 535
Stim. (mA)     	Amp. (mV)
MS.1           	27.5           	9.831
MS.2           	27.5           	9.811
MS.3           	27.5           	9.815
MS.4           	27.5           	9.811
MS.5           	27.5           	9.831
MS.6           	27.5           	9.785
MS.7           	27.5           	9.801
MS.8           	27.5           	9.791
MS.9           	27.5           	9.791
MS.10          	27.5           	9.809
MS.11          	27.5           	9.777
MS.12          	27.5           	9.765
MS.13          	27.5           	9.763
MS.14          	27.5           	9.761
MS.15          	27.5           	9.763
MS.16          	27.5           	9.773
MS.17          	27.5           	9.73
MS.18          	27.5           	9.738
MS.19          	27.5           	9.704
MS.20          	27.5           	9.708
MS.21          	27.5           	9.628
MS.22          	27.5           	9.7
MS.23          	27.5           	9.664
MS.24          	27.39          	9.686
MS.25          	27.335         	9.666
MS.26          	27.28          	9.666
MS.27          	27.227         	9.644
MS.28          	27.172         	9.654
MS.29          	27.118         	9.67
MS.30          	27.062         	9.672
MS.31          	27.01          	9.662
MS.32          	26.955         	9.654
MS.33          	26.903         	9.604
MS.34          	26.847         	9.593
MS.35          	26.795         	9.599
MS.36          	26.74          	9.557
MS.37          	26.688         	9.579
MS.38          	26.635         	9.404
MS.39          	26.58          	9.539
MS.40          	26.528         	9.577
MS.41          	26.475         	9.614
MS.42          	26.422         	9.579
MS.43          	26.37          	9.42
MS.44          	26.315         	9.422
MS.45          	26.262         	9.412
MS.46          	26.21          	9.404
MS.47          	26.157         	9.446
MS.48          	26.108         	9.42
MS.49          	26.055         	9.41
MS.50          	26.002         	9.402
MS.51          	25.95          	9.418
MS.52          	25.897         	9.406
MS.53          	25.847         	9.388
MS.54          	25.795         	9.39
MS.55          	25.743         	9.414
MS.56          	25.692         	9.376
MS.57          	25.64          	9.41
MS.58          	25.59          	9.432
MS.59          	25.538         	9.38
MS.60          	25.487         	9.402
MS.61          	25.438         	9.394
MS.62          	25.385         	9.388
MS.63          	25.335         	9.404
MS.64          	25.285         	9.382
MS.65          	25.233         	9.398
MS.66          	25.182         	9.382
MS.67          	25.132         	9.412
MS.68          	25.082         	9.368
MS.69          	25.032         	9.406
MS.70          	24.983         	9.43
MS.71          	24.932         	9.4
MS.72          	24.882         	9.398
MS.73          	24.832         	9.368
MS.74          	24.782         	9.34
MS.75          	24.735         	9.344
MS.76          	24.685         	9.384
MS.77          	24.635         	9.396
MS.78          	24.585         	9.388
MS.79          	24.538         	9.493
MS.80          	24.487         	9.44
MS.81          	24.44          	9.402
MS.82          	24.39          	9.36
MS.83          	24.342         	9.352
MS.84          	24.292         	9.442
MS.85          	24.245         	9.318
MS.86          	24.195         	9.396
MS.87          	24.147         	9.324
MS.88          	24.1           	9.332
MS.89          	24.05          	9.318
MS.90          	24.002         	9.307
MS.91          	23.955         	9.291
MS.92          	23.907         	9.328
MS.93          	23.86          	9.392
MS.94          	23.812         	9.267
MS.95          	23.765         	9.193
MS.96          	23.717         	9.237
MS.97          	23.67          	9.376
MS.98          	23.622         	9.322
MS.99          	23.575         	9.362
MS.100         	23.528         	9.364
MS.101         	23.48          	9.301
MS.102         	23.435         	9.277
MS.103         	23.387         	9.271
MS.104         	23.34          	9.271
MS.105         	23.292         	9.318
MS.106         	23.247         	9.162
MS.107         	23.2           	9.36
MS.108         	23.155         	9.297
MS.109         	23.108         	9.158
MS.110         	23.062         	9.1
MS.111         	23.015         	9.06
MS.112         	22.97          	9.076
MS.113         	22.925         	9.06
MS.114         	22.877         	9.15
MS.115         	22.832         	9.058
MS.116         	22.788         	9.076
MS.117         	22.743         	9.132
MS.118         	22.695         	9.054
MS.119         	22.65          	9.019
MS.120         	22.605         	9.027
MS.121         	22.56          	9.007
MS.122         	22.515         	8.864
MS.123         	22.47          	8.901
MS.124         	22.425         	8.955
MS.125         	22.38          	8.846
MS.126         	22.335         	8.927
MS.127         	22.29          	8.878
MS.128         	22.247         	9.044
MS.129         	22.202         	9.005
MS.130         	22.157         	8.826
MS.131         	22.112         	8.882
MS.132         	22.07          	8.828
MS.133         	22.025         	8.685
MS.134         	21.98          	8.737
MS.135         	21.938         	8.752
MS.136         	21.892         	8.905
MS.137         	21.85          	8.862
MS.138         	21.805         	8.83
MS.139         	21.762         	8.743
MS.140         	21.72          	8.741
MS.141         	21.675         	8.806
MS.142         	21.632         	8.679
MS.143         	21.59          	8.693
MS.144         	21.545         	8.677
MS.145         	21.502         	8.699
MS.146         	21.46          	9.003
MS.147         	21.417         	9.064
MS.148         	21.375         	8.778
MS.149         	21.333         	8.83
MS.150         	21.29          	8.709
MS.151         	21.247         	8.762
MS.152         	21.205         	8.691
MS.153         	21.163         	8.619
MS.154         	21.12          	8.709
MS.155         	21.077         	8.635
MS.156         	21.035         	8.609
MS.157         	20.993         	8.596
MS.158         	20.95          	8.643
MS.159         	20.91          	8.655
MS.160         	20.868         	8.568
MS.161         	20.825         	8.651
MS.162         	20.785         	8.52
MS.163         	20.743         	8.534
MS.164         	20.7           	8.552
MS.165         	20.66          	8.536
MS.166         	20.618         	8.518
MS.167         	20.577         	8.504
MS.168         	20.535         	8.635
MS.169         	20.495         	8.562
MS.170         	20.455         	8.516
MS.171         	20.413         	8.546
MS.172         	20.372         	8.51
MS.173         	20.333         	8.419
MS.174         	20.29          	8.449
MS.175         	20.25          	8.455
MS.176         	20.21          	8.649
MS.177         	20.17          	8.558
MS.178         	20.13          	8.397
MS.179         	20.09          	8.596
MS.180         	20.05          	8.488
MS.181         	20.01          	8.383
MS.182         	19.97          	8.385
MS.183         	19.93          	8.381
MS.184         	19.89          	8.377
MS.185         	19.85          	8.387
MS.186         	19.81          	8.468
MS.187         	19.77          	8.175
MS.188         	19.73          	8.359
MS.189         	19.692         	8.431
MS.190         	19.653         	8.421
MS.191         	19.612         	8.349
MS.192         	19.573         	8.323
MS.193         	19.535         	8.329
MS.194         	19.495         	8.258
MS.195         	19.458         	8.192
MS.196         	19.417         	8.3
MS.197         	19.38          	8.204
MS.198         	19.34          	8.304
MS.199         	19.302         	8.3
MS.200         	19.262         	8.149
MS.201         	19.225         	8.252
MS.202         	19.185         	8.123
MS.203         	19.147         	8.157
MS.204         	19.11          	8.236
MS.205         	19.07          	7.944
MS.206         	19.032         	8.103
MS.207         	18.995         	7.843
MS.208         	18.958         	8.034
MS.209         	18.92          	8.03
MS.210         	18.882         	7.946
MS.211         	18.845         	7.817
MS.212         	18.805         	7.815
MS.213         	18.767         	7.787
MS.214         	18.73          	7.742
MS.215         	18.692         	7.799
MS.216         	18.657         	7.992
MS.217         	18.62          	7.857
MS.218         	18.583         	7.726
MS.219         	18.545         	7.946
MS.220         	18.507         	7.664
MS.221         	18.47          	7.736
MS.222         	18.432         	7.626
MS.223         	18.397         	7.64
MS.224         	18.36          	7.809
MS.225         	18.323         	7.549
MS.226         	18.288         	7.68
MS.227         	18.25          	7.132
MS.228         	18.215         	7.185
MS.229         	18.177         	7.505
MS.230         	18.14          	6.802
MS.231         	18.105         	7.396
MS.232         	18.067         	6.876
MS.233         	18.032         	6.82
MS.234         	17.997         	7.249
MS.235         	17.96          	7.146
MS.236         	17.925         	6.969
MS.237         	17.89          	7.187
MS.238         	17.852         	6.82
MS.239         	17.817         	6.643
MS.240         	17.782         	6.951
MS.241         	17.747         	6.548
MS.242         	17.71          	6.764
MS.243         	17.675         	6.546
MS.244         	17.64          	6.808
MS.245         	17.605         	6.697
MS.246         	17.57          	6.55
MS.247         	17.535         	6.474
MS.248         	17.5           	6.445
MS.249         	17.465         	6.371
MS.250         	17.43          	6.548
MS.251         	17.395         	6.604
MS.252         	17.36          	6.393
MS.253         	17.325         	6.455
MS.254         	17.29          	6.238
MS.255         	17.257         	6.353
MS.256         	17.222         	6.347
MS.257         	17.188         	6.28
MS.258         	17.153         	6.484
MS.259         	17.12          	6.29
MS.260         	17.085         	6.318
MS.261         	17.05          	6.165
MS.262         	17.017         	5.857
MS.263         	16.983         	6.119
MS.264         	16.948         	6.216
MS.265         	16.915         	6.185
MS.266         	16.88          	5.839
MS.267         	16.847         	5.648
MS.268         	16.812         	5.819
MS.269         	16.78          	5.825
MS.270         	16.747         	5.906
MS.271         	16.712         	5.861
MS.272         	16.68          	6.151
MS.273         	16.645         	6.218
MS.274         	16.612         	6.333
MS.275         	16.58          	5.861
MS.276         	16.547         	5.982
MS.277         	16.512         	5.507
MS.278         	16.48          	5.758
MS.279         	16.448         	5.571
MS.280         	16.415         	5.499
MS.281         	16.382         	5.38
MS.282         	16.35          	5.42
MS.283         	16.317         	5.412
MS.284         	16.285         	5.416
MS.285         	16.253         	5.245
MS.286         	16.22          	5.261
MS.287         	16.188         	5.396
MS.288         	16.155         	5.205
MS.289         	16.122         	5.207
MS.290         	16.09          	5.301
MS.291         	16.057         	5.011
MS.292         	16.025         	5.285
MS.293         	15.992         	4.951
MS.294         	15.962         	5.136
MS.295         	15.93          	5.017
MS.296         	15.898         	4.975
MS.297         	15.865         	5.255
MS.298         	15.835         	5.054
MS.299         	15.802         	5.029
MS.300         	15.77          	5.076
MS.301         	15.74          	4.832
MS.302         	15.707         	5.003
MS.303         	15.677         	4.84
MS.304         	15.645         	4.79
MS.305         	15.615         	4.814
MS.306         	15.582         	4.812
MS.307         	15.552         	4.774
MS.308         	15.52          	4.947
MS.309         	15.49          	4.711
MS.310         	15.46          	4.713
MS.311         	15.427         	4.86
MS.312         	15.398         	4.612
MS.313         	15.367         	4.524
MS.314         	15.335         	4.699
MS.315         	15.305         	4.524
MS.316         	15.275         	4.576
MS.317         	15.245         	4.389
MS.318         	15.212         	4.5
MS.319         	15.182         	4.459
MS.320         	15.152         	4.353
MS.321         	15.122         	4.097
MS.322         	15.092         	4.01
MS.323         	15.062         	4.486
MS.324         	15.032         	4.137
MS.325         	15.002         	4.322
MS.326         	14.972         	4.24
MS.327         	14.943         	3.934
MS.328         	14.912         	3.777
MS.329         	14.882         	3.821
MS.330         	14.852         	4.137
MS.331         	14.822         	4.159
MS.332         	14.792         	3.74
MS.333         	14.765         	3.936
MS.334         	14.735         	4.004
MS.335         	14.705         	3.704
MS.336         	14.675         	3.758
MS.337         	14.645         	3.44
MS.338         	14.617         	3.708
MS.339         	14.587         	3.329
MS.340         	14.557         	3.384
MS.341         	14.53          	3.215
MS.342         	14.5           	3.019
MS.343         	14.472         	2.937
MS.344         	14.443         	3.209
MS.345         	14.412         	3.033
MS.346         	14.385         	3.146
MS.347         	14.355         	2.85
MS.348         	14.327         	2.822
MS.349         	14.3           	3.057
MS.350         	14.27          	2.834
MS.351         	14.242         	2.856
MS.352         	14.212         	2.649
MS.353         	14.185         	2.812
MS.354         	14.157         	2.671
MS.355         	14.127         	2.614
MS.356         	14.1           	2.576
MS.357         	14.072         	2.524
MS.358         	14.045         	2.516
MS.359         	14.015         	2.435
MS.360         	13.987         	2.222
MS.361         	13.96          	2.449
MS.362         	13.932         	2.183
MS.363         	13.905         	2.155
MS.364         	13.877         	2.485
MS.365         	13.847         	2.181
MS.366         	13.82          	2.23
MS.367         	13.792         	2.449
MS.368         	13.765         	2.026
MS.369         	13.737         	1.966
MS.370         	13.71          	2.032
MS.371         	13.682         	2.173
MS.372         	13.655         	1.972
MS.373         	13.63          	2.175
MS.374         	13.602         	1.875
MS.375         	13.575         	2.004
MS.376         	13.547         	1.692
MS.377         	13.52          	1.897
MS.378         	13.492         	1.797
MS.379         	13.465         	1.859
MS.380         	13.44          	1.569
MS.381         	13.412         	1.64
MS.382         	13.385         	1.821
MS.383         	13.36          	1.776
MS.384         	13.332         	1.696
MS.385         	13.305         	1.831
MS.386         	13.28          	1.529
MS.387         	13.252         	1.541
MS.388         	13.225         	1.533
MS.389         	13.2           	1.648
MS.390         	13.172         	1.589
MS.391         	13.148         	1.529
MS.392         	13.12          	1.472
MS.393         	13.095         	1.47
MS.394         	13.068         	1.543
MS.395         	13.042         	1.444
MS.396         	13.015         	1.426
MS.397         	12.99          	1.295
MS.398         	12.965         	1.591
MS.399         	12.938         	1.225
MS.400         	12.912         	1.227
MS.401         	12.887         	1.221
MS.402         	12.86          	1.259
MS.403         	12.835         	1.313
MS.404         	12.81          	1.138
MS.405         	12.785         	1.211
MS.406         	12.757         	1.253
MS.407         	12.733         	1.18
MS.408         	12.707         	1.166
MS.409         	12.682         	1.168
MS.410         	12.657         	1.172
MS.411         	12.632         	0.997
MS.412         	12.605         	1.076
MS.413         	12.58          	0.922
MS.414         	12.555         	0.979
MS.415         	12.53          	0.836
MS.416         	12.505         	0.918
MS.417         	12.48          	0.949
MS.418         	12.455         	0.896
MS.419         	12.43          	0.991
MS.420         	12.405         	0.83
MS.421         	12.38          	0.931
MS.422         	12.358         	0.904
MS.423         	12.332         	0.814
MS.424         	12.307         	0.788
MS.425         	12.282         	0.671
MS.426         	12.257         	0.667
MS.427         	12.233         	0.779
MS.428         	12.21          	0.773
MS.429         	12.185         	0.717
MS.430         	12.16          	0.687
MS.431         	12.135         	0.528
MS.432         	12.113         	0.735
MS.433         	12.087         	0.588
MS.434         	12.062         	0.641
MS.435         	12.04          	0.612
MS.436         	12.015         	0.645
MS.437         	11.992         	0.651
MS.438         	11.967         	0.522
MS.439         	11.943         	0.566
MS.440         	11.92          	0.522
MS.441         	11.895         	0.576
MS.442         	11.872         	0.437
MS.443         	11.847         	0.475
MS.444         	11.825         	0.528
MS.445         	11.8           	0.361
MS.446         	11.778         	0.449
MS.447         	11.755         	0.497
MS.448         	11.73          	0.491
MS.449         	11.707         	0.334
MS.450         	11.682         	0.383
MS.451         	11.66          	0.397
MS.452         	11.637         	0.369
MS.453         	11.613         	0.514
MS.454         	11.59          	0.389
MS.455         	11.568         	0.459
MS.456         	11.545         	0.387
MS.457         	11.52          	0.318
MS.458         	11.497         	0.336
MS.459         	11.475         	0.373
MS.460         	11.452         	0.395
MS.461         	11.43          	0.276
MS.462         	11.407         	0.383
MS.463         	11.382         	0.264
MS.464         	11.36          	0.304
MS.465         	11.337         	0.336
MS.466         	11.315         	0.296
MS.467         	11.292         	0.33
MS.468         	11.27          	0.26
MS.469         	11.247         	0.314
MS.470         	11.225         	0.292
MS.471         	11.202         	0.222
MS.472         	11.18          	0.234
MS.473         	11.157         	0.288
MS.474         	11.135         	0.224
MS.475         	11.113         	0.234
MS.476         	11.092         	0.26
MS.477         	11.07          	0.246
MS.478         	11.047         	0.226
MS.479         	11.025         	0.262
MS.480         	11.002         	0.226
MS.481         	10.98          	0.226
MS.482         	10.96          	0.236
MS.483         	10.938         	0.171
MS.484         	10.915         	0.216
MS.485         	10.892         	0.207
MS.486         	10.872         	0.226
MS.487         	10.85          	0.236
MS.488         	10.827         	0.203
MS.489         	10.807         	0.209
MS.490         	10.785         	0.141
MS.491         	10.762         	0.197
MS.492         	10.742         	0.201
MS.493         	10.72          	0.141
MS.494         	10.7           	0.153
MS.495         	10.677         	0.216
MS.496         	10.657         	0.218
MS.497         	10.635         	0.203
MS.498         	10.615         	0.135
MS.499         	10.592         	0.139
MS.500         	10.573         	0.211
MS.501         	10.55          	0.151
