File:              	C:\Qtrac\Data\Daniel M Sørensen\MScan multicentre study\Data from centres\Newcastle\Processed data\SMC00228B.QZD
Name:              	UK.NEW.NC.5.2
Protocol:          	MSCAN-R2
Date:              	28/2/20
Start time:        	09:23:29
Age:               	40
Sex:               	F
Temperature:       	32.9
S/R sites:         	ADM
NC/disease:        	NC
Operator:          	SM
Comments:
M-SCAN DATA (6.1-2.1m)
Scanpts: 7, 21, 402, 423
Stim. (mA)     	Amp. (mV)
MS.1           	18             	7.775
MS.2           	18             	7.783
MS.3           	18             	7.775
MS.4           	18             	7.757
MS.5           	18             	7.763
MS.6           	18             	7.769
MS.7           	18             	7.781
MS.8           	18             	7.767
MS.9           	18             	7.765
MS.10          	18             	7.765
MS.11          	18             	7.775
MS.12          	18             	7.791
MS.13          	18             	7.789
MS.14          	18             	7.775
MS.15          	18             	7.787
MS.16          	18             	7.799
MS.17          	18             	7.771
MS.18          	18             	7.757
MS.19          	18             	7.773
MS.20          	18             	7.755
MS.21          	18             	7.781
MS.22          	18             	7.795
MS.23          	18             	7.805
MS.24          	17.927         	7.779
MS.25          	17.892         	7.813
MS.26          	17.858         	7.813
MS.27          	17.82          	7.789
MS.28          	17.785         	7.809
MS.29          	17.75          	7.781
MS.30          	17.715         	7.789
MS.31          	17.68          	7.773
MS.32          	17.642         	7.753
MS.33          	17.608         	7.777
MS.34          	17.573         	7.801
MS.35          	17.538         	7.775
MS.36          	17.503         	7.757
MS.37          	17.467         	7.765
MS.38          	17.432         	7.791
MS.39          	17.397         	7.805
MS.40          	17.362         	7.765
MS.41          	17.33          	7.722
MS.42          	17.295         	7.744
MS.43          	17.26          	7.696
MS.44          	17.225         	7.708
MS.45          	17.19          	7.668
MS.46          	17.157         	7.728
MS.47          	17.122         	7.686
MS.48          	17.087         	7.682
MS.49          	17.052         	7.696
MS.50          	17.02          	7.684
MS.51          	16.985         	7.71
MS.52          	16.952         	7.686
MS.53          	16.917         	7.698
MS.54          	16.885         	7.68
MS.55          	16.85          	7.722
MS.56          	16.817         	7.718
MS.57          	16.782         	7.714
MS.58          	16.75          	7.686
MS.59          	16.715         	7.716
MS.60          	16.682         	7.686
MS.61          	16.65          	7.726
MS.62          	16.615         	7.73
MS.63          	16.583         	7.66
MS.64          	16.55          	7.64
MS.65          	16.517         	7.603
MS.66          	16.483         	7.646
MS.67          	16.45          	7.769
MS.68          	16.417         	7.748
MS.69          	16.385         	7.589
MS.70          	16.352         	7.682
MS.71          	16.32          	7.74
MS.72          	16.288         	7.593
MS.73          	16.255         	7.628
MS.74          	16.222         	7.573
MS.75          	16.19          	7.573
MS.76          	16.157         	7.553
MS.77          	16.125         	7.559
MS.78          	16.092         	7.406
MS.79          	16.06          	7.41
MS.80          	16.028         	7.408
MS.81          	15.997         	7.634
MS.82          	15.965         	7.471
MS.83          	15.932         	7.509
MS.84          	15.9           	7.473
MS.85          	15.87          	7.442
MS.86          	15.837         	7.406
MS.87          	15.805         	7.398
MS.88          	15.775         	7.456
MS.89          	15.742         	7.34
MS.90          	15.71          	7.456
MS.91          	15.68          	7.281
MS.92          	15.648         	7.368
MS.93          	15.617         	7.356
MS.94          	15.585         	7.243
MS.95          	15.555         	7.152
MS.96          	15.523         	7.191
MS.97          	15.492         	7.251
MS.98          	15.462         	7.166
MS.99          	15.43          	7.205
MS.100         	15.4           	7.046
MS.101         	15.37          	7.096
MS.102         	15.337         	7.029
MS.103         	15.307         	6.987
MS.104         	15.277         	6.911
MS.105         	15.247         	6.888
MS.106         	15.217         	6.939
MS.107         	15.185         	6.951
MS.108         	15.155         	6.8
MS.109         	15.125         	6.999
MS.110         	15.095         	6.909
MS.111         	15.065         	6.604
MS.112         	15.035         	6.57
MS.113         	15.005         	6.882
MS.114         	14.975         	6.528
MS.115         	14.945         	6.524
MS.116         	14.915         	6.469
MS.117         	14.885         	6.093
MS.118         	14.855         	6.135
MS.119         	14.825         	6.331
MS.120         	14.795         	5.942
MS.121         	14.767         	5.94
MS.122         	14.737         	5.98
MS.123         	14.707         	6.057
MS.124         	14.677         	5.722
MS.125         	14.65          	5.771
MS.126         	14.62          	5.847
MS.127         	14.59          	5.573
MS.128         	14.562         	5.837
MS.129         	14.532         	5.583
MS.130         	14.502         	5.497
MS.131         	14.475         	5.714
MS.132         	14.445         	5.358
MS.133         	14.417         	5.275
MS.134         	14.387         	5.448
MS.135         	14.36          	5.543
MS.136         	14.33          	5.086
MS.137         	14.302         	5.287
MS.138         	14.273         	4.941
MS.139         	14.245         	4.975
MS.140         	14.215         	4.929
MS.141         	14.188         	4.836
MS.142         	14.16          	4.88
MS.143         	14.13          	4.8
MS.144         	14.102         	4.79
MS.145         	14.075         	4.612
MS.146         	14.047         	4.681
MS.147         	14.017         	4.842
MS.148         	13.99          	4.673
MS.149         	13.962         	4.693
MS.150         	13.935         	4.582
MS.151         	13.907         	4.574
MS.152         	13.88          	4.562
MS.153         	13.85          	4.429
MS.154         	13.822         	4.155
MS.155         	13.795         	4.179
MS.156         	13.767         	4.341
MS.157         	13.74          	4.324
MS.158         	13.712         	4.016
MS.159         	13.685         	3.922
MS.160         	13.657         	4.032
MS.161         	13.632         	3.706
MS.162         	13.605         	3.819
MS.163         	13.577         	3.718
MS.164         	13.55          	3.779
MS.165         	13.523         	3.843
MS.166         	13.495         	3.42
MS.167         	13.467         	3.615
MS.168         	13.443         	3.291
MS.169         	13.415         	3.251
MS.170         	13.387         	3.098
MS.171         	13.362         	2.959
MS.172         	13.335         	2.953
MS.173         	13.307         	3.019
MS.174         	13.282         	2.687
MS.175         	13.255         	2.751
MS.176         	13.227         	2.616
MS.177         	13.202         	2.647
MS.178         	13.175         	2.405
MS.179         	13.15          	2.403
MS.180         	13.122         	2.639
MS.181         	13.097         	2.546
MS.182         	13.07          	2.494
MS.183         	13.045         	2.514
MS.184         	13.017         	2.492
MS.185         	12.992         	2.389
MS.186         	12.967         	2.214
MS.187         	12.94          	2.326
MS.188         	12.915         	2.324
MS.189         	12.89          	2.25
MS.190         	12.862         	2.344
MS.191         	12.837         	2.191
MS.192         	12.812         	2.163
MS.193         	12.785         	2.177
MS.194         	12.76          	2.107
MS.195         	12.735         	2.026
MS.196         	12.71          	2.026
MS.197         	12.685         	2.107
MS.198         	12.66          	2.036
MS.199         	12.632         	2.038
MS.200         	12.608         	1.845
MS.201         	12.582         	2
MS.202         	12.557         	1.865
MS.203         	12.532         	1.851
MS.204         	12.507         	1.885
MS.205         	12.483         	1.847
MS.206         	12.457         	1.837
MS.207         	12.432         	1.736
MS.208         	12.407         	1.811
MS.209         	12.382         	1.813
MS.210         	12.36          	1.676
MS.211         	12.335         	1.821
MS.212         	12.31          	1.74
MS.213         	12.285         	1.754
MS.214         	12.26          	1.674
MS.215         	12.235         	1.646
MS.216         	12.212         	1.595
MS.217         	12.188         	1.662
MS.218         	12.162         	1.644
MS.219         	12.137         	1.585
MS.220         	12.115         	1.597
MS.221         	12.09          	1.501
MS.222         	12.065         	1.476
MS.223         	12.042         	1.527
MS.224         	12.017         	1.472
MS.225         	11.992         	1.484
MS.226         	11.97          	1.462
MS.227         	11.945         	1.539
MS.228         	11.922         	1.456
MS.229         	11.898         	1.41
MS.230         	11.875         	1.523
MS.231         	11.85          	1.456
MS.232         	11.827         	1.48
MS.233         	11.802         	1.398
MS.234         	11.78          	1.456
MS.235         	11.755         	1.378
MS.236         	11.733         	1.478
MS.237         	11.71          	1.321
MS.238         	11.685         	1.299
MS.239         	11.662         	1.325
MS.240         	11.64          	1.37
MS.241         	11.615         	1.263
MS.242         	11.592         	1.358
MS.243         	11.57          	1.315
MS.244         	11.547         	1.247
MS.245         	11.523         	1.273
MS.246         	11.5           	1.172
MS.247         	11.477         	1.241
MS.248         	11.455         	1.307
MS.249         	11.432         	1.265
MS.250         	11.407         	1.221
MS.251         	11.385         	1.202
MS.252         	11.363         	1.263
MS.253         	11.34          	1.138
MS.254         	11.318         	1.162
MS.255         	11.295         	1.249
MS.256         	11.273         	1.088
MS.257         	11.25          	1.146
MS.258         	11.227         	1.08
MS.259         	11.205         	1.215
MS.260         	11.182         	1.116
MS.261         	11.16          	1.1
MS.262         	11.137         	1.033
MS.263         	11.115         	1.08
MS.264         	11.092         	1.078
MS.265         	11.073         	1.146
MS.266         	11.05          	1.068
MS.267         	11.028         	1.11
MS.268         	11.005         	1.025
MS.269         	10.983         	1.076
MS.270         	10.962         	1.051
MS.271         	10.94          	1.029
MS.272         	10.917         	1.055
MS.273         	10.895         	1.065
MS.274         	10.875         	0.989
MS.275         	10.852         	0.997
MS.276         	10.83          	1.009
MS.277         	10.81          	1.035
MS.278         	10.787         	0.999
MS.279         	10.765         	1.007
MS.280         	10.745         	0.983
MS.281         	10.722         	0.971
MS.282         	10.702         	0.957
MS.283         	10.68          	0.961
MS.284         	10.657         	0.953
MS.285         	10.637         	0.957
MS.286         	10.615         	0.914
MS.287         	10.595         	0.939
MS.288         	10.573         	0.888
MS.289         	10.552         	0.973
MS.290         	10.532         	0.884
MS.291         	10.51          	0.854
MS.292         	10.49          	0.92
MS.293         	10.467         	0.912
MS.294         	10.448         	0.884
MS.295         	10.427         	0.874
MS.296         	10.405         	0.862
MS.297         	10.385         	0.852
MS.298         	10.365         	0.866
MS.299         	10.342         	0.858
MS.300         	10.323         	0.757
MS.301         	10.302         	0.788
MS.302         	10.282         	0.737
MS.303         	10.26          	0.771
MS.304         	10.24          	0.79
MS.305         	10.22          	0.834
MS.306         	10.2           	0.691
MS.307         	10.18          	0.792
MS.308         	10.16          	0.711
MS.309         	10.14          	0.749
MS.310         	10.117         	0.703
MS.311         	10.097         	0.663
MS.312         	10.077         	0.622
MS.313         	10.057         	0.671
MS.314         	10.037         	0.602
MS.315         	10.017         	0.592
MS.316         	9.997          	0.572
MS.317         	9.977          	0.516
MS.318         	9.957          	0.55
MS.319         	9.938          	0.584
MS.320         	9.917          	0.485
MS.321         	9.898          	0.483
MS.322         	9.877          	0.532
MS.323         	9.86           	0.491
MS.324         	9.84           	0.487
MS.325         	9.82           	0.473
MS.326         	9.8            	0.481
MS.327         	9.78           	0.512
MS.328         	9.76           	0.508
MS.329         	9.74           	0.493
MS.330         	9.722          	0.449
MS.331         	9.702          	0.361
MS.332         	9.682          	0.338
MS.333         	9.662          	0.437
MS.334         	9.645          	0.391
MS.335         	9.625          	0.348
MS.336         	9.605          	0.338
MS.337         	9.587          	0.32
MS.338         	9.568          	0.28
MS.339         	9.547          	0.336
MS.340         	9.53           	0.29
MS.341         	9.51           	0.26
MS.342         	9.49           	0.256
MS.343         	9.472          	0.252
MS.344         	9.452          	0.352
MS.345         	9.435          	0.214
MS.346         	9.415          	0.276
MS.347         	9.398          	0.197
MS.348         	9.377          	0.211
MS.349         	9.36           	0.226
MS.350         	9.34           	0.201
MS.351         	9.323          	0.187
MS.352         	9.302          	0.205
MS.353         	9.285          	0.129
MS.354         	9.265          	0.195
MS.355         	9.247          	0.226
MS.356         	9.23           	0.193
MS.357         	9.21           	0.185
MS.358         	9.193          	0.119
MS.359         	9.175          	0.113
MS.360         	9.155          	0.169
MS.361         	9.137          	0.163
MS.362         	9.12           	0.101
MS.363         	9.1            	0.111
MS.364         	9.082          	0.097
MS.365         	9.065          	0.099
MS.366         	9.047          	0.097
MS.367         	9.028          	0.135
MS.368         	9.01           	0.093
MS.369         	8.992          	0.097
MS.370         	8.975          	0.054
MS.371         	8.957          	0.03
MS.372         	8.938          	0.173
MS.373         	8.92           	0.058
MS.374         	8.903          	0.073
MS.375         	8.885          	0.099
MS.376         	8.867          	0.068
MS.377         	8.85           	0.026
MS.378         	8.832          	0.06
MS.379         	8.815          	0.046
MS.380         	8.797          	0.091
MS.381         	8.78           	0.018
MS.382         	8.762          	0.01
MS.383         	8.745          	0.056
MS.384         	8.727          	0.01
MS.385         	8.71           	0.02
MS.386         	8.693          	0.024
MS.387         	8.675          	0.026
MS.388         	8.658          	0.002
MS.389         	8.64           	0.012
MS.390         	8.622          	0.01
MS.391         	8.605          	0.02
MS.392         	8.587          	0.016
MS.393         	8.57           	0.022
MS.394         	8.552          	0.016
MS.395         	8.537          	0.014
MS.396         	8.52           	0.008
MS.397         	8.502          	0.002
MS.398         	8.485          	0.004
MS.399         	8.467          	0.004
MS.400         	8.452          	-0.002
MS.401         	8.435          	0.000
MS.402         	8.417          	-0.004
MS.403         	8.4            	0.008
MS.404         	8.385          	-0.004
MS.405         	8.367          	0.008
MS.406         	8.35           	0.008
MS.407         	8.335          	-0.002
MS.408         	8.318          	-0.002
MS.409         	8.3            	-0.002
MS.410         	8.285          	-0.002
MS.411         	8.267          	-0.002
MS.412         	8.252          	-0.004
MS.413         	8.235          	-0.002
MS.414         	8.217          	-0.002
MS.415         	8.202          	-0.004
MS.416         	8.185          	0.000
MS.417         	8.17           	-0.004
MS.418         	8.153          	-0.002
MS.419         	8.137          	-0.002
MS.420         	8.12           	-0.002
MS.421         	8.105          	-0.004
MS.422         	8.087          	-0.004
MS.423         	8.073          	-0.002
MS.424         	8.055          	-0.002
MS.425         	8.04           	-0.002
MS.426         	8.023          	0.000
MS.427         	8.007          	-0.002
MS.428         	7.992          	0.000
MS.429         	7.975          	-0.004
MS.430         	7.96           	-0.004
MS.431         	7.942          	0.000
MS.432         	7.927          	-0.002
MS.433         	7.912          	-0.004
MS.434         	7.895          	-0.002
MS.435         	7.88           	-0.004
MS.436         	7.865          	-0.002
MS.437         	7.85           	0.000
MS.438         	7.832          	0.000
MS.439         	7.817          	-0.002
MS.440         	7.802          	-0.002
MS.441         	7.787          	-0.002
MS.442         	7.77           	-0.002
MS.443         	7.755          	0.000
MS.444         	7.74           	-0.004
MS.445         	7.725          	-0.002
MS.446         	7.71           	0.002
MS.447         	7.692          	-0.006
MS.448         	7.677          	-0.002
MS.449         	7.662          	-0.002
MS.450         	7.648          	0.000
DERIVED EXCITABILITY VARIABLES
Program = QTracP 9/10/2021
Threshold method = 6 (optimised for CAP, using data for present condition only)
SR method = 1 (using actual data values)
6.                 	0.000               	Peak response\(mV)
9.                 	32.9                	Temperature ( C)
17.                	40                  	Age (years)
18.                	2                   	Sex (M=1, F=2)

EXTRA VARIABLES

MScPeak(mV) = 7.78
MScS5(mA) = 9.68
MScS50(mA) = 13.65
MScS95(mA) = 15.73
MScNSteps = 3
MScSteps(%) = 7.5
MScStepMax(%) = 2.6
MScD50 = 38
MScSlope = 6.77
MScDuration(min) = 4
MSFTraces = 417
MSFPeakAmp(mV) = 7.78
MSFNUnits = 176
MSFMeanUnitAmp(uV) = 44.2
MSFHuntTime(m) = 2.65
MSFError(%) = 3.06
MSFNLarge = 60.42
MSFMedianAmp(%) = 0.517
MSFMedianAmp(mV) = 0.0402
MSFHalfAmpAmp(%) = 0.627
MSFHalfAmpAmp(mV) = 0.0487
MSFLargestAmp(%) = 1.84
MSFLargestAmp(mV) = 0.143
MSFMeanRS(%) = 2
MSFSizeLimit(uV) = 19.4
MSFLimitType = 1
MSFSmallestAmp(uV) = 19.6
MSFOpts = 10106121

EXTRA WAVEFORMS


!MScan Model
!176
	1	8.66	0.31	2
	2	8.82	0.36	2
	3	9.01	0.62	2
	4	9.11	0.41	2
	5	9.19	0.29	2
	6	9.28	0.38	2
	7	9.36	0.5	2
	8	9.46	0.48	2
	9	9.51	0.35	2
	10	9.55	0.34	2
	11	9.6	0.35	2
	12	9.64	0.45	2
	13	9.68	0.51	2
	14	9.79	0.68	2
	15	9.85	0.42	2
	16	9.89	0.29	2
	17	9.92	0.32	2
	18	9.99	0.47	2
	19	10.03	0.42	2
	20	10.06	0.27	2
	21	10.11	0.49	2
	22	10.14	0.33	2
	23	10.18	0.39	2
	24	10.22	0.32	2
	25	10.29	0.57	2
	26	10.35	0.36	2
	27	10.45	0.54	2
	28	10.51	0.46	2
	29	10.61	0.43	2
	30	10.7	0.42	2
	31	10.79	0.35	2
	32	10.9	0.48	2
	33	11.09	0.66	2
	34	11.22	0.66	2
	35	11.32	0.55	2
	36	11.44	0.7	2
	37	11.53	0.54	2
	38	11.59	0.45	2
	39	11.66	0.48	2
	40	11.72	0.41	2
	41	11.83	0.61	2
	42	11.92	0.52	2
	43	11.99	0.58	2
	44	12.06	0.37	2
	45	12.11	0.43	2
	46	12.13	0.26	2
	47	12.16	0.26	2
	48	12.21	0.38	2
	49	12.24	0.29	2
	50	12.27	0.32	2
	51	12.3	0.35	2
