File:              	C:\Qtrac\Data\Daniel M Sørensen\MScan multicentre study\Data from centres\Newcastle\Processed data\SMC00304E.QZD
Name:              	UK.NEW.NC.8.2
Protocol:          	MSCAN-R2
Date:              	4/3/20
Start time:        	12:21:06
Age:               	62
Sex:               	M
Temperature:       	28.4
S/R sites:         	ADM
NC/disease:        	NC
Operator:          	SM
Comments:
M-SCAN DATA (Repeat 2/2, 5.6-0.0m)
Scanpts: 17, 24, 534, 550
Stim. (mA)     	Amp. (mV)
MS.1           	26             	12.101
MS.2           	25.948         	12.077
MS.3           	25.895         	12.089
MS.4           	25.845         	12.071
MS.5           	25.792         	12.091
MS.6           	25.743         	12.053
MS.7           	25.69          	12.016
MS.8           	25.637         	12.006
MS.9           	25.587         	11.992
MS.10          	25.535         	12.039
MS.11          	25.485         	11.972
MS.12          	25.435         	12.023
MS.13          	25.382         	11.982
MS.14          	25.332         	11.978
MS.15          	25.282         	11.96
MS.16          	25.233         	11.984
MS.17          	25.18          	11.982
MS.18          	25.13          	11.978
MS.19          	25.08          	11.966
MS.20          	25.03          	11.964
MS.21          	24.98          	11.952
MS.22          	24.93          	11.962
MS.23          	24.88          	11.958
MS.24          	24.83          	11.97
MS.25          	24.782         	11.96
MS.26          	24.733         	11.94
MS.27          	24.682         	11.94
MS.28          	24.632         	11.936
MS.29          	24.585         	11.95
MS.30          	24.535         	11.92
MS.31          	24.485         	11.922
MS.32          	24.438         	11.926
MS.33          	24.387         	11.912
MS.34          	24.34          	11.882
MS.35          	24.29          	11.817
MS.36          	24.243         	11.873
MS.37          	24.195         	11.835
MS.38          	24.145         	11.811
MS.39          	24.097         	11.831
MS.40          	24.05          	11.805
MS.41          	24             	11.837
MS.42          	23.952         	11.825
MS.43          	23.905         	11.811
MS.44          	23.858         	11.783
MS.45          	23.81          	11.819
MS.46          	23.762         	11.793
MS.47          	23.715         	11.823
MS.48          	23.667         	11.805
MS.49          	23.62          	11.799
MS.50          	23.573         	11.785
MS.51          	23.525         	11.773
MS.52          	23.48          	11.755
MS.53          	23.432         	11.791
MS.54          	23.385         	11.793
MS.55          	23.337         	11.769
MS.56          	23.292         	11.767
MS.57          	23.245         	11.791
MS.58          	23.198         	11.767
MS.59          	23.153         	11.749
MS.60          	23.105         	11.737
MS.61          	23.06          	11.753
MS.62          	23.015         	11.741
MS.63          	22.967         	11.757
MS.64          	22.922         	11.757
MS.65          	22.875         	11.751
MS.66          	22.83          	11.749
MS.67          	22.785         	11.72
MS.68          	22.74          	11.749
MS.69          	22.695         	11.787
MS.70          	22.647         	11.771
MS.71          	22.602         	11.724
MS.72          	22.557         	11.753
MS.73          	22.512         	11.739
MS.74          	22.467         	11.71
MS.75          	22.422         	11.741
MS.76          	22.377         	11.712
MS.77          	22.332         	11.694
MS.78          	22.29          	11.696
MS.79          	22.245         	11.708
MS.80          	22.2           	11.714
MS.81          	22.155         	11.704
MS.82          	22.112         	11.718
MS.83          	22.067         	11.708
MS.84          	22.022         	11.69
MS.85          	21.98          	11.662
MS.86          	21.935         	11.676
MS.87          	21.892         	11.726
MS.88          	21.847         	11.686
MS.89          	21.805         	11.686
MS.90          	21.76          	11.636
MS.91          	21.717         	11.662
MS.92          	21.672         	11.608
MS.93          	21.63          	11.581
MS.94          	21.587         	11.519
MS.95          	21.545         	11.453
MS.96          	21.5           	11.428
MS.97          	21.458         	11.446
MS.98          	21.415         	11.444
MS.99          	21.372         	11.432
MS.100         	21.33          	11.366
MS.101         	21.288         	11.426
MS.102         	21.245         	11.432
MS.103         	21.202         	11.471
MS.104         	21.16          	11.374
MS.105         	21.118         	11.461
MS.106         	21.075         	11.422
MS.107         	21.032         	11.408
MS.108         	20.99          	11.344
MS.109         	20.95          	11.386
MS.110         	20.907         	11.328
MS.111         	20.865         	11.384
MS.112         	20.825         	11.342
MS.113         	20.782         	11.376
MS.114         	20.74          	11.279
MS.115         	20.7           	11.285
MS.116         	20.657         	11.259
MS.117         	20.618         	11.293
MS.118         	20.575         	11.219
MS.119         	20.535         	11.247
MS.120         	20.493         	11.267
MS.121         	20.452         	11.247
MS.122         	20.413         	11.243
MS.123         	20.37          	11.257
MS.124         	20.33          	11.134
MS.125         	20.29          	11.187
MS.126         	20.25          	11.05
MS.127         	20.208         	11.237
MS.128         	20.167         	11.171
MS.129         	20.127         	10.844
MS.130         	20.087         	11.144
MS.131         	20.047         	11.084
MS.132         	20.007         	10.846
MS.133         	19.967         	10.897
MS.134         	19.927         	10.856
MS.135         	19.887         	10.955
MS.136         	19.847         	10.814
MS.137         	19.807         	10.84
MS.138         	19.767         	10.746
MS.139         	19.73          	10.764
MS.140         	19.69          	10.79
MS.141         	19.65          	10.731
MS.142         	19.61          	10.762
MS.143         	19.573         	10.907
MS.144         	19.532         	10.679
MS.145         	19.495         	10.681
MS.146         	19.455         	10.679
MS.147         	19.415         	10.703
MS.148         	19.377         	10.649
MS.149         	19.337         	10.603
MS.150         	19.3           	10.633
MS.151         	19.262         	10.639
MS.152         	19.222         	10.635
MS.153         	19.185         	10.629
MS.154         	19.145         	10.621
MS.155         	19.108         	10.506
MS.156         	19.07          	10.576
MS.157         	19.032         	10.554
MS.158         	18.993         	10.478
MS.159         	18.955         	10.57
MS.160         	18.917         	10.504
MS.161         	18.88          	10.47
MS.162         	18.842         	10.395
MS.163         	18.805         	10.234
MS.164         	18.767         	10.482
MS.165         	18.73          	10.381
MS.166         	18.692         	10.248
MS.167         	18.655         	10.26
MS.168         	18.618         	10.159
MS.169         	18.58          	10.232
MS.170         	18.542         	10.067
MS.171         	18.505         	10.117
MS.172         	18.47          	10.21
MS.173         	18.432         	10.004
MS.174         	18.395         	10.049
MS.175         	18.358         	9.841
MS.176         	18.323         	10.083
MS.177         	18.285         	10.057
MS.178         	18.25          	10.041
MS.179         	18.212         	9.948
MS.180         	18.175         	10.037
MS.181         	18.14          	10.043
MS.182         	18.102         	9.982
MS.183         	18.067         	9.916
MS.184         	18.03          	9.95
MS.185         	17.995         	9.952
MS.186         	17.96          	10.006
MS.187         	17.922         	9.706
MS.188         	17.887         	9.859
MS.189         	17.852         	9.857
MS.190         	17.815         	9.65
MS.191         	17.78          	9.658
MS.192         	17.745         	9.7
MS.193         	17.71          	9.656
MS.194         	17.675         	9.579
MS.195         	17.637         	9.755
MS.196         	17.602         	9.515
MS.197         	17.567         	9.573
MS.198         	17.532         	9.587
MS.199         	17.497         	9.545
MS.200         	17.462         	9.368
MS.201         	17.427         	9.436
MS.202         	17.392         	9.442
MS.203         	17.36          	9.479
MS.204         	17.325         	9.285
MS.205         	17.29          	9.461
MS.206         	17.255         	9.412
MS.207         	17.22          	9.346
MS.208         	17.185         	9.481
MS.209         	17.153         	9.241
MS.210         	17.118         	9.338
MS.211         	17.083         	9.315
MS.212         	17.05          	9.326
MS.213         	17.015         	9.303
MS.214         	16.98          	9.205
MS.215         	16.948         	9.223
MS.216         	16.913         	9.253
MS.217         	16.88          	8.973
MS.218         	16.845         	9.108
MS.219         	16.812         	9.172
MS.220         	16.778         	8.868
MS.221         	16.745         	9.094
MS.222         	16.712         	8.85
MS.223         	16.677         	8.969
MS.224         	16.645         	8.882
MS.225         	16.612         	9.038
MS.226         	16.577         	8.502
MS.227         	16.545         	8.86
MS.228         	16.512         	8.711
MS.229         	16.48          	8.389
MS.230         	16.445         	8.623
MS.231         	16.413         	8.316
MS.232         	16.38          	8.594
MS.233         	16.347         	8.367
MS.234         	16.315         	8.147
MS.235         	16.282         	8.226
MS.236         	16.25          	8.3
MS.237         	16.217         	7.664
MS.238         	16.185         	8.083
MS.239         	16.153         	8.119
MS.240         	16.12          	7.992
MS.241         	16.087         	7.696
MS.242         	16.055         	7.734
MS.243         	16.025         	7.652
MS.244         	15.992         	7.654
MS.245         	15.96          	7.559
MS.246         	15.927         	7.539
MS.247         	15.898         	7.436
MS.248         	15.865         	7.348
MS.249         	15.832         	7.271
MS.250         	15.802         	7.328
MS.251         	15.77          	7.551
MS.252         	15.737         	7.215
MS.253         	15.707         	7.229
MS.254         	15.675         	7.158
MS.255         	15.645         	7.122
MS.256         	15.612         	7.11
MS.257         	15.582         	7.068
MS.258         	15.55          	7.215
MS.259         	15.52          	7.235
MS.260         	15.487         	7.154
MS.261         	15.457         	7.142
MS.262         	15.427         	7.072
MS.263         	15.395         	6.995
MS.264         	15.365         	7.084
MS.265         	15.335         	7.162
MS.266         	15.302         	7.052
MS.267         	15.273         	7.06
MS.268         	15.242         	7.005
MS.269         	15.212         	7.037
MS.270         	15.182         	7.09
MS.271         	15.152         	6.965
MS.272         	15.12          	7.068
MS.273         	15.09          	7.021
MS.274         	15.06          	6.864
MS.275         	15.03          	7.138
MS.276         	15             	7.058
MS.277         	14.97          	6.814
MS.278         	14.94          	6.878
MS.279         	14.91          	6.913
MS.280         	14.88          	6.917
MS.281         	14.852         	6.903
MS.282         	14.822         	6.83
MS.283         	14.792         	6.844
MS.284         	14.762         	6.747
MS.285         	14.733         	6.802
MS.286         	14.702         	6.804
MS.287         	14.675         	6.8
MS.288         	14.645         	6.774
MS.289         	14.615         	6.671
MS.290         	14.587         	6.892
MS.291         	14.557         	6.804
MS.292         	14.527         	6.717
MS.293         	14.5           	6.788
MS.294         	14.47          	6.612
MS.295         	14.443         	6.758
MS.296         	14.412         	6.61
MS.297         	14.382         	6.816
MS.298         	14.355         	6.623
MS.299         	14.327         	6.663
MS.300         	14.297         	6.629
MS.301         	14.27          	6.709
MS.302         	14.24          	6.443
MS.303         	14.212         	6.532
MS.304         	14.185         	6.643
MS.305         	14.155         	6.29
MS.306         	14.127         	6.504
MS.307         	14.1           	6.053
MS.308         	14.07          	6.443
MS.309         	14.042         	6.488
MS.310         	14.015         	6.326
MS.311         	13.987         	6.653
MS.312         	13.957         	5.771
MS.313         	13.93          	6.143
MS.314         	13.903         	5.67
MS.315         	13.875         	5.65
MS.316         	13.847         	5.722
MS.317         	13.82          	5.744
MS.318         	13.792         	5.847
MS.319         	13.765         	5.557
MS.320         	13.737         	5.497
MS.321         	13.71          	5.636
MS.322         	13.682         	5.458
MS.323         	13.655         	5.456
MS.324         	13.627         	5.398
MS.325         	13.6           	5.38
MS.326         	13.572         	5.362
MS.327         	13.545         	5.255
MS.328         	13.52          	5.45
MS.329         	13.492         	5.525
MS.330         	13.465         	5.231
MS.331         	13.438         	5.313
MS.332         	13.412         	5.285
MS.333         	13.385         	5.301
MS.334         	13.358         	5.336
MS.335         	13.33          	5.132
MS.336         	13.305         	5.235
MS.337         	13.278         	5.215
MS.338         	13.252         	4.991
MS.339         	13.225         	4.969
MS.340         	13.197         	5.049
MS.341         	13.172         	5.027
MS.342         	13.145         	4.884
MS.343         	13.12          	4.842
MS.344         	13.092         	4.755
MS.345         	13.068         	4.26
MS.346         	13.04          	4.778
MS.347         	13.015         	4.55
MS.348         	12.99          	4.355
MS.349         	12.962         	3.94
MS.350         	12.938         	4.316
MS.351         	12.91          	4.479
MS.352         	12.885         	4.282
MS.353         	12.86          	4.093
MS.354         	12.835         	3.954
MS.355         	12.807         	3.68
MS.356         	12.782         	3.847
MS.357         	12.757         	3.65
MS.358         	12.733         	3.712
MS.359         	12.707         	3.329
MS.360         	12.68          	3.634
MS.361         	12.655         	3.223
MS.362         	12.63          	3.053
MS.363         	12.605         	3.051
MS.364         	12.58          	3.386
MS.365         	12.555         	2.786
MS.366         	12.53          	2.884
MS.367         	12.505         	2.917
MS.368         	12.48          	3.053
MS.369         	12.455         	2.975
MS.370         	12.43          	2.91
MS.371         	12.405         	2.407
MS.372         	12.38          	2.512
MS.373         	12.355         	2.757
MS.374         	12.33          	2.302
MS.375         	12.305         	2.383
MS.376         	12.282         	2.455
MS.377         	12.257         	2.395
MS.378         	12.233         	2.383
MS.379         	12.207         	2.145
MS.380         	12.182         	2.171
MS.381         	12.16          	1.98
MS.382         	12.135         	1.924
MS.383         	12.11          	2.073
MS.384         	12.087         	1.978
MS.385         	12.062         	2.103
MS.386         	12.037         	2.002
MS.387         	12.015         	1.875
MS.388         	11.99          	1.726
MS.389         	11.967         	1.851
MS.390         	11.943         	1.859
MS.391         	11.917         	1.837
MS.392         	11.895         	1.692
MS.393         	11.87          	1.525
MS.394         	11.847         	1.694
MS.395         	11.822         	1.674
MS.396         	11.8           	1.65
MS.397         	11.778         	1.557
MS.398         	11.752         	1.613
MS.399         	11.73          	1.605
MS.400         	11.705         	1.38
MS.401         	11.682         	1.424
MS.402         	11.66          	1.535
MS.403         	11.635         	1.422
MS.404         	11.613         	1.531
MS.405         	11.59          	1.394
MS.406         	11.568         	1.404
MS.407         	11.542         	1.301
MS.408         	11.52          	1.356
MS.409         	11.497         	1.337
MS.410         	11.475         	1.349
MS.411         	11.45          	1.108
MS.412         	11.427         	1.152
MS.413         	11.405         	1.17
MS.414         	11.382         	1.164
MS.415         	11.36          	1.206
MS.416         	11.337         	1.162
MS.417         	11.315         	1.118
MS.418         	11.292         	1.116
MS.419         	11.27          	1.007
MS.420         	11.247         	1.027
MS.421         	11.225         	1.098
MS.422         	11.202         	0.987
MS.423         	11.18          	0.963
MS.424         	11.157         	0.977
MS.425         	11.135         	0.894
MS.426         	11.113         	0.866
MS.427         	11.09          	0.904
MS.428         	11.068         	0.908
MS.429         	11.047         	0.89
MS.430         	11.025         	0.906
MS.431         	11.002         	0.824
MS.432         	10.98          	0.721
MS.433         	10.957         	0.908
MS.434         	10.938         	0.852
MS.435         	10.915         	0.788
MS.436         	10.892         	0.699
MS.437         	10.87          	0.8
MS.438         	10.85          	0.713
MS.439         	10.827         	0.755
MS.440         	10.805         	0.796
MS.441         	10.785         	0.681
MS.442         	10.762         	0.711
MS.443         	10.742         	0.665
MS.444         	10.72          	0.516
MS.445         	10.698         	0.57
MS.446         	10.677         	0.512
MS.447         	10.655         	0.576
MS.448         	10.635         	0.56
MS.449         	10.613         	0.58
MS.450         	10.592         	0.568
MS.451         	10.57          	0.719
MS.452         	10.55          	0.568
MS.453         	10.528         	0.475
MS.454         	10.507         	0.572
MS.455         	10.488         	0.51
MS.456         	10.465         	0.477
MS.457         	10.445         	0.487
MS.458         	10.425         	0.459
MS.459         	10.403         	0.502
MS.460         	10.382         	0.51
MS.461         	10.363         	0.445
MS.462         	10.34          	0.461
MS.463         	10.32          	0.401
MS.464         	10.3           	0.312
MS.465         	10.28          	0.409
MS.466         	10.257         	0.471
MS.467         	10.238         	0.304
MS.468         	10.217         	0.457
MS.469         	10.198         	0.393
MS.470         	10.177         	0.393
MS.471         	10.157         	0.407
MS.472         	10.135         	0.284
MS.473         	10.115         	0.286
MS.474         	10.095         	0.316
MS.475         	10.075         	0.322
MS.476         	10.055         	0.322
MS.477         	10.035         	0.352
MS.478         	10.015         	0.393
MS.479         	9.995          	0.29
MS.480         	9.975          	0.284
MS.481         	9.955          	0.314
MS.482         	9.935          	0.294
MS.483         	9.915          	0.29
MS.484         	9.895          	0.288
MS.485         	9.875          	0.278
MS.486         	9.855          	0.284
MS.487         	9.837          	0.296
MS.488         	9.818          	0.284
MS.489         	9.797          	0.29
MS.490         	9.778          	0.28
MS.491         	9.757          	0.288
MS.492         	9.738          	0.27
MS.493         	9.72           	0.28
MS.494         	9.7            	0.272
MS.495         	9.68           	0.318
MS.496         	9.66           	0.29
