File:              	C:\Qtrac\Data\Daniel M Sørensen\MScan multicentre study\Data from centres\Odense\Processed data\PHC00909A.QZD
Name:              	DK.ODE.NC.4.1
Protocol:          	MSCAN-R2
Date:              	9/9/20
Start time:        	10:13:42
Age:               	51
Sex:               	F
Temperature:       	32.0
S/R sites:         	APB
NC/disease:        	NC
Operator:          	TK
Comments:
M-SCAN DATA (6.8-1.3m)
Scanpts: 120, 128, 571, 592
Stim. (mA)     	Amp. (mV)
MS.1           	23             	7.464
MS.2           	23             	7.4
MS.3           	23             	7.412
MS.4           	23             	7.414
MS.5           	23             	7.428
MS.6           	23             	7.432
MS.7           	23             	7.446
MS.8           	23             	7.424
MS.9           	23             	7.416
MS.10          	23             	7.424
MS.11          	23             	7.452
MS.12          	23             	7.456
MS.13          	23             	7.462
MS.14          	23             	7.454
MS.15          	23             	7.452
MS.16          	23             	7.436
MS.17          	23             	7.43
MS.18          	23             	7.442
MS.19          	23             	7.422
MS.20          	23             	7.42
MS.21          	23             	7.432
MS.22          	23             	7.426
MS.23          	22.907         	7.438
MS.24          	22.862         	7.426
MS.25          	22.817         	7.434
MS.26          	22.77          	7.43
MS.27          	22.725         	7.428
MS.28          	22.68          	7.44
MS.29          	22.635         	7.458
MS.30          	22.59          	7.444
MS.31          	22.545         	7.462
MS.32          	22.5           	7.456
MS.33          	22.455         	7.483
MS.34          	22.41          	7.45
MS.35          	22.365         	7.469
MS.36          	22.32          	7.456
MS.37          	22.275         	7.464
MS.38          	22.23          	7.456
MS.39          	22.188         	7.458
MS.40          	22.142         	7.448
MS.41          	22.097         	7.456
MS.42          	22.055         	7.454
MS.43          	22.01          	7.448
MS.44          	21.965         	7.444
MS.45          	21.922         	7.446
MS.46          	21.877         	7.475
MS.47          	21.835         	7.452
MS.48          	21.79          	7.481
MS.49          	21.747         	7.458
MS.50          	21.705         	7.471
MS.51          	21.66          	7.466
MS.52          	21.618         	7.464
MS.53          	21.575         	7.466
MS.54          	21.53          	7.458
MS.55          	21.487         	7.456
MS.56          	21.445         	7.483
MS.57          	21.403         	7.495
MS.58          	21.36          	7.503
MS.59          	21.317         	7.493
MS.60          	21.275         	7.511
MS.61          	21.233         	7.487
MS.62          	21.19          	7.489
MS.63          	21.147         	7.493
MS.64          	21.105         	7.507
MS.65          	21.062         	7.493
MS.66          	21.02          	7.499
MS.67          	20.977         	7.513
MS.68          	20.938         	7.521
MS.69          	20.895         	7.511
MS.70          	20.852         	7.487
MS.71          	20.81          	7.487
MS.72          	20.77          	7.521
MS.73          	20.727         	7.517
MS.74          	20.688         	7.521
MS.75          	20.645         	7.517
MS.76          	20.605         	7.505
MS.77          	20.562         	7.517
MS.78          	20.522         	7.493
MS.79          	20.48          	7.491
MS.80          	20.44          	7.466
MS.81          	20.4           	7.471
MS.82          	20.358         	7.495
MS.83          	20.317         	7.477
MS.84          	20.278         	7.479
MS.85          	20.237         	7.495
MS.86          	20.195         	7.452
MS.87          	20.155         	7.507
MS.88          	20.115         	7.479
MS.89          	20.075         	7.509
MS.90          	20.035         	7.493
MS.91          	19.995         	7.505
MS.92          	19.955         	7.479
MS.93          	19.915         	7.501
MS.94          	19.875         	7.501
MS.95          	19.835         	7.489
MS.96          	19.795         	7.481
MS.97          	19.757         	7.497
MS.98          	19.717         	7.507
MS.99          	19.677         	7.503
MS.100         	19.637         	7.491
MS.101         	19.6           	7.501
MS.102         	19.56          	7.503
MS.103         	19.52          	7.507
MS.104         	19.483         	7.519
MS.105         	19.442         	7.517
MS.106         	19.405         	7.531
MS.107         	19.365         	7.519
MS.108         	19.327         	7.499
MS.109         	19.288         	7.503
MS.110         	19.25          	7.489
MS.111         	19.21          	7.501
MS.112         	19.172         	7.491
MS.113         	19.135         	7.497
MS.114         	19.095         	7.487
MS.115         	19.057         	7.481
MS.116         	19.02          	7.491
MS.117         	18.983         	7.487
MS.118         	18.945         	7.487
MS.119         	18.905         	7.481
MS.120         	18.868         	7.487
MS.121         	18.83          	7.479
MS.122         	18.792         	7.473
MS.123         	18.755         	7.462
MS.124         	18.717         	7.45
MS.125         	18.68          	7.464
MS.126         	18.642         	7.458
MS.127         	18.605         	7.444
MS.128         	18.57          	7.473
MS.129         	18.532         	7.466
MS.130         	18.495         	7.45
MS.131         	18.458         	7.452
MS.132         	18.42          	7.458
MS.133         	18.385         	7.452
MS.134         	18.347         	7.473
MS.135         	18.31          	7.446
MS.136         	18.275         	7.446
MS.137         	18.237         	7.464
MS.138         	18.202         	7.466
MS.139         	18.165         	7.45
MS.140         	18.128         	7.464
MS.141         	18.092         	7.446
MS.142         	18.055         	7.458
MS.143         	18.02          	7.464
MS.144         	17.985         	7.436
MS.145         	17.948         	7.436
MS.146         	17.913         	7.458
MS.147         	17.878         	7.458
MS.148         	17.84          	7.448
MS.149         	17.805         	7.458
MS.150         	17.77          	7.426
MS.151         	17.735         	7.442
MS.152         	17.698         	7.454
MS.153         	17.663         	7.434
MS.154         	17.628         	7.422
MS.155         	17.592         	7.426
MS.156         	17.557         	7.42
MS.157         	17.522         	7.434
MS.158         	17.487         	7.418
MS.159         	17.452         	7.414
MS.160         	17.417         	7.426
MS.161         	17.382         	7.412
MS.162         	17.347         	7.418
MS.163         	17.312         	7.426
MS.164         	17.28          	7.408
MS.165         	17.245         	7.458
MS.166         	17.21          	7.442
MS.167         	17.175         	7.446
MS.168         	17.142         	7.438
MS.169         	17.108         	7.454
MS.170         	17.073         	7.475
MS.171         	17.04          	7.479
MS.172         	17.005         	7.43
MS.173         	16.97          	7.428
MS.174         	16.938         	7.434
MS.175         	16.903         	7.436
MS.176         	16.87          	7.432
MS.177         	16.835         	7.386
MS.178         	16.802         	7.428
MS.179         	16.767         	7.402
MS.180         	16.735         	7.386
MS.181         	16.702         	7.396
MS.182         	16.667         	7.398
MS.183         	16.635         	7.406
MS.184         	16.602         	7.38
MS.185         	16.567         	7.372
MS.186         	16.535         	7.384
MS.187         	16.503         	7.388
MS.188         	16.47          	7.382
MS.189         	16.438         	7.36
MS.190         	16.403         	7.368
MS.191         	16.37          	7.382
MS.192         	16.337         	7.36
MS.193         	16.305         	7.356
MS.194         	16.272         	7.336
MS.195         	16.24          	7.358
MS.196         	16.208         	7.346
MS.197         	16.175         	7.33
MS.198         	16.142         	7.374
MS.199         	16.11          	7.332
MS.200         	16.077         	7.34
MS.201         	16.047         	7.36
MS.202         	16.015         	7.364
MS.203         	15.983         	7.346
MS.204         	15.95          	7.338
MS.205         	15.917         	7.338
MS.206         	15.887         	7.34
MS.207         	15.855         	7.336
MS.208         	15.822         	7.35
MS.209         	15.792         	7.334
MS.210         	15.76          	7.358
MS.211         	15.73          	7.239
MS.212         	15.697         	7.094
MS.213         	15.665         	7.108
MS.214         	15.635         	7.108
MS.215         	15.602         	7.09
MS.216         	15.572         	7.13
MS.217         	15.54          	7.233
MS.218         	15.51          	7.209
MS.219         	15.48          	7.233
MS.220         	15.447         	7.253
MS.221         	15.417         	7.247
MS.222         	15.387         	7.245
MS.223         	15.355         	7.249
MS.224         	15.325         	7.263
MS.225         	15.295         	7.257
MS.226         	15.265         	7.245
MS.227         	15.233         	7.231
MS.228         	15.202         	7.243
MS.229         	15.172         	7.223
MS.230         	15.142         	7.233
MS.231         	15.112         	7.231
MS.232         	15.082         	7.221
MS.233         	15.052         	7.239
MS.234         	15.023         	7.233
MS.235         	14.992         	7.231
MS.236         	14.962         	7.229
MS.237         	14.932         	7.237
MS.238         	14.902         	7.217
MS.239         	14.872         	7.213
MS.240         	14.842         	7.209
MS.241         	14.812         	7.211
MS.242         	14.782         	7.217
MS.243         	14.752         	7.209
MS.244         	14.725         	7.207
MS.245         	14.695         	7.211
MS.246         	14.665         	7.221
MS.247         	14.635         	7.217
MS.248         	14.608         	7.215
MS.249         	14.577         	7.217
MS.250         	14.547         	7.215
MS.251         	14.52          	7.215
MS.252         	14.49          	7.052
MS.253         	14.462         	7.203
MS.254         	14.432         	7.027
MS.255         	14.405         	7.193
MS.256         	14.375         	7.18
MS.257         	14.347         	7.191
MS.258         	14.318         	7.156
MS.259         	14.29          	7.187
MS.260         	14.26          	6.981
MS.261         	14.233         	7.023
MS.262         	14.202         	7.18
MS.263         	14.175         	6.997
MS.264         	14.148         	7.035
MS.265         	14.117         	7.14
MS.266         	14.09          	7.14
MS.267         	14.062         	7.18
MS.268         	14.035         	6.971
MS.269         	14.005         	6.975
MS.270         	13.977         	7.134
MS.271         	13.95          	6.987
MS.272         	13.922         	6.931
MS.273         	13.895         	6.941
MS.274         	13.867         	6.892
MS.275         	13.84          	6.939
MS.276         	13.812         	6.933
MS.277         	13.785         	6.842
MS.278         	13.755         	6.848
MS.279         	13.727         	6.884
MS.280         	13.702         	6.84
MS.281         	13.675         	6.82
MS.282         	13.648         	6.842
MS.283         	13.62          	6.78
MS.284         	13.592         	6.86
MS.285         	13.565         	6.61
MS.286         	13.537         	6.872
MS.287         	13.51          	6.455
MS.288         	13.485         	6.397
MS.289         	13.457         	6.19
MS.290         	13.43          	6.318
MS.291         	13.403         	6.363
MS.292         	13.377         	6.065
MS.293         	13.35          	5.748
MS.294         	13.322         	6.147
MS.295         	13.297         	6.337
MS.296         	13.27          	5.899
MS.297         	13.242         	5.698
MS.298         	13.217         	5.454
MS.299         	13.19          	5.376
MS.300         	13.165         	5.656
MS.301         	13.137         	5.565
MS.302         	13.112         	5.676
MS.303         	13.085         	5.291
MS.304         	13.06          	5.36
MS.305         	13.032         	5.317
MS.306         	13.007         	5.327
MS.307         	12.98          	5.001
MS.308         	12.955         	5.068
MS.309         	12.93          	4.892
MS.310         	12.903         	5.104
MS.311         	12.877         	5.108
MS.312         	12.852         	5.049
MS.313         	12.825         	4.977
MS.314         	12.8           	4.941
MS.315         	12.775         	4.971
MS.316         	12.75          	4.882
MS.317         	12.725         	4.874
MS.318         	12.697         	4.894
MS.319         	12.672         	4.965
MS.320         	12.648         	4.973
MS.321         	12.622         	4.921
MS.322         	12.597         	4.896
MS.323         	12.572         	4.81
MS.324         	12.547         	4.864
MS.325         	12.523         	4.858
MS.326         	12.497         	4.77
MS.327         	12.472         	4.588
MS.328         	12.447         	4.798
MS.329         	12.422         	4.455
MS.330         	12.398         	4.582
MS.331         	12.372         	4.602
MS.332         	12.347         	4.56
MS.333         	12.322         	4.502
MS.334         	12.297         	4.451
MS.335         	12.275         	4.326
MS.336         	12.25          	4.343
MS.337         	12.225         	4.371
MS.338         	12.2           	4.302
MS.339         	12.177         	4.189
MS.340         	12.153         	4.286
MS.341         	12.127         	4.318
MS.342         	12.102         	4.212
MS.343         	12.08          	4.038
MS.344         	12.055         	4.155
MS.345         	12.03          	4.137
MS.346         	12.007         	3.873
MS.347         	11.983         	4.081
MS.348         	11.96          	3.889
MS.349         	11.935         	3.829
MS.350         	11.912         	3.958
MS.351         	11.887         	3.716
MS.352         	11.865         	3.714
MS.353         	11.84          	3.716
MS.354         	11.818         	3.72
MS.355         	11.792         	3.754
MS.356         	11.77          	3.766
MS.357         	11.745         	3.644
MS.358         	11.722         	3.827
MS.359         	11.7           	3.696
MS.360         	11.675         	3.865
MS.361         	11.653         	3.507
MS.362         	11.63          	3.503
MS.363         	11.605         	3.468
MS.364         	11.582         	3.539
MS.365         	11.56          	3.329
MS.366         	11.535         	3.374
MS.367         	11.512         	3.372
MS.368         	11.49          	3.174
MS.369         	11.467         	3.017
MS.370         	11.445         	3.057
MS.371         	11.422         	3.005
MS.372         	11.398         	3.126
MS.373         	11.375         	2.931
MS.374         	11.352         	3.047
MS.375         	11.33          	2.806
MS.376         	11.307         	2.832
MS.377         	11.285         	2.852
MS.378         	11.262         	2.945
MS.379         	11.24          	2.707
MS.380         	11.217         	2.695
MS.381         	11.195         	2.671
MS.382         	11.172         	2.481
MS.383         	11.15          	2.54
MS.384         	11.127         	2.485
MS.385         	11.105         	2.461
MS.386         	11.085         	2.498
MS.387         	11.062         	2.391
MS.388         	11.04          	2.193
MS.389         	11.017         	2.262
MS.390         	10.995         	2.278
MS.391         	10.972         	2.395
MS.392         	10.952         	2.071
MS.393         	10.93          	2.306
MS.394         	10.907         	2.25
MS.395         	10.885         	1.962
MS.396         	10.865         	1.956
MS.397         	10.842         	1.946
MS.398         	10.82          	1.789
MS.399         	10.8           	1.702
MS.400         	10.778         	1.603
MS.401         	10.757         	1.853
MS.402         	10.735         	1.893
MS.403         	10.712         	1.644
MS.404         	10.693         	1.728
MS.405         	10.67          	1.696
MS.406         	10.65          	1.497
MS.407         	10.627         	1.654
MS.408         	10.608         	1.495
MS.409         	10.585         	1.559
MS.410         	10.565         	1.486
MS.411         	10.542         	1.154
MS.412         	10.523         	1.652
MS.413         	10.5           	1.335
MS.414         	10.48          	1.172
MS.415         	10.46          	1.229
MS.416         	10.438         	0.775
MS.417         	10.417         	0.971
MS.418         	10.398         	0.985
MS.419         	10.375         	0.79
MS.420         	10.355         	0.763
MS.421         	10.335         	0.902
MS.422         	10.315         	0.701
MS.423         	10.292         	0.755
MS.424         	10.273         	0.757
MS.425         	10.252         	0.508
MS.426         	10.233         	0.614
MS.427         	10.212         	0.626
MS.428         	10.19          	0.592
MS.429         	10.17          	0.453
MS.430         	10.15          	0.516
MS.431         	10.13          	0.433
MS.432         	10.11          	0.391
MS.433         	10.09          	0.546
MS.434         	10.07          	0.423
MS.435         	10.05          	0.467
MS.436         	10.03          	0.387
MS.437         	10.01          	0.338
MS.438         	9.99           	0.228
MS.439         	9.97           	0.431
MS.440         	9.95           	0.346
MS.441         	9.93           	0.318
MS.442         	9.91           	0.369
MS.443         	9.89           	0.199
MS.444         	9.87           	0.254
MS.445         	9.85           	0.322
MS.446         	9.83           	0.236
MS.447         	9.81           	0.252
MS.448         	9.792          	0.242
MS.449         	9.773          	0.179
MS.450         	9.752          	0.224
MS.451         	9.733          	0.244
MS.452         	9.712          	0.207
MS.453         	9.695          	0.127
MS.454         	9.675          	0.22
MS.455         	9.655          	0.179
MS.456         	9.635          	0.123
MS.457         	9.617          	0.123
MS.458         	9.597          	0.187
MS.459         	9.577          	0.147
MS.460         	9.56           	0.139
MS.461         	9.54           	0.121
MS.462         	9.52           	0.064
MS.463         	9.502          	0.024
MS.464         	9.483          	0.04
MS.465         	9.465          	0.073
MS.466         	9.445          	0.064
MS.467         	9.425          	0.03
MS.468         	9.407          	0.026
MS.469         	9.387          	0.034
MS.470         	9.37           	0.036
MS.471         	9.35           	0.026
MS.472         	9.332          	0.056
MS.473         	9.312          	0.109
MS.474         	9.295          	0.02
MS.475         	9.278          	0.038
MS.476         	9.257          	0.03
MS.477         	9.24           	0.036
MS.478         	9.22           	0.032
MS.479         	9.202          	0.034
MS.480         	9.185          	0.026
MS.481         	9.165          	0.036
MS.482         	9.148          	0.034
MS.483         	9.13           	0.038
MS.484         	9.11           	0.03
MS.485         	9.092          	0.034
MS.486         	9.075          	0.046
MS.487         	9.057          	0.034
MS.488         	9.037          	0.042
MS.489         	9.02           	0.036
MS.490         	9.002          	0.04
MS.491         	8.985          	0.026
MS.492         	8.967          	0.026
MS.493         	8.948          	0.056
MS.494         	8.93           	0.038
MS.495         	8.912          	0.042
MS.496         	8.895          	0.05
MS.497         	8.877          	0.038
MS.498         	8.86           	0.03
MS.499         	8.842          	0.04
MS.500         	8.825          	0.038
MS.501         	8.807          	0.04
