File:              	C:\Qtrac\Data\Daniel M Sørensen\MScan multicentre study\Data from centres\Odense\Processed data\TKC01014C (2).QZD
Name:              	DK.ODE.NC.6.1
Protocol:          	MSCAN-R2
Date:              	14/10/20
Start time:        	13:50:06
Age:               	50
Sex:               	F
Temperature:       	30.9
S/R sites:         	TA
NC/disease:        	NC
Operator:          	TK
Comments:
M-SCAN DATA (6.6-0.7m)
Scanpts: 107, 114, 579, 586
Stim. (mA)     	Amp. (mV)
MS.1           	24             	5.758
MS.2           	24             	5.779
MS.3           	24             	5.803
MS.4           	24             	5.742
MS.5           	24             	5.767
MS.6           	24             	5.769
MS.7           	24             	5.744
MS.8           	24             	5.835
MS.9           	24             	5.75
MS.10          	24             	5.799
MS.11          	24             	5.805
MS.12          	24             	5.775
MS.13          	24             	5.767
MS.14          	24             	5.738
MS.15          	24             	5.758
MS.16          	24             	5.736
MS.17          	24             	5.799
MS.18          	24             	5.758
MS.19          	24             	5.765
MS.20          	24             	5.771
MS.21          	24             	5.72
MS.22          	24             	5.837
MS.23          	23.905         	5.797
MS.24          	23.858         	5.771
MS.25          	23.807         	5.754
MS.26          	23.76          	5.793
MS.27          	23.712         	5.754
MS.28          	23.665         	5.771
MS.29          	23.62          	5.797
MS.30          	23.573         	5.793
MS.31          	23.525         	5.787
MS.32          	23.477         	5.825
MS.33          	23.43          	5.767
MS.34          	23.385         	5.803
MS.35          	23.337         	5.807
MS.36          	23.29          	5.775
MS.37          	23.245         	5.797
MS.38          	23.198         	5.813
MS.39          	23.153         	5.811
MS.40          	23.105         	5.859
MS.41          	23.06          	5.845
MS.42          	23.012         	5.831
MS.43          	22.967         	5.889
MS.44          	22.92          	5.853
MS.45          	22.875         	5.895
MS.46          	22.83          	5.845
MS.47          	22.785         	5.861
MS.48          	22.737         	5.839
MS.49          	22.692         	5.877
MS.50          	22.647         	5.847
MS.51          	22.602         	5.863
MS.52          	22.557         	5.839
MS.53          	22.512         	5.867
MS.54          	22.467         	5.924
MS.55          	22.422         	5.883
MS.56          	22.377         	5.914
MS.57          	22.332         	5.893
MS.58          	22.288         	5.849
MS.59          	22.243         	5.853
MS.60          	22.2           	5.928
MS.61          	22.155         	5.885
MS.62          	22.11          	5.908
MS.63          	22.067         	5.906
MS.64          	22.022         	5.932
MS.65          	21.977         	5.867
MS.66          	21.935         	5.893
MS.67          	21.89          	5.936
MS.68          	21.847         	5.851
MS.69          	21.802         	5.944
MS.70          	21.76          	5.952
MS.71          	21.715         	5.877
MS.72          	21.672         	5.97
MS.73          	21.63          	5.918
MS.74          	21.585         	5.934
MS.75          	21.542         	5.98
MS.76          	21.5           	5.966
MS.77          	21.458         	5.982
MS.78          	21.415         	5.982
MS.79          	21.372         	5.904
MS.80          	21.327         	5.978
MS.81          	21.285         	5.948
MS.82          	21.243         	5.944
MS.83          	21.2           	5.958
MS.84          	21.157         	5.968
MS.85          	21.118         	5.99
MS.86          	21.075         	5.954
MS.87          	21.032         	5.974
MS.88          	20.99          	6
MS.89          	20.948         	6.008
MS.90          	20.907         	5.974
MS.91          	20.865         	5.976
MS.92          	20.823         	5.968
MS.93          	20.78          	6.028
MS.94          	20.74          	5.972
MS.95          	20.698         	6.004
MS.96          	20.657         	6.032
MS.97          	20.615         	5.99
MS.98          	20.575         	6.006
MS.99          	20.532         	6.014
MS.100         	20.493         	6.008
MS.101         	20.452         	6.067
MS.102         	20.41          	5.992
MS.103         	20.37          	6.018
MS.104         	20.33          	6.012
MS.105         	20.288         	6.034
MS.106         	20.247         	5.994
MS.107         	20.208         	6.04
MS.108         	20.167         	6.002
MS.109         	20.127         	6.073
MS.110         	20.087         	6.063
MS.111         	20.047         	5.98
MS.112         	20.007         	6.032
MS.113         	19.967         	6.014
MS.114         	19.927         	6.01
MS.115         	19.887         	6.038
MS.116         	19.847         	6.032
MS.117         	19.807         	6.03
MS.118         	19.767         	5.992
MS.119         	19.727         	5.952
MS.120         	19.69          	6.016
MS.121         	19.65          	5.976
MS.122         	19.61          	5.992
MS.123         	19.57          	5.924
MS.124         	19.532         	5.988
MS.125         	19.493         	6.02
MS.126         	19.455         	5.988
MS.127         	19.415         	6.079
MS.128         	19.377         	5.98
MS.129         	19.337         	6.059
MS.130         	19.3           	6.01
MS.131         	19.26          	5.958
MS.132         	19.222         	6.069
MS.133         	19.182         	6.006
MS.134         	19.145         	6.02
MS.135         	19.108         	6.049
MS.136         	19.067         	5.992
MS.137         	19.03          	6.004
MS.138         	18.993         	5.998
MS.139         	18.955         	6.022
MS.140         	18.917         	6.049
MS.141         	18.88          	6.016
MS.142         	18.842         	5.92
MS.143         	18.802         	5.96
MS.144         	18.765         	6.042
MS.145         	18.727         	5.988
MS.146         	18.69          	6.004
MS.147         	18.655         	5.972
MS.148         	18.618         	5.988
MS.149         	18.58          	5.966
MS.150         	18.542         	5.954
MS.151         	18.505         	5.95
MS.152         	18.467         	6.016
MS.153         	18.432         	5.924
MS.154         	18.395         	5.972
MS.155         	18.358         	5.972
MS.156         	18.32          	5.986
MS.157         	18.285         	6.022
MS.158         	18.247         	5.95
MS.159         	18.212         	5.932
MS.160         	18.175         	5.968
MS.161         	18.137         	5.966
MS.162         	18.102         	5.95
MS.163         	18.067         	5.912
MS.164         	18.03          	5.944
MS.165         	17.995         	5.899
MS.166         	17.958         	5.948
MS.167         	17.922         	5.899
MS.168         	17.887         	5.92
MS.169         	17.85          	5.897
MS.170         	17.815         	5.906
MS.171         	17.78          	5.934
MS.172         	17.745         	5.908
MS.173         	17.708         	5.918
MS.174         	17.672         	5.984
MS.175         	17.637         	5.948
MS.176         	17.602         	5.875
MS.177         	17.567         	5.855
MS.178         	17.532         	5.926
MS.179         	17.497         	5.922
MS.180         	17.462         	5.835
MS.181         	17.427         	5.91
MS.182         	17.392         	5.91
MS.183         	17.358         	5.871
MS.184         	17.323         	5.865
MS.185         	17.288         	5.849
MS.186         	17.255         	5.877
MS.187         	17.22          	5.891
MS.188         	17.185         	5.817
MS.189         	17.15          	5.849
MS.190         	17.118         	5.924
MS.191         	17.083         	5.855
MS.192         	17.047         	5.809
MS.193         	17.015         	5.789
MS.194         	16.98          	5.793
MS.195         	16.948         	5.767
MS.196         	16.913         	5.805
MS.197         	16.878         	5.722
MS.198         	16.845         	5.728
MS.199         	16.812         	5.831
MS.200         	16.778         	5.793
MS.201         	16.745         	5.724
MS.202         	16.71          	5.722
MS.203         	16.677         	5.833
MS.204         	16.645         	5.72
MS.205         	16.61          	5.678
MS.206         	16.577         	5.728
MS.207         	16.545         	5.756
MS.208         	16.512         	5.654
MS.209         	16.477         	5.698
MS.210         	16.445         	5.682
MS.211         	16.413         	5.69
MS.212         	16.38          	5.74
MS.213         	16.347         	5.688
MS.214         	16.315         	5.682
MS.215         	16.282         	5.607
MS.216         	16.25          	5.642
MS.217         	16.217         	5.611
MS.218         	16.185         	5.658
MS.219         	16.153         	5.565
MS.220         	16.12          	5.555
MS.221         	16.087         	5.565
MS.222         	16.055         	5.581
MS.223         	16.022         	5.545
MS.224         	15.992         	5.563
MS.225         	15.96          	5.388
MS.226         	15.927         	5.583
MS.227         	15.895         	5.539
MS.228         	15.865         	5.493
MS.229         	15.832         	5.454
MS.230         	15.8           	5.323
MS.231         	15.77          	5.464
MS.232         	15.737         	5.301
MS.233         	15.705         	5.412
MS.234         	15.675         	5.271
MS.235         	15.642         	5.382
MS.236         	15.612         	5.261
MS.237         	15.58          	5.201
MS.238         	15.55          	5.223
MS.239         	15.52          	5.283
MS.240         	15.487         	5.207
MS.241         	15.457         	5.279
MS.242         	15.425         	5.152
MS.243         	15.395         	5.15
MS.244         	15.365         	5.166
MS.245         	15.332         	5.043
MS.246         	15.302         	5.134
MS.247         	15.273         	5.08
MS.248         	15.242         	4.977
MS.249         	15.212         	5.072
MS.250         	15.18          	5.009
MS.251         	15.15          	5.009
MS.252         	15.12          	5.104
MS.253         	15.09          	5.058
MS.254         	15.06          	4.977
MS.255         	15.03          	4.995
MS.256         	15             	5.11
MS.257         	14.97          	5.023
MS.258         	14.94          	4.888
MS.259         	14.91          	4.969
MS.260         	14.88          	4.971
MS.261         	14.85          	4.906
MS.262         	14.82          	4.937
MS.263         	14.792         	4.884
MS.264         	14.762         	4.888
MS.265         	14.733         	4.945
MS.266         	14.702         	4.935
MS.267         	14.672         	4.768
MS.268         	14.645         	4.818
MS.269         	14.615         	4.806
MS.270         	14.585         	4.824
MS.271         	14.557         	4.844
MS.272         	14.527         	4.812
MS.273         	14.497         	4.792
MS.274         	14.47          	4.8
MS.275         	14.44          	4.79
MS.276         	14.412         	4.743
MS.277         	14.382         	4.713
MS.278         	14.355         	4.715
MS.279         	14.325         	4.86
MS.280         	14.297         	4.693
MS.281         	14.267         	4.687
MS.282         	14.24          	4.703
MS.283         	14.212         	4.729
MS.284         	14.182         	4.592
MS.285         	14.155         	4.673
MS.286         	14.127         	4.731
MS.287         	14.097         	4.604
MS.288         	14.07          	4.554
MS.289         	14.042         	4.506
MS.290         	14.015         	4.451
MS.291         	13.985         	4.459
MS.292         	13.957         	4.522
MS.293         	13.93          	4.564
MS.294         	13.903         	4.377
MS.295         	13.875         	4.373
MS.296         	13.847         	4.403
MS.297         	13.82          	4.475
MS.298         	13.792         	4.318
MS.299         	13.765         	4.347
MS.300         	13.737         	4.226
MS.301         	13.71          	4.328
MS.302         	13.682         	4.353
MS.303         	13.655         	4.252
MS.304         	13.627         	4.236
MS.305         	13.6           	4.296
MS.306         	13.572         	4.179
MS.307         	13.545         	4.198
MS.308         	13.517         	4.143
MS.309         	13.492         	4.05
MS.310         	13.465         	4.105
MS.311         	13.438         	4.042
MS.312         	13.41          	4.057
MS.313         	13.385         	3.972
MS.314         	13.358         	4.079
MS.315         	13.33          	4.071
MS.316         	13.305         	3.92
MS.317         	13.278         	3.887
MS.318         	13.25          	3.891
MS.319         	13.225         	3.847
MS.320         	13.197         	3.795
MS.321         	13.172         	3.783
MS.322         	13.145         	3.698
MS.323         	13.12          	3.827
MS.324         	13.092         	3.773
MS.325         	13.068         	3.712
MS.326         	13.04          	3.758
MS.327         	13.015         	3.722
MS.328         	12.987         	3.65
MS.329         	12.962         	3.583
MS.330         	12.938         	3.636
MS.331         	12.91          	3.527
MS.332         	12.885         	3.511
MS.333         	12.86          	3.543
MS.334         	12.832         	3.621
MS.335         	12.807         	3.503
MS.336         	12.782         	3.577
MS.337         	12.757         	3.529
MS.338         	12.73          	3.529
MS.339         	12.705         	3.468
MS.340         	12.68          	3.432
MS.341         	12.655         	3.37
MS.342         	12.63          	3.358
MS.343         	12.605         	3.319
MS.344         	12.58          	3.446
MS.345         	12.555         	3.303
MS.346         	12.53          	3.436
MS.347         	12.505         	3.102
MS.348         	12.48          	3.289
MS.349         	12.455         	3.229
MS.350         	12.43          	3.158
MS.351         	12.405         	3.09
MS.352         	12.38          	3.094
MS.353         	12.355         	3.098
MS.354         	12.33          	3.066
MS.355         	12.305         	2.987
MS.356         	12.28          	3.094
MS.357         	12.257         	3.037
MS.358         	12.233         	3.116
MS.359         	12.207         	2.987
MS.360         	12.182         	2.832
MS.361         	12.16          	2.782
MS.362         	12.135         	2.806
MS.363         	12.11          	2.834
MS.364         	12.085         	2.86
MS.365         	12.062         	2.765
MS.366         	12.037         	2.693
MS.367         	12.012         	2.691
MS.368         	11.99          	2.596
MS.369         	11.965         	2.659
MS.370         	11.943         	2.546
MS.371         	11.917         	2.6
MS.372         	11.895         	2.665
MS.373         	11.87          	2.55
MS.374         	11.847         	2.532
MS.375         	11.822         	2.395
MS.376         	11.8           	2.473
MS.377         	11.775         	2.365
MS.378         	11.752         	2.431
MS.379         	11.73          	2.369
MS.380         	11.705         	2.324
MS.381         	11.682         	2.195
MS.382         	11.657         	2.435
MS.383         	11.635         	2.266
MS.384         	11.613         	2.346
MS.385         	11.59          	2.181
MS.386         	11.565         	2.22
MS.387         	11.542         	2.201
MS.388         	11.52          	2.137
MS.389         	11.497         	2.185
MS.390         	11.472         	2.034
MS.391         	11.45          	2.008
MS.392         	11.427         	2.044
MS.393         	11.405         	1.895
MS.394         	11.382         	1.93
MS.395         	11.36          	1.944
MS.396         	11.337         	1.986
MS.397         	11.315         	1.924
MS.398         	11.292         	1.837
MS.399         	11.27          	1.795
MS.400         	11.247         	1.797
MS.401         	11.225         	1.885
MS.402         	11.202         	1.724
MS.403         	11.18          	1.706
MS.404         	11.157         	1.668
MS.405         	11.135         	1.676
MS.406         	11.113         	1.646
MS.407         	11.09          	1.674
MS.408         	11.068         	1.597
MS.409         	11.045         	1.527
MS.410         	11.023         	1.579
MS.411         	11.002         	1.573
MS.412         	10.98          	1.486
MS.413         	10.957         	1.37
MS.414         	10.935         	1.525
MS.415         	10.915         	1.432
MS.416         	10.892         	1.472
MS.417         	10.87          	1.38
MS.418         	10.85          	1.456
MS.419         	10.827         	1.229
MS.420         	10.805         	1.283
MS.421         	10.785         	1.362
MS.422         	10.762         	1.263
MS.423         	10.74          	1.134
MS.424         	10.72          	1.211
MS.425         	10.698         	1.108
MS.426         	10.677         	1.172
MS.427         	10.655         	1.154
MS.428         	10.635         	0.993
MS.429         	10.613         	1.061
MS.430         	10.592         	1.045
MS.431         	10.57          	1.041
MS.432         	10.55          	0.991
MS.433         	10.528         	1.084
MS.434         	10.507         	0.961
MS.435         	10.485         	0.914
MS.436         	10.465         	0.854
MS.437         	10.445         	0.886
MS.438         	10.422         	0.868
MS.439         	10.403         	0.84
MS.440         	10.382         	0.935
MS.441         	10.36          	0.773
MS.442         	10.34          	0.88
MS.443         	10.32          	0.739
MS.444         	10.3           	0.83
MS.445         	10.278         	0.739
MS.446         	10.257         	0.802
MS.447         	10.238         	0.806
MS.448         	10.217         	0.711
MS.449         	10.198         	0.671
MS.450         	10.175         	0.701
MS.451         	10.155         	0.719
MS.452         	10.135         	0.62
MS.453         	10.115         	0.683
MS.454         	10.095         	0.586
MS.455         	10.075         	0.604
MS.456         	10.055         	0.628
MS.457         	10.035         	0.665
MS.458         	10.015         	0.612
MS.459         	9.995          	0.528
MS.460         	9.975          	0.524
MS.461         	9.955          	0.54
MS.462         	9.935          	0.596
MS.463         	9.915          	0.491
MS.464         	9.895          	0.594
MS.465         	9.875          	0.554
MS.466         	9.855          	0.548
MS.467         	9.835          	0.512
MS.468         	9.818          	0.471
MS.469         	9.797          	0.445
MS.470         	9.778          	0.451
MS.471         	9.757          	0.425
MS.472         	9.738          	0.419
MS.473         	9.717          	0.397
MS.474         	9.7            	0.409
MS.475         	9.68           	0.391
MS.476         	9.66           	0.401
MS.477         	9.64           	0.379
MS.478         	9.622          	0.357
MS.479         	9.602          	0.35
MS.480         	9.582          	0.369
MS.481         	9.565          	0.371
MS.482         	9.545          	0.332
MS.483         	9.525          	0.357
MS.484         	9.507          	0.274
MS.485         	9.488          	0.298
MS.486         	9.47           	0.27
MS.487         	9.45           	0.262
MS.488         	9.432          	0.29
MS.489         	9.412          	0.308
MS.490         	9.395          	0.266
MS.491         	9.375          	0.322
MS.492         	9.358          	0.24
MS.493         	9.337          	0.25
MS.494         	9.32           	0.222
MS.495         	9.3            	0.25
MS.496         	9.283          	0.207
MS.497         	9.262          	0.211
MS.498         	9.245          	0.234
MS.499         	9.225          	0.236
MS.500         	9.207          	0.25
MS.501         	9.19           	0.236
