File:              	C:\Qtrac\Data\Daniel M Sørensen\MScan multicentre study\Data from centres\Odense\Processed data\TKC01007B.QZD
Name:              	DK.ODE.NC.5.1
Protocol:          	MSCAN-R2
Date:              	7/10/20
Start time:        	08:52:02
Age:               	62
Sex:               	F
Temperature:       	32.7
S/R sites:         	ADM
NC/disease:        	NC
Operator:          	TK
Comments:
M-SCAN DATA (1.2-0.0m)
Scanpts: 13, 22, 955, 969
Stim. (mA)     	Amp. (mV)
MS.1           	26             	6.309
MS.2           	25.895         	6.376
MS.3           	25.845         	6.222
MS.4           	25.792         	6.343
MS.5           	25.74          	6.349
MS.6           	25.69          	6.356
MS.7           	25.637         	6.334
MS.8           	25.587         	6.337
MS.9           	25.535         	6.357
MS.10          	25.485         	6.385
MS.11          	25.435         	6.35
MS.12          	25.382         	6.306
MS.13          	25.332         	6.346
MS.14          	25.282         	6.338
MS.15          	25.233         	6.365
MS.16          	25.18          	6.34
MS.17          	25.13          	6.343
MS.18          	25.08          	6.336
MS.19          	25.03          	6.348
MS.20          	24.98          	6.355
MS.21          	24.93          	6.342
MS.22          	24.88          	6.336
MS.23          	24.83          	6.315
MS.24          	24.782         	6.357
MS.25          	24.733         	6.202
MS.26          	24.682         	6.364
MS.27          	24.632         	6.345
MS.28          	24.585         	6.379
MS.29          	24.535         	6.355
MS.30          	24.485         	6.305
MS.31          	24.438         	6.323
MS.32          	24.387         	6.32
MS.33          	24.34          	6.363
MS.34          	24.29          	6.368
MS.35          	24.243         	6.257
MS.36          	24.192         	6.376
MS.37          	24.145         	6.304
MS.38          	24.097         	6.305
MS.39          	24.05          	6.33
MS.40          	24             	6.225
MS.41          	23.952         	6.38
MS.42          	23.905         	6.362
MS.43          	23.858         	6.33
MS.44          	23.81          	6.277
MS.45          	23.762         	6.245
MS.46          	23.715         	6.281
MS.47          	23.667         	6.193
MS.48          	23.62          	6.271
MS.49          	23.573         	6.269
MS.50          	23.525         	6.243
MS.51          	23.477         	6.303
MS.52          	23.432         	6.238
MS.53          	23.385         	6.276
MS.54          	23.337         	6.358
MS.55          	23.292         	6.352
MS.56          	23.245         	6.192
MS.57          	23.198         	6.281
MS.58          	23.153         	6.296
MS.59          	23.105         	6.256
MS.60          	23.06          	6.269
MS.61          	23.015         	6.36
MS.62          	22.967         	6.256
MS.63          	22.922         	6.251
MS.64          	22.875         	6.292
MS.65          	22.83          	6.346
MS.66          	22.785         	6.393
MS.67          	22.74          	6.302
MS.68          	22.695         	6.297
MS.69          	22.647         	6.213
MS.70          	22.602         	6.22
MS.71          	22.557         	6.353
MS.72          	22.512         	6.265
MS.73          	22.467         	6.256
MS.74          	22.422         	6.216
MS.75          	22.377         	6.258
MS.76          	22.332         	6.216
MS.77          	22.29          	6.181
MS.78          	22.245         	6.196
MS.79          	22.2           	6.177
MS.80          	22.155         	6.211
MS.81          	22.112         	6.201
MS.82          	22.067         	6.185
MS.83          	22.022         	6.196
MS.84          	21.98          	6.243
MS.85          	21.935         	6.324
MS.86          	21.892         	6.24
MS.87          	21.847         	6.24
MS.88          	21.805         	6.199
MS.89          	21.76          	6.23
MS.90          	21.717         	6.234
MS.91          	21.672         	6.254
MS.92          	21.63          	6.216
MS.93          	21.587         	6.222
MS.94          	21.545         	6.252
MS.95          	21.5           	6.252
MS.96          	21.458         	6.227
MS.97          	21.415         	6.238
MS.98          	21.372         	6.227
MS.99          	21.33          	6.241
MS.100         	21.288         	6.21
MS.101         	21.245         	6.251
MS.102         	21.202         	6.221
MS.103         	21.16          	6.262
MS.104         	21.118         	6.243
MS.105         	21.075         	6.27
MS.106         	21.032         	6.238
MS.107         	20.99          	6.27
MS.108         	20.95          	6.282
MS.109         	20.907         	6.251
MS.110         	20.865         	6.265
MS.111         	20.823         	6.274
MS.112         	20.782         	6.26
MS.113         	20.74          	6.292
MS.114         	20.7           	6.252
MS.115         	20.657         	6.258
MS.116         	20.618         	6.262
MS.117         	20.575         	6.259
MS.118         	20.535         	6.288
MS.119         	20.493         	6.299
MS.120         	20.452         	6.259
MS.121         	20.413         	6.353
MS.122         	20.37          	6.363
MS.123         	20.33          	6.296
MS.124         	20.29          	6.331
MS.125         	20.247         	6.29
MS.126         	20.208         	6.256
MS.127         	20.167         	6.389
MS.128         	20.127         	6.346
MS.129         	20.087         	6.379
MS.130         	20.047         	6.344
MS.131         	20.007         	6.339
MS.132         	19.967         	6.329
MS.133         	19.927         	6.356
MS.134         	19.887         	6.359
MS.135         	19.847         	6.429
MS.136         	19.807         	6.376
MS.137         	19.767         	6.32
MS.138         	19.73          	6.229
MS.139         	19.69          	6.274
MS.140         	19.65          	6.317
MS.141         	19.61          	6.295
MS.142         	19.573         	6.235
MS.143         	19.532         	6.35
MS.144         	19.493         	6.19
MS.145         	19.455         	6.16
MS.146         	19.415         	6.189
MS.147         	19.377         	6.153
MS.148         	19.337         	6.306
MS.149         	19.3           	6.149
MS.150         	19.26          	6.198
MS.151         	19.222         	6.293
MS.152         	19.185         	6.171
MS.153         	19.145         	6.139
MS.154         	19.108         	6.335
MS.155         	19.07          	6.103
MS.156         	19.032         	6.187
MS.157         	18.993         	5.875
MS.158         	18.955         	6.22
MS.159         	18.917         	6.178
MS.160         	18.88          	5.999
MS.161         	18.842         	6.048
MS.162         	18.805         	6.117
MS.163         	18.767         	6.042
MS.164         	18.73          	5.933
MS.165         	18.692         	6.003
MS.166         	18.655         	5.887
MS.167         	18.618         	5.888
MS.168         	18.58          	5.454
MS.169         	18.542         	5.935
MS.170         	18.505         	5.929
MS.171         	18.47          	5.861
MS.172         	18.432         	5.77
MS.173         	18.395         	5.765
MS.174         	18.358         	5.762
MS.175         	18.323         	5.624
MS.176         	18.285         	5.613
MS.177         	18.247         	5.643
MS.178         	18.212         	5.846
MS.179         	18.175         	5.551
MS.180         	18.14          	5.048
MS.181         	18.102         	4.979
MS.182         	18.067         	5.494
MS.183         	18.03          	5.687
MS.184         	17.995         	5.318
MS.185         	17.96          	5.127
MS.186         	17.922         	5.39
MS.187         	17.887         	5.276
MS.188         	17.852         	5.259
MS.189         	17.815         	5.011
MS.190         	17.78          	4.832
MS.191         	17.745         	5.158
MS.192         	17.71          	4.868
MS.193         	17.675         	4.885
MS.194         	17.637         	4.796
MS.195         	17.602         	4.794
MS.196         	17.567         	4.728
MS.197         	17.532         	4.701
MS.198         	17.497         	4.661
MS.199         	17.462         	4.662
MS.200         	17.427         	4.855
MS.201         	17.392         	4.613
MS.202         	17.358         	4.399
MS.203         	17.325         	4.415
MS.204         	17.29          	4.603
MS.205         	17.255         	4.548
MS.206         	17.22          	4.329
MS.207         	17.185         	4.255
MS.208         	17.153         	4.31
MS.209         	17.118         	4.375
MS.210         	17.083         	4.374
MS.211         	17.05          	4.308
MS.212         	17.015         	4.332
MS.213         	16.98          	4.273
MS.214         	16.948         	4.146
MS.215         	16.913         	4.066
MS.216         	16.88          	4.211
MS.217         	16.845         	4.16
MS.218         	16.812         	4.145
MS.219         	16.778         	3.972
MS.220         	16.745         	4.01
MS.221         	16.712         	3.917
MS.222         	16.677         	3.927
MS.223         	16.645         	3.781
MS.224         	16.612         	3.99
MS.225         	16.577         	3.876
MS.226         	16.545         	3.876
MS.227         	16.512         	3.826
MS.228         	16.48          	3.81
MS.229         	16.445         	3.801
MS.230         	16.413         	3.825
MS.231         	16.38          	3.543
MS.232         	16.347         	3.449
MS.233         	16.315         	3.629
MS.234         	16.282         	3.732
MS.235         	16.25          	3.27
MS.236         	16.217         	3.345
MS.237         	16.185         	3.347
MS.238         	16.153         	3.404
MS.239         	16.12          	3.343
MS.240         	16.087         	3.152
MS.241         	16.055         	3.344
MS.242         	16.025         	2.863
MS.243         	15.992         	2.892
MS.244         	15.96          	3.044
MS.245         	15.927         	3.316
MS.246         	15.898         	2.824
MS.247         	15.865         	2.789
MS.248         	15.832         	2.724
MS.249         	15.802         	2.643
MS.250         	15.77          	2.74
MS.251         	15.737         	2.653
MS.252         	15.707         	2.514
MS.253         	15.675         	2.703
MS.254         	15.645         	2.653
MS.255         	15.612         	2.8
MS.256         	15.582         	2.628
MS.257         	15.55          	2.475
MS.258         	15.52          	2.664
MS.259         	15.487         	2.599
MS.260         	15.457         	2.376
MS.261         	15.427         	2.393
MS.262         	15.395         	2.498
MS.263         	15.365         	2.362
MS.264         	15.335         	2.507
MS.265         	15.302         	2.258
MS.266         	15.273         	2.5
MS.267         	15.242         	2.288
MS.268         	15.212         	2.02
MS.269         	15.182         	1.859
MS.270         	15.152         	2.189
MS.271         	15.12          	2.333
MS.272         	15.09          	2.101
MS.273         	15.06          	1.749
MS.274         	15.03          	1.725
MS.275         	15             	2.018
MS.276         	14.97          	1.788
MS.277         	14.94          	1.562
MS.278         	14.91          	1.763
MS.279         	14.88          	1.61
MS.280         	14.852         	1.395
MS.281         	14.822         	1.48
MS.282         	14.792         	1.491
MS.283         	14.762         	1.343
MS.284         	14.733         	1.053
MS.285         	14.702         	1.234
MS.286         	14.675         	1.512
MS.287         	14.645         	1.418
MS.288         	14.615         	0.957
MS.289         	14.587         	0.999
MS.290         	14.557         	0.963
MS.291         	14.527         	0.948
MS.292         	14.5           	0.919
MS.293         	14.47          	1.321
MS.294         	14.443         	0.905
MS.295         	14.412         	0.865
MS.296         	14.382         	0.862
MS.297         	14.355         	0.901
MS.298         	14.325         	0.77
MS.299         	14.297         	0.841
MS.300         	14.27          	0.753
MS.301         	14.24          	0.955
MS.302         	14.212         	0.718
MS.303         	14.182         	0.712
MS.304         	14.155         	0.799
MS.305         	14.127         	0.65
MS.306         	14.1           	0.817
MS.307         	14.07          	0.74
MS.308         	14.042         	0.616
MS.309         	14.015         	0.714
MS.310         	13.987         	0.615
MS.311         	13.957         	0.61
MS.312         	13.93          	0.62
MS.313         	13.903         	0.491
MS.314         	13.875         	0.591
MS.315         	13.847         	0.577
MS.316         	13.82          	0.541
MS.317         	13.792         	0.554
MS.318         	13.765         	0.545
MS.319         	13.737         	0.439
MS.320         	13.71          	0.455
MS.321         	13.682         	0.421
MS.322         	13.655         	0.394
MS.323         	13.627         	0.369
MS.324         	13.6           	0.479
MS.325         	13.572         	0.394
MS.326         	13.545         	0.366
MS.327         	13.52          	0.427
MS.328         	13.492         	0.344
MS.329         	13.465         	0.38
MS.330         	13.438         	0.403
MS.331         	13.41          	0.433
MS.332         	13.385         	0.385
MS.333         	13.358         	0.361
MS.334         	13.33          	0.352
MS.335         	13.305         	0.377
MS.336         	13.278         	0.392
MS.337         	13.252         	0.473
MS.338         	13.225         	0.368
MS.339         	13.197         	0.294
MS.340         	13.172         	0.318
MS.341         	13.145         	0.347
MS.342         	13.12          	0.351
MS.343         	13.092         	0.204
MS.344         	13.068         	0.143
MS.345         	13.04          	0.32
MS.346         	13.015         	0.186
MS.347         	12.99          	0.152
MS.348         	12.962         	0.154
MS.349         	12.938         	0.305
MS.350         	12.91          	0.148
MS.351         	12.885         	0.15
MS.352         	12.86          	0.303
MS.353         	12.835         	0.178
MS.354         	12.807         	0.172
MS.355         	12.782         	0.167
MS.356         	12.757         	0.15
MS.357         	12.733         	0.292
MS.358         	12.705         	0.15
MS.359         	12.68          	0.307
MS.360         	12.655         	0.15
MS.361         	12.63          	0.189
MS.362         	12.605         	0.151
MS.363         	12.58          	0.187
MS.364         	12.555         	0.164
MS.365         	12.53          	0.186
MS.366         	12.505         	0.158
MS.367         	12.48          	0.178
MS.368         	12.455         	0.165
MS.369         	12.43          	0.182
MS.370         	12.405         	0.179
MS.371         	12.38          	0.171
MS.372         	12.355         	0.202
MS.373         	12.33          	0.178
MS.374         	12.305         	0.191
MS.375         	12.282         	0.16
MS.376         	12.257         	0.165
MS.377         	12.233         	0.18
MS.378         	12.207         	0.175
MS.379         	12.182         	0.188
MS.380         	12.16          	0.172
MS.381         	12.135         	0.192
MS.382         	12.11          	0.173
MS.383         	12.087         	0.183
MS.384         	12.062         	0.172
MS.385         	12.037         	0.173
MS.386         	12.015         	0.18
MS.387         	11.99          	0.17
MS.388         	11.967         	0.187
MS.389         	11.943         	0.178
MS.390         	11.917         	0.186
MS.391         	11.895         	0.173
MS.392         	11.87          	0.181
MS.393         	11.847         	0.178
MS.394         	11.822         	0.179
MS.395         	11.8           	0.169
MS.396         	11.778         	0.199
MS.397         	11.752         	0.176
MS.398         	11.73          	0.225
MS.399         	11.705         	0.19
MS.400         	11.682         	0.197
MS.401         	11.66          	0.209
MS.402         	11.635         	0.211
MS.403         	11.613         	0.185
MS.404         	11.59          	0.178
MS.405         	11.568         	0.2
MS.406         	11.542         	0.208
MS.407         	11.52          	0.192
MS.408         	11.497         	0.199
MS.409         	11.475         	0.206
MS.410         	11.45          	0.182
MS.411         	11.427         	0.177
MS.412         	11.405         	0.205
MS.413         	11.382         	0.2
MS.414         	11.36          	0.204
MS.415         	11.337         	0.201
MS.416         	11.315         	0.212
MS.417         	11.292         	0.227
MS.418         	11.27          	0.202
MS.419         	11.247         	0.221
MS.420         	11.225         	0.182
MS.421         	11.202         	0.209
MS.422         	11.18          	0.206
MS.423         	11.157         	0.205
MS.424         	11.135         	0.215
MS.425         	11.113         	0.206
MS.426         	11.09          	0.194
MS.427         	11.068         	0.206
MS.428         	11.047         	0.197
MS.429         	11.025         	0.217
MS.430         	11.002         	0.214
MS.431         	10.98          	0.209
MS.432         	10.957         	0.214
MS.433         	10.938         	0.214
MS.434         	10.915         	0.205
MS.435         	10.892         	0.2
MS.436         	10.87          	0.224
MS.437         	10.85          	0.206
MS.438         	10.827         	0.213
MS.439         	10.805         	0.239
MS.440         	10.785         	0.22
MS.441         	10.762         	0.23
MS.442         	10.742         	0.227
MS.443         	10.72          	0.211
MS.444         	10.698         	0.215
MS.445         	10.677         	0.211
MS.446         	10.655         	0.208
MS.447         	10.635         	0.197
MS.448         	10.613         	0.223
MS.449         	10.592         	0.191
MS.450         	10.57          	0.221
MS.451         	10.55          	0.209
MS.452         	10.528         	0.222
MS.453         	10.507         	0.209
MS.454         	10.488         	0.218
MS.455         	10.465         	0.229
MS.456         	10.445         	0.201
MS.457         	10.425         	0.218
MS.458         	10.403         	0.228
MS.459         	10.382         	0.22
MS.460         	10.363         	0.231
MS.461         	10.34          	0.236
MS.462         	10.32          	0.206
MS.463         	10.3           	0.226
MS.464         	10.28          	0.225
MS.465         	10.257         	0.226
MS.466         	10.238         	0.22
MS.467         	10.217         	0.248
MS.468         	10.198         	0.214
MS.469         	10.177         	0.206
MS.470         	10.157         	0.219
MS.471         	10.135         	0.223
MS.472         	10.115         	0.233
MS.473         	10.095         	0.225
MS.474         	10.075         	0.211
MS.475         	10.055         	0.199
MS.476         	10.035         	0.222
MS.477         	10.015         	0.23
MS.478         	9.995          	0.215
MS.479         	9.975          	0.229
MS.480         	9.955          	0.217
MS.481         	9.935          	0.234
MS.482         	9.915          	0.237
MS.483         	9.895          	0.236
MS.484         	9.875          	0.247
MS.485         	9.855          	0.219
MS.486         	9.837          	0.212
MS.487         	9.818          	0.231
MS.488         	9.797          	0.226
MS.489         	9.778          	0.24
MS.490         	9.757          	0.219
MS.491         	9.738          	0.214
MS.492         	9.72           	0.224
MS.493         	9.7            	0.223
MS.494         	9.68           	0.22
MS.495         	9.66           	0.244
MS.496         	9.642          	0.231
MS.497         	9.622          	0.243
MS.498         	9.602          	0.236
MS.499         	9.585          	0.233
MS.500         	9.565          	0.242
MS.501         	9.545          	0.235
