File:              	C:\Qtrac\Data\Daniel M Sørensen\MScan multicentre study\Data from centres\Odense\Processed data\TKC00226C.QZD
Name:              	DK.ODE.NC.1.2
Protocol:          	MSCAN-R2
Date:              	26/2/20
Start time:        	15:11:13
Age:               	32
Sex:               	m
Temperature:       	31.9
S/R sites:         	TA
NC/disease:        	NC
Operator:          	TK
Comments:
M-SCAN DATA (8.3-1.4m)
Scanpts: 233, 243, 709, 724
Stim. (mA)     	Amp. (mV)
MS.1           	18             	6.48
MS.2           	18             	6.518
MS.3           	18             	6.556
MS.4           	18             	6.463
MS.5           	18             	6.506
MS.6           	18             	6.498
MS.7           	18             	6.488
MS.8           	18             	6.518
MS.9           	18             	6.498
MS.10          	18             	6.578
MS.11          	18             	6.526
MS.12          	18             	6.534
MS.13          	18             	6.494
MS.14          	18             	6.492
MS.15          	18             	6.51
MS.16          	18             	6.55
MS.17          	18             	6.526
MS.18          	18             	6.49
MS.19          	18             	6.54
MS.20          	18             	6.455
MS.21          	18             	6.478
MS.22          	18             	6.478
MS.23          	18             	6.492
MS.24          	17.927         	6.471
MS.25          	17.892         	6.534
MS.26          	17.858         	6.455
MS.27          	17.82          	6.482
MS.28          	17.785         	6.512
MS.29          	17.75          	6.482
MS.30          	17.715         	6.5
MS.31          	17.68          	6.544
MS.32          	17.642         	6.502
MS.33          	17.608         	6.524
MS.34          	17.573         	6.562
MS.35          	17.538         	6.488
MS.36          	17.503         	6.51
MS.37          	17.467         	6.546
MS.38          	17.432         	6.476
MS.39          	17.397         	6.534
MS.40          	17.362         	6.496
MS.41          	17.33          	6.538
MS.42          	17.295         	6.546
MS.43          	17.26          	6.494
MS.44          	17.225         	6.532
MS.45          	17.19          	6.498
MS.46          	17.157         	6.542
MS.47          	17.122         	6.52
MS.48          	17.087         	6.544
MS.49          	17.052         	6.554
MS.50          	17.02          	6.504
MS.51          	16.985         	6.56
MS.52          	16.952         	6.578
MS.53          	16.917         	6.612
MS.54          	16.885         	6.526
MS.55          	16.85          	6.554
MS.56          	16.817         	6.556
MS.57          	16.782         	6.528
MS.58          	16.75          	6.558
MS.59          	16.715         	6.536
MS.60          	16.682         	6.528
MS.61          	16.65          	6.53
MS.62          	16.615         	6.58
MS.63          	16.583         	6.526
MS.64          	16.55          	6.59
MS.65          	16.517         	6.546
MS.66          	16.483         	6.578
MS.67          	16.45          	6.53
MS.68          	16.417         	6.518
MS.69          	16.385         	6.602
MS.70          	16.352         	6.586
MS.71          	16.32          	6.598
MS.72          	16.288         	6.558
MS.73          	16.255         	6.582
MS.74          	16.222         	6.572
MS.75          	16.19          	6.542
MS.76          	16.157         	6.536
MS.77          	16.125         	6.556
MS.78          	16.092         	6.552
MS.79          	16.06          	6.532
MS.80          	16.028         	6.55
MS.81          	15.997         	6.61
MS.82          	15.965         	6.554
MS.83          	15.932         	6.594
MS.84          	15.9           	6.5
MS.85          	15.87          	6.578
MS.86          	15.837         	6.617
MS.87          	15.805         	6.602
MS.88          	15.775         	6.59
MS.89          	15.742         	6.562
MS.90          	15.71          	6.627
MS.91          	15.68          	6.596
MS.92          	15.648         	6.552
MS.93          	15.617         	6.544
MS.94          	15.585         	6.576
MS.95          	15.555         	6.57
MS.96          	15.523         	6.566
MS.97          	15.492         	6.536
MS.98          	15.462         	6.574
MS.99          	15.43          	6.576
MS.100         	15.4           	6.663
MS.101         	15.37          	6.621
MS.102         	15.337         	6.6
MS.103         	15.307         	6.643
MS.104         	15.277         	6.645
MS.105         	15.247         	6.586
MS.106         	15.217         	6.592
MS.107         	15.185         	6.606
MS.108         	15.155         	6.637
MS.109         	15.125         	6.592
MS.110         	15.095         	6.621
MS.111         	15.065         	6.623
MS.112         	15.035         	6.586
MS.113         	15.005         	6.568
MS.114         	14.975         	6.562
MS.115         	14.945         	6.651
MS.116         	14.915         	6.661
MS.117         	14.885         	6.584
MS.118         	14.855         	6.604
MS.119         	14.825         	6.596
MS.120         	14.795         	6.59
MS.121         	14.767         	6.608
MS.122         	14.737         	6.588
MS.123         	14.707         	6.584
MS.124         	14.677         	6.627
MS.125         	14.65          	6.602
MS.126         	14.62          	6.629
MS.127         	14.59          	6.592
MS.128         	14.562         	6.655
MS.129         	14.532         	6.59
MS.130         	14.502         	6.621
MS.131         	14.475         	6.641
MS.132         	14.445         	6.631
MS.133         	14.417         	6.663
MS.134         	14.387         	6.608
MS.135         	14.36          	6.635
MS.136         	14.33          	6.677
MS.137         	14.302         	6.657
MS.138         	14.273         	6.693
MS.139         	14.245         	6.687
MS.140         	14.215         	6.653
MS.141         	14.188         	6.635
MS.142         	14.16          	6.623
MS.143         	14.13          	6.6
MS.144         	14.102         	6.608
MS.145         	14.075         	6.645
MS.146         	14.047         	6.623
MS.147         	14.017         	6.631
MS.148         	13.99          	6.645
MS.149         	13.962         	6.647
MS.150         	13.935         	6.641
MS.151         	13.907         	6.677
MS.152         	13.88          	6.637
MS.153         	13.85          	6.667
MS.154         	13.822         	6.655
MS.155         	13.795         	6.629
MS.156         	13.767         	6.606
MS.157         	13.74          	6.629
MS.158         	13.712         	6.637
MS.159         	13.685         	6.596
MS.160         	13.657         	6.627
MS.161         	13.632         	6.653
MS.162         	13.605         	6.691
MS.163         	13.577         	6.667
MS.164         	13.55          	6.663
MS.165         	13.523         	6.651
MS.166         	13.495         	6.687
MS.167         	13.467         	6.649
MS.168         	13.443         	6.663
MS.169         	13.415         	6.667
MS.170         	13.387         	6.639
MS.171         	13.362         	6.661
MS.172         	13.335         	6.655
MS.173         	13.307         	6.655
MS.174         	13.282         	6.663
MS.175         	13.255         	6.621
MS.176         	13.227         	6.631
MS.177         	13.202         	6.598
MS.178         	13.175         	6.653
MS.179         	13.15          	6.623
MS.180         	13.122         	6.725
MS.181         	13.097         	6.639
MS.182         	13.07          	6.645
MS.183         	13.045         	6.695
MS.184         	13.017         	6.695
MS.185         	12.992         	6.659
MS.186         	12.967         	6.635
MS.187         	12.94          	6.643
MS.188         	12.915         	6.661
MS.189         	12.89          	6.635
MS.190         	12.862         	6.685
MS.191         	12.837         	6.677
MS.192         	12.812         	6.669
MS.193         	12.785         	6.677
MS.194         	12.76          	6.679
MS.195         	12.735         	6.701
MS.196         	12.71          	6.663
MS.197         	12.685         	6.689
MS.198         	12.66          	6.715
MS.199         	12.632         	6.681
MS.200         	12.608         	6.703
MS.201         	12.582         	6.709
MS.202         	12.557         	6.743
MS.203         	12.532         	6.731
MS.204         	12.507         	6.715
MS.205         	12.483         	6.677
MS.206         	12.457         	6.731
MS.207         	12.432         	6.691
MS.208         	12.407         	6.687
MS.209         	12.382         	6.737
MS.210         	12.36          	6.743
MS.211         	12.335         	6.703
MS.212         	12.31          	6.709
MS.213         	12.285         	6.766
MS.214         	12.26          	6.679
MS.215         	12.235         	6.665
MS.216         	12.212         	6.745
MS.217         	12.188         	6.697
MS.218         	12.162         	6.733
MS.219         	12.137         	6.717
MS.220         	12.115         	6.683
MS.221         	12.09          	6.711
MS.222         	12.065         	6.649
MS.223         	12.042         	6.778
MS.224         	12.017         	6.753
MS.225         	11.992         	6.727
MS.226         	11.97          	6.675
MS.227         	11.945         	6.778
MS.228         	11.922         	6.758
MS.229         	11.898         	6.82
MS.230         	11.875         	6.762
MS.231         	11.85          	6.725
MS.232         	11.827         	6.739
MS.233         	11.802         	6.808
MS.234         	11.78          	6.794
MS.235         	11.755         	6.778
MS.236         	11.733         	6.723
MS.237         	11.71          	6.802
MS.238         	11.685         	6.766
MS.239         	11.662         	6.83
MS.240         	11.64          	6.753
MS.241         	11.615         	6.798
MS.242         	11.592         	6.743
MS.243         	11.57          	6.731
MS.244         	11.547         	6.76
MS.245         	11.523         	6.798
MS.246         	11.5           	6.762
MS.247         	11.477         	6.747
MS.248         	11.455         	6.751
MS.249         	11.432         	6.8
MS.250         	11.407         	6.816
MS.251         	11.385         	6.751
MS.252         	11.363         	6.764
MS.253         	11.34          	6.758
MS.254         	11.318         	6.838
MS.255         	11.295         	6.741
MS.256         	11.273         	6.745
MS.257         	11.25          	6.814
MS.258         	11.227         	6.764
MS.259         	11.205         	6.731
MS.260         	11.182         	6.79
MS.261         	11.16          	6.77
MS.262         	11.137         	6.794
MS.263         	11.115         	6.778
MS.264         	11.092         	6.715
MS.265         	11.073         	6.741
MS.266         	11.05          	6.796
MS.267         	11.028         	6.749
MS.268         	11.005         	6.784
MS.269         	10.983         	6.826
MS.270         	10.962         	6.798
MS.271         	10.94          	6.848
MS.272         	10.917         	6.824
MS.273         	10.895         	6.78
MS.274         	10.875         	6.89
MS.275         	10.852         	6.798
MS.276         	10.83          	6.772
MS.277         	10.81          	6.81
MS.278         	10.787         	6.818
MS.279         	10.765         	6.913
MS.280         	10.745         	6.826
MS.281         	10.722         	6.836
MS.282         	10.702         	6.723
MS.283         	10.68          	6.719
MS.284         	10.657         	6.747
MS.285         	10.637         	6.806
MS.286         	10.615         	6.776
MS.287         	10.595         	6.814
MS.288         	10.573         	6.929
MS.289         	10.552         	6.617
MS.290         	10.532         	6.802
MS.291         	10.51          	6.717
MS.292         	10.49          	6.749
MS.293         	10.467         	6.615
MS.294         	10.448         	6.653
MS.295         	10.427         	6.709
MS.296         	10.405         	6.675
MS.297         	10.385         	6.753
MS.298         	10.365         	6.594
MS.299         	10.342         	6.667
MS.300         	10.323         	6.56
MS.301         	10.302         	6.665
MS.302         	10.282         	6.558
MS.303         	10.26          	6.606
MS.304         	10.24          	6.665
MS.305         	10.22          	6.641
MS.306         	10.2           	6.534
MS.307         	10.18          	6.61
MS.308         	10.16          	6.564
MS.309         	10.14          	6.592
MS.310         	10.117         	6.588
MS.311         	10.097         	6.49
MS.312         	10.077         	6.639
MS.313         	10.057         	6.508
MS.314         	10.037         	6.538
MS.315         	10.017         	6.478
MS.316         	9.997          	6.496
MS.317         	9.977          	6.522
MS.318         	9.957          	6.441
MS.319         	9.938          	6.467
MS.320         	9.917          	6.407
MS.321         	9.898          	6.345
MS.322         	9.877          	6.419
MS.323         	9.86           	6.242
MS.324         	9.84           	6.379
MS.325         	9.82           	6.437
MS.326         	9.8            	6.437
MS.327         	9.78           	6.351
MS.328         	9.76           	6.429
MS.329         	9.74           	6.324
MS.330         	9.722          	6.24
MS.331         	9.702          	6.28
MS.332         	9.682          	6.258
MS.333         	9.662          	6.274
MS.334         	9.645          	6.272
MS.335         	9.625          	6.21
MS.336         	9.605          	6.214
MS.337         	9.587          	6.222
MS.338         	9.568          	6.044
MS.339         	9.547          	6.196
MS.340         	9.53           	6.254
MS.341         	9.51           	6.155
MS.342         	9.49           	6.034
MS.343         	9.472          	6.196
MS.344         	9.452          	5.956
MS.345         	9.435          	5.976
MS.346         	9.415          	5.912
MS.347         	9.398          	5.992
MS.348         	9.377          	6.028
MS.349         	9.36           	6.016
MS.350         	9.34           	5.998
MS.351         	9.323          	5.968
MS.352         	9.302          	5.752
MS.353         	9.285          	5.752
MS.354         	9.265          	5.92
MS.355         	9.247          	5.928
MS.356         	9.23           	5.779
MS.357         	9.21           	5.91
MS.358         	9.193          	5.793
MS.359         	9.175          	5.646
MS.360         	9.155          	5.696
MS.361         	9.137          	5.553
MS.362         	9.12           	5.811
MS.363         	9.1            	5.624
MS.364         	9.082          	5.571
MS.365         	9.065          	5.372
MS.366         	9.047          	5.732
MS.367         	9.028          	5.511
MS.368         	9.01           	5.581
MS.369         	8.992          	5.454
MS.370         	8.975          	5.555
MS.371         	8.957          	5.485
MS.372         	8.938          	5.402
MS.373         	8.92           	5.503
MS.374         	8.903          	5.458
MS.375         	8.885          	5.354
MS.376         	8.867          	5.472
MS.377         	8.85           	5.531
MS.378         	8.832          	5.406
MS.379         	8.815          	5.374
MS.380         	8.797          	5.34
MS.381         	8.78           	5.197
MS.382         	8.762          	5.207
MS.383         	8.745          	5.166
MS.384         	8.727          	5.154
MS.385         	8.71           	5.031
MS.386         	8.693          	5.104
MS.387         	8.675          	5.001
MS.388         	8.658          	4.904
MS.389         	8.64           	4.848
MS.390         	8.622          	5.168
MS.391         	8.605          	4.949
MS.392         	8.587          	4.757
MS.393         	8.57           	4.931
MS.394         	8.552          	4.782
MS.395         	8.537          	4.79
MS.396         	8.52           	4.695
MS.397         	8.502          	4.761
MS.398         	8.485          	4.681
MS.399         	8.467          	4.576
MS.400         	8.452          	4.641
MS.401         	8.435          	4.566
MS.402         	8.417          	4.584
MS.403         	8.4            	4.574
MS.404         	8.385          	4.473
MS.405         	8.367          	4.409
MS.406         	8.35           	4.363
MS.407         	8.335          	4.256
MS.408         	8.318          	4.276
MS.409         	8.3            	4.417
MS.410         	8.285          	4.077
MS.411         	8.267          	4.2
MS.412         	8.252          	4.328
MS.413         	8.235          	4.256
MS.414         	8.217          	4.163
MS.415         	8.202          	4.153
MS.416         	8.185          	4.204
MS.417         	8.17           	4.149
MS.418         	8.153          	4.127
MS.419         	8.137          	3.855
MS.420         	8.12           	4.095
MS.421         	8.105          	3.968
MS.422         	8.087          	3.889
MS.423         	8.073          	3.815
MS.424         	8.055          	3.811
MS.425         	8.04           	3.764
MS.426         	8.023          	3.68
MS.427         	8.007          	3.779
MS.428         	7.992          	3.611
MS.429         	7.975          	3.609
MS.430         	7.96           	3.462
MS.431         	7.942          	3.561
MS.432         	7.927          	3.555
MS.433         	7.912          	3.565
MS.434         	7.895          	3.438
MS.435         	7.88           	3.48
MS.436         	7.865          	3.358
MS.437         	7.85           	3.263
MS.438         	7.832          	3.406
MS.439         	7.817          	3.291
MS.440         	7.802          	3.251
MS.441         	7.787          	3.255
MS.442         	7.77           	3.201
MS.443         	7.755          	3.108
MS.444         	7.74           	3.1
MS.445         	7.725          	3.333
MS.446         	7.71           	3.055
MS.447         	7.692          	3.182
MS.448         	7.677          	2.884
MS.449         	7.662          	2.925
MS.450         	7.648          	2.923
MS.451         	7.632          	2.947
MS.452         	7.617          	3.037
MS.453         	7.602          	2.933
MS.454         	7.587          	2.828
MS.455         	7.572          	2.679
MS.456         	7.555          	2.912
MS.457         	7.54           	2.898
MS.458         	7.525          	2.663
MS.459         	7.51           	2.671
MS.460         	7.495          	2.776
MS.461         	7.48           	2.695
MS.462         	7.465          	2.633
MS.463         	7.45           	2.647
MS.464         	7.438          	2.574
MS.465         	7.422          	2.63
MS.466         	7.407          	2.524
MS.467         	7.392          	2.385
MS.468         	7.378          	2.508
MS.469         	7.362          	2.467
MS.470         	7.347          	2.413
MS.471         	7.332          	2.425
MS.472         	7.317          	2.371
MS.473         	7.302          	2.268
MS.474         	7.29           	2.252
MS.475         	7.275          	2.129
MS.476         	7.26           	2.161
MS.477         	7.245          	2.151
MS.478         	7.23           	2.226
MS.479         	7.217          	2.143
MS.480         	7.202          	2.101
MS.481         	7.188          	2.087
MS.482         	7.172          	1.95
MS.483         	7.16           	2.024
MS.484         	7.145          	2.024
MS.485         	7.13           	1.909
MS.486         	7.115          	1.938
MS.487         	7.102          	1.823
MS.488         	7.087          	1.893
MS.489         	7.072          	1.901
MS.490         	7.06           	1.702
MS.491         	7.045          	1.736
MS.492         	7.032          	1.623
MS.493         	7.017          	1.774
MS.494         	7.003          	1.748
MS.495         	6.99           	1.623
MS.496         	6.975          	1.577
MS.497         	6.962          	1.625
MS.498         	6.947          	1.601
MS.499         	6.932          	1.549
MS.500         	6.92           	1.434
MS.501         	6.905          	1.406
