File:              	C:\Qtrac\Data\Daniel M Sørensen\MScan multicentre study\Data from centres\Odense\Processed data\TKC01104B.QZD
Name:              	DK.ODE.NC.8.1
Protocol:          	MSCAN-R2
Date:              	4/11/20
Start time:        	09:15:53
Age:               	46
Sex:               	M
Temperature:       	32.4
S/R sites:         	ADM
NC/disease:        	NC
Operator:          	TK
Comments:
M-SCAN DATA (4.9-0.8m)
Scanpts: 34, 39, 435, 457
Stim. (mA)     	Amp. (mV)
MS.1           	28.5           	12.016
MS.2           	28.5           	12.004
MS.3           	28.5           	12.018
MS.4           	28.5           	12.033
MS.5           	28.5           	12.006
MS.6           	28.5           	11.988
MS.7           	28.5           	12.031
MS.8           	28.5           	12.069
MS.9           	28.5           	12.081
MS.10          	28.5           	12.061
MS.11          	28.5           	12.105
MS.12          	28.5           	12.067
MS.13          	28.5           	12.069
MS.14          	28.5           	12.071
MS.15          	28.5           	12.067
MS.16          	28.5           	12.063
MS.17          	28.5           	12.051
MS.18          	28.5           	12.081
MS.19          	28.5           	12.077
MS.20          	28.5           	12.085
MS.21          	28.5           	12.109
MS.22          	28.5           	12.085
MS.23          	28.5           	12.073
MS.24          	28.385         	12.027
MS.25          	28.33          	12.047
MS.26          	28.272         	11.982
MS.27          	28.217         	12.077
MS.28          	28.16          	12.035
MS.29          	28.102         	12.053
MS.30          	28.047         	12.061
MS.31          	27.993         	12.041
MS.32          	27.935         	12.141
MS.33          	27.88          	12.125
MS.34          	27.825         	12.143
MS.35          	27.767         	12.113
MS.36          	27.712         	12.131
MS.37          	27.657         	12.129
MS.38          	27.602         	12.139
MS.39          	27.547         	12.139
MS.40          	27.493         	12.089
MS.41          	27.438         	12.141
MS.42          	27.382         	12.095
MS.43          	27.327         	12.145
MS.44          	27.272         	12.073
MS.45          	27.217         	12.103
MS.46          	27.165         	12.079
MS.47          	27.11          	12.021
MS.48          	27.055         	11.958
MS.49          	27.002         	11.966
MS.50          	26.948         	11.928
MS.51          	26.895         	11.926
MS.52          	26.84          	11.841
MS.53          	26.787         	11.825
MS.54          	26.733         	11.861
MS.55          	26.68          	11.865
MS.56          	26.627         	11.823
MS.57          	26.573         	11.821
MS.58          	26.52          	11.847
MS.59          	26.467         	11.845
MS.60          	26.415         	11.787
MS.61          	26.362         	11.781
MS.62          	26.307         	11.799
MS.63          	26.255         	11.795
MS.64          	26.202         	11.795
MS.65          	26.153         	11.747
MS.66          	26.1           	11.69
MS.67          	26.047         	11.807
MS.68          	25.995         	11.785
MS.69          	25.942         	11.825
MS.70          	25.89          	11.825
MS.71          	25.84          	11.777
MS.72          	25.787         	11.803
MS.73          	25.735         	11.783
MS.74          	25.685         	11.765
MS.75          	25.632         	11.779
MS.76          	25.582         	11.753
MS.77          	25.53          	11.73
MS.78          	25.48          	11.63
MS.79          	25.43          	11.682
MS.80          	25.377         	11.69
MS.81          	25.327         	11.497
MS.82          	25.278         	11.702
MS.83          	25.227         	11.585
MS.84          	25.175         	11.565
MS.85          	25.125         	11.622
MS.86          	25.075         	11.591
MS.87          	25.025         	11.559
MS.88          	24.975         	11.505
MS.89          	24.925         	11.533
MS.90          	24.875         	11.517
MS.91          	24.825         	11.394
MS.92          	24.778         	11.426
MS.93          	24.727         	11.499
MS.94          	24.677         	11.231
MS.95          	24.627         	11.225
MS.96          	24.58          	11.231
MS.97          	24.53          	11.281
MS.98          	24.48          	11.338
MS.99          	24.432         	11.005
MS.100         	24.382         	11.062
MS.101         	24.335         	11.092
MS.102         	24.285         	11.082
MS.103         	24.237         	11.028
MS.104         	24.19          	10.963
MS.105         	24.14          	11.07
MS.106         	24.092         	10.88
MS.107         	24.045         	10.788
MS.108         	23.997         	10.973
MS.109         	23.948         	10.915
MS.110         	23.9           	10.876
MS.111         	23.852         	10.887
MS.112         	23.805         	10.778
MS.113         	23.757         	10.685
MS.114         	23.71          	10.582
MS.115         	23.663         	10.482
MS.116         	23.615         	10.516
MS.117         	23.567         	10.464
MS.118         	23.52          	10.427
MS.119         	23.475         	10.294
MS.120         	23.427         	10.214
MS.121         	23.38          	10.167
MS.122         	23.332         	10.403
MS.123         	23.288         	10.188
MS.124         	23.24          	10.117
MS.125         	23.195         	10.041
MS.126         	23.147         	9.904
MS.127         	23.102         	10.006
MS.128         	23.055         	9.998
MS.129         	23.01          	9.871
MS.130         	22.962         	10.043
MS.131         	22.917         	9.924
MS.132         	22.872         	9.988
MS.133         	22.825         	9.855
MS.134         	22.78          	9.888
MS.135         	22.735         	9.722
MS.136         	22.69          	9.597
MS.137         	22.645         	9.533
MS.138         	22.6           	9.334
MS.139         	22.552         	9.392
MS.140         	22.507         	9.209
MS.141         	22.462         	9.219
MS.142         	22.42          	9.223
MS.143         	22.375         	9.404
MS.144         	22.33          	9.269
MS.145         	22.285         	9.104
MS.146         	22.24          	9.04
MS.147         	22.195         	8.963
MS.148         	22.153         	8.798
MS.149         	22.108         	8.737
MS.150         	22.062         	8.55
MS.151         	22.02          	8.588
MS.152         	21.975         	8.562
MS.153         	21.93          	8.468
MS.154         	21.887         	8.492
MS.155         	21.842         	8.188
MS.156         	21.8           	8.053
MS.157         	21.755         	8.125
MS.158         	21.712         	8.143
MS.159         	21.67          	7.871
MS.160         	21.625         	7.986
MS.161         	21.583         	8.075
MS.162         	21.54          	7.666
MS.163         	21.497         	7.748
MS.164         	21.455         	7.714
MS.165         	21.41          	7.807
MS.166         	21.368         	7.422
MS.167         	21.325         	7.883
MS.168         	21.282         	7.458
MS.169         	21.24          	7.438
MS.170         	21.198         	7.569
MS.171         	21.155         	7.563
MS.172         	21.112         	7.414
MS.173         	21.07          	7.444
MS.174         	21.03          	7.259
MS.175         	20.987         	7.205
MS.176         	20.945         	7.428
MS.177         	20.903         	7.17
MS.178         	20.862         	7.098
MS.179         	20.82          	7.046
MS.180         	20.778         	6.965
MS.181         	20.737         	7.058
MS.182         	20.695         	6.743
MS.183         	20.655         	6.681
MS.184         	20.612         	6.671
MS.185         	20.573         	6.254
MS.186         	20.53          	6.202
MS.187         	20.49          	6.492
MS.188         	20.448         	6.343
MS.189         	20.407         	6.401
MS.190         	20.368         	6.363
MS.191         	20.325         	5.811
MS.192         	20.285         	6.141
MS.193         	20.245         	6.196
MS.194         	20.205         	5.533
MS.195         	20.165         	5.992
MS.196         	20.122         	5.426
MS.197         	20.083         	5.628
MS.198         	20.042         	5.541
MS.199         	20.002         	5.807
MS.200         	19.962         	5.158
MS.201         	19.922         	5.581
MS.202         	19.882         	5.396
MS.203         	19.845         	5.122
MS.204         	19.805         	5.108
MS.205         	19.765         	4.941
MS.206         	19.725         	4.796
MS.207         	19.685         	4.78
MS.208         	19.647         	4.276
MS.209         	19.608         	4.737
MS.210         	19.567         	4.774
MS.211         	19.53          	4.673
MS.212         	19.49          	4.62
MS.213         	19.45          	4.463
MS.214         	19.413         	4.588
MS.215         	19.372         	4.131
MS.216         	19.335         	4.097
MS.217         	19.295         	4.248
MS.218         	19.257         	3.789
MS.219         	19.22          	4.034
MS.220         	19.18          	3.72
MS.221         	19.142         	4.004
MS.222         	19.105         	3.474
MS.223         	19.065         	3.986
MS.224         	19.028         	3.76
MS.225         	18.99          	3.062
MS.226         	18.952         	3.088
MS.227         	18.915         	3.019
MS.228         	18.875         	3.051
MS.229         	18.837         	3.14
MS.230         	18.8           	3.241
MS.231         	18.762         	2.872
MS.232         	18.725         	2.84
MS.233         	18.688         	2.743
MS.234         	18.65          	2.935
MS.235         	18.612         	3.188
MS.236         	18.577         	2.451
MS.237         	18.54          	2.844
MS.238         	18.503         	2.784
MS.239         	18.465         	2.856
MS.240         	18.427         	2.365
MS.241         	18.392         	2.32
MS.242         	18.355         	2.177
MS.243         	18.317         	2.427
MS.244         	18.282         	2.044
MS.245         	18.245         	2.014
MS.246         	18.208         	1.875
MS.247         	18.172         	1.871
MS.248         	18.135         	2.314
MS.249         	18.1           	1.756
MS.250         	18.062         	2.151
MS.251         	18.028         	1.734
MS.252         	17.993         	1.573
MS.253         	17.955         	1.521
MS.254         	17.92          	1.521
MS.255         	17.885         	1.561
MS.256         	17.847         	1.43
MS.257         	17.812         	1.255
MS.258         	17.778         	1.321
MS.259         	17.743         	1.609
MS.260         	17.705         	1.253
MS.261         	17.67          	1.412
MS.262         	17.635         	1.221
MS.263         	17.6           	1.245
MS.264         	17.565         	1.086
MS.265         	17.53          	1.033
MS.266         	17.495         	1.009
MS.267         	17.46          	1.068
MS.268         	17.425         	1.277
MS.269         	17.39          	1.09
MS.270         	17.355         	1.019
MS.271         	17.32          	1.08
MS.272         	17.285         	0.929
MS.273         	17.253         	1.245
MS.274         	17.217         	1.084
MS.275         	17.182         	0.916
MS.276         	17.147         	0.927
MS.277         	17.115         	0.963
MS.278         	17.08          	1.057
MS.279         	17.045         	0.902
MS.280         	17.012         	0.922
MS.281         	16.977         	1.017
MS.282         	16.945         	0.836
MS.283         	16.91          	0.86
MS.284         	16.875         	0.904
MS.285         	16.842         	0.822
MS.286         	16.81          	0.937
MS.287         	16.775         	0.794
MS.288         	16.743         	0.721
MS.289         	16.708         	0.723
MS.290         	16.675         	0.759
MS.291         	16.642         	0.812
MS.292         	16.608         	0.79
MS.293         	16.575         	0.779
MS.294         	16.542         	0.81
MS.295         	16.51          	0.691
MS.296         	16.475         	0.677
MS.297         	16.442         	0.687
MS.298         	16.41          	0.643
MS.299         	16.378         	0.679
MS.300         	16.345         	0.628
MS.301         	16.312         	0.584
MS.302         	16.28          	0.624
MS.303         	16.247         	0.59
MS.304         	16.215         	0.677
MS.305         	16.182         	0.574
MS.306         	16.15          	0.645
MS.307         	16.118         	0.554
MS.308         	16.085         	0.588
MS.309         	16.052         	0.572
MS.310         	16.02          	0.524
MS.311         	15.99          	0.504
MS.312         	15.957         	0.562
MS.313         	15.925         	0.429
MS.314         	15.892         	0.479
MS.315         	15.862         	0.411
MS.316         	15.83          	0.413
MS.317         	15.797         	0.461
MS.318         	15.767         	0.459
MS.319         	15.735         	0.379
MS.320         	15.705         	0.417
MS.321         	15.672         	0.435
MS.322         	15.64          	0.411
MS.323         	15.61          	0.411
MS.324         	15.577         	0.497
MS.325         	15.547         	0.473
MS.326         	15.517         	0.419
MS.327         	15.485         	0.363
MS.328         	15.455         	0.302
MS.329         	15.422         	0.32
MS.330         	15.392         	0.266
MS.331         	15.362         	0.344
MS.332         	15.332         	0.29
MS.333         	15.3           	0.288
MS.334         	15.27          	0.226
MS.335         	15.24          	0.316
MS.336         	15.21          	0.232
MS.337         	15.18          	0.224
MS.338         	15.148         	0.24
MS.339         	15.117         	0.27
MS.340         	15.087         	0.226
MS.341         	15.057         	0.232
MS.342         	15.027         	0.175
MS.343         	14.997         	0.159
MS.344         	14.967         	0.201
MS.345         	14.938         	0.298
MS.346         	14.907         	0.214
MS.347         	14.877         	0.197
MS.348         	14.847         	0.145
MS.349         	14.82          	0.197
MS.350         	14.79          	0.224
MS.351         	14.76          	0.149
MS.352         	14.73          	0.139
MS.353         	14.7           	0.133
MS.354         	14.672         	0.137
MS.355         	14.642         	0.201
MS.356         	14.612         	0.143
MS.357         	14.582         	0.159
MS.358         	14.555         	0.169
MS.359         	14.525         	0.151
MS.360         	14.497         	0.119
MS.361         	14.467         	0.167
MS.362         	14.438         	0.099
MS.363         	14.41          	0.203
MS.364         	14.38          	0.119
MS.365         	14.352         	0.151
MS.366         	14.322         	0.133
MS.367         	14.295         	0.153
MS.368         	14.267         	0.159
MS.369         	14.237         	0.099
MS.370         	14.21          	0.105
MS.371         	14.18          	0.105
MS.372         	14.153         	0.117
MS.373         	14.125         	0.131
MS.374         	14.095         	0.117
MS.375         	14.068         	0.089
MS.376         	14.04          	0.107
MS.377         	14.012         	-0.006
MS.378         	13.985         	0.125
MS.379         	13.955         	0.119
MS.380         	13.927         	0.103
MS.381         	13.9           	0.02
MS.382         	13.872         	0.115
MS.383         	13.845         	0.05
MS.384         	13.818         	0.034
MS.385         	13.79          	0.028
MS.386         	13.762         	-0.008
MS.387         	13.735         	-0.012
MS.388         	13.707         	0.014
MS.389         	13.68          	0.004
MS.390         	13.653         	0.004
MS.391         	13.625         	-0.01
MS.392         	13.597         	-0.026
MS.393         	13.57          	-0.034
MS.394         	13.542         	-0.014
MS.395         	13.517         	0.066
MS.396         	13.49          	-0.018
MS.397         	13.462         	-0.012
MS.398         	13.435         	-0.02
MS.399         	13.407         	0.01
MS.400         	13.382         	-0.02
MS.401         	13.355         	-0.022
MS.402         	13.327         	-0.008
MS.403         	13.302         	-0.026
MS.404         	13.275         	-0.012
MS.405         	13.247         	-0.026
MS.406         	13.222         	-0.004
MS.407         	13.195         	-0.012
MS.408         	13.17          	-0.024
MS.409         	13.142         	-0.02
MS.410         	13.117         	0.016
MS.411         	13.09          	-0.02
MS.412         	13.065         	-0.008
MS.413         	13.037         	-0.004
MS.414         	13.012         	-0.016
MS.415         	12.987         	-0.014
MS.416         	12.96          	-0.01
MS.417         	12.935         	-0.022
MS.418         	12.907         	-0.032
MS.419         	12.882         	0.01
MS.420         	12.858         	0.008
MS.421         	12.832         	0.000
MS.422         	12.805         	-0.008
MS.423         	12.78          	-0.012
MS.424         	12.755         	-0.028
MS.425         	12.73          	-0.026
MS.426         	12.705         	0.006
MS.427         	12.677         	-0.004
MS.428         	12.653         	0.02
MS.429         	12.627         	0.002
MS.430         	12.602         	-0.014
MS.431         	12.577         	-0.002
MS.432         	12.552         	-0.016
MS.433         	12.528         	0.004
MS.434         	12.502         	-0.012
MS.435         	12.477         	-0.02
MS.436         	12.452         	-0.032
MS.437         	12.427         	0.008
MS.438         	12.403         	-0.012
MS.439         	12.377         	0.006
MS.440         	12.352         	0.000
MS.441         	12.327         	0.004
MS.442         	12.302         	0.006
MS.443         	12.28          	0.000
MS.444         	12.255         	0.000
MS.445         	12.23          	0.014
MS.446         	12.205         	-0.012
MS.447         	12.182         	0.02
MS.448         	12.157         	-0.014
MS.449         	12.132         	-0.01
MS.450         	12.108         	-0.024
MS.451         	12.085         	0.002
MS.452         	12.06          	-0.014
MS.453         	12.035         	-0.014
MS.454         	12.012         	-0.008
MS.455         	11.988         	-0.028
MS.456         	11.965         	-0.01
MS.457         	11.94          	-0.016
DERIVED EXCITABILITY VARIABLES
Program = QTracP 9/10/2021
Threshold method = 6 (optimised for CAP, using data for present condition only)
SR method = 1 (using actual data values)
6.                 	0.000               	Peak response\(mV)
9.                 	32.4                	Temperature ( C)
17.                	46                  	Age (years)
18.                	1                   	Sex (M=1, F=2)

EXTRA VARIABLES

MScPeak(mV) = 12.06
MScS5(mA) = 16.23
MScS50(mA) = 20.29
MScS95(mA) = 24.78
MScNSteps = 2
MScSteps(%) = 4.7
MScStepMax(%) = 2.4
MScD50 = 42
MScSlope = 5.68
MScDuration(min) = 4.1
MSFTraces = 424
MSFPeakAmp(mV) = 12.1
MSFNUnits = 148
MSFMeanUnitAmp(uV) = 82
MSFHuntTime(m) = 2.75
MSFError(%) = 3.64
MSFNLarge = 41.13
MSFMedianAmp(%) = 0.525
MSFMedianAmp(mV) = 0.0637
MSFHalfAmpAmp(%) = 0.749
MSFHalfAmpAmp(mV) = 0.091
MSFLargestAmp(%) = 2.06
MSFLargestAmp(mV) = 0.25
MSFMeanRS(%) = 2
MSFSizeLimit(uV) = 30.3
MSFLimitType = 1
MSFSmallestAmp(uV) = 30.7
MSFOpts = 10106121

EXTRA WAVEFORMS


!MScan Model
!148
	1	13.77	0.27	2
	2	14.09	0.74	2
	3	14.51	0.45	2
	4	14.8	0.29	2
	5	15.14	0.41	2
	6	15.35	0.56	2
	7	15.43	0.32	2
	8	15.51	0.28	2
	9	15.78	0.48	2
	10	15.9	0.3	2
	11	15.99	0.34	2
	12	16.18	0.64	2
	13	16.39	0.53	2
	14	16.57	0.73	2
	15	16.72	0.43	2
	16	16.91	0.77	2
	17	17.36	1.4	2
	18	17.5	0.65	2
	19	17.59	0.39	2
	20	17.68	0.75	2
	21	17.77	1.01	2
	22	17.86	1.05	2
	23	17.94	0.68	2
	24	18.02	0.97	2
	25	18.14	1.9	2
	26	18.23	1.01	2
	27	18.27	0.52	2
