File:              	C:\Qtrac\Data\Daniel M Sørensen\MScan multicentre study\Data from centres\Odense\Processed data\TKC01118C.QZD
Name:              	DK.ODE.NC.8.2
Protocol:          	MSCAN-R2
Date:              	18/11/20
Start time:        	13:07:32
Age:               	46
Sex:               	M
Temperature:       	31.2
S/R sites:         	TA
NC/disease:        	NC
Operator:          	TK
Comments:
M-SCAN DATA (7.3-1m)
Scanpts: 94, 101, 610, 616
Stim. (mA)     	Amp. (mV)
MS.1           	11             	5.579
MS.2           	11.5           	5.646
MS.3           	11.5           	5.613
MS.4           	11.5           	5.585
MS.5           	11.5           	5.573
MS.6           	11.5           	5.597
MS.7           	11.5           	5.607
MS.8           	11.5           	5.575
MS.9           	11.5           	5.636
MS.10          	11.5           	5.628
MS.11          	11.5           	5.628
MS.12          	11.5           	5.541
MS.13          	11.5           	5.609
MS.14          	11.5           	5.595
MS.15          	11.5           	5.579
MS.16          	11.5           	5.601
MS.17          	11.5           	5.634
MS.18          	11.5           	5.579
MS.19          	11.5           	5.646
MS.20          	11.5           	5.613
MS.21          	11.5           	5.642
MS.22          	11.5           	5.642
MS.23          	11.455         	5.622
MS.24          	11.43          	5.63
MS.25          	11.407         	5.66
MS.26          	11.385         	5.662
MS.27          	11.363         	5.642
MS.28          	11.34          	5.642
MS.29          	11.318         	5.656
MS.30          	11.295         	5.607
MS.31          	11.273         	5.674
MS.32          	11.25          	5.622
MS.33          	11.227         	5.644
MS.34          	11.205         	5.644
MS.35          	11.182         	5.71
MS.36          	11.16          	5.654
MS.37          	11.137         	5.706
MS.38          	11.115         	5.688
MS.39          	11.092         	5.672
MS.40          	11.07          	5.712
MS.41          	11.05          	5.666
MS.42          	11.028         	5.72
MS.43          	11.005         	5.69
MS.44          	10.983         	5.708
MS.45          	10.96          	5.696
MS.46          	10.94          	5.72
MS.47          	10.917         	5.682
MS.48          	10.895         	5.702
MS.49          	10.872         	5.767
MS.50          	10.852         	5.752
MS.51          	10.83          	5.714
MS.52          	10.807         	5.728
MS.53          	10.787         	5.698
MS.54          	10.765         	5.756
MS.55          	10.745         	5.692
MS.56          	10.722         	5.752
MS.57          	10.7           	5.714
MS.58          	10.68          	5.756
MS.59          	10.657         	5.736
MS.60          	10.637         	5.734
MS.61          	10.615         	5.767
MS.62          	10.595         	5.76
MS.63          	10.573         	5.716
MS.64          	10.552         	5.771
MS.65          	10.53          	5.783
MS.66          	10.51          	5.746
MS.67          	10.49          	5.732
MS.68          	10.467         	5.714
MS.69          	10.448         	5.74
MS.70          	10.427         	5.712
MS.71          	10.405         	5.722
MS.72          	10.385         	5.74
MS.73          	10.365         	5.793
MS.74          	10.342         	5.728
MS.75          	10.323         	5.732
MS.76          	10.302         	5.722
MS.77          	10.282         	5.758
MS.78          	10.26          	5.752
MS.79          	10.24          	5.748
MS.80          	10.22          	5.777
MS.81          	10.2           	5.752
MS.82          	10.18          	5.74
MS.83          	10.16          	5.756
MS.84          	10.137         	5.787
MS.85          	10.117         	5.779
MS.86          	10.097         	5.795
MS.87          	10.077         	5.767
MS.88          	10.057         	5.765
MS.89          	10.037         	5.771
MS.90          	10.017         	5.775
MS.91          	9.997          	5.795
MS.92          	9.977          	5.763
MS.93          	9.957          	5.771
MS.94          	9.938          	5.748
MS.95          	9.917          	5.785
MS.96          	9.898          	5.813
MS.97          	9.877          	5.742
MS.98          	9.858          	5.718
MS.99          	9.84           	5.799
MS.100         	9.82           	5.742
MS.101         	9.8            	5.75
MS.102         	9.78           	5.801
MS.103         	9.76           	5.777
MS.104         	9.74           	5.789
MS.105         	9.722          	5.754
MS.106         	9.702          	5.785
MS.107         	9.682          	5.765
MS.108         	9.662          	5.797
MS.109         	9.645          	5.748
MS.110         	9.625          	5.767
MS.111         	9.605          	5.76
MS.112         	9.587          	5.787
MS.113         	9.568          	5.748
MS.114         	9.547          	5.787
MS.115         	9.53           	5.763
MS.116         	9.51           	5.678
MS.117         	9.49           	5.694
MS.118         	9.472          	5.712
MS.119         	9.452          	5.66
MS.120         	9.435          	5.742
MS.121         	9.415          	5.694
MS.122         	9.398          	5.69
MS.123         	9.377          	5.744
MS.124         	9.36           	5.748
MS.125         	9.34           	5.666
MS.126         	9.323          	5.736
MS.127         	9.302          	5.662
MS.128         	9.285          	5.756
MS.129         	9.265          	5.714
MS.130         	9.247          	5.692
MS.131         	9.23           	5.69
MS.132         	9.21           	5.738
MS.133         	9.193          	5.752
MS.134         	9.172          	5.72
MS.135         	9.155          	5.682
MS.136         	9.137          	5.674
MS.137         	9.12           	5.702
MS.138         	9.1            	5.706
MS.139         	9.082          	5.704
MS.140         	9.065          	5.69
MS.141         	9.045          	5.674
MS.142         	9.028          	5.662
MS.143         	9.01           	5.708
MS.144         	8.992          	5.698
MS.145         	8.975          	5.67
MS.146         	8.955          	5.68
MS.147         	8.938          	5.64
MS.148         	8.92           	5.603
MS.149         	8.903          	5.696
MS.150         	8.885          	5.646
MS.151         	8.867          	5.652
MS.152         	8.85           	5.674
MS.153         	8.832          	5.634
MS.154         	8.815          	5.662
MS.155         	8.797          	5.65
MS.156         	8.78           	5.595
MS.157         	8.762          	5.67
MS.158         	8.745          	5.573
MS.159         	8.727          	5.547
MS.160         	8.71           	5.509
MS.161         	8.693          	5.569
MS.162         	8.675          	5.607
MS.163         	8.658          	5.47
MS.164         	8.64           	5.479
MS.165         	8.622          	5.527
MS.166         	8.605          	5.557
MS.167         	8.587          	5.503
MS.168         	8.57           	5.44
MS.169         	8.552          	5.39
MS.170         	8.537          	5.452
MS.171         	8.52           	5.38
MS.172         	8.502          	5.346
MS.173         	8.485          	5.44
MS.174         	8.467          	5.338
MS.175         	8.452          	5.487
MS.176         	8.435          	5.356
MS.177         	8.417          	5.317
MS.178         	8.4            	5.307
MS.179         	8.385          	5.368
MS.180         	8.367          	5.309
MS.181         	8.35           	5.301
MS.182         	8.335          	5.35
MS.183         	8.318          	5.37
MS.184         	8.3            	5.317
MS.185         	8.285          	5.158
MS.186         	8.267          	5.287
MS.187         	8.25           	5.281
MS.188         	8.235          	5.257
MS.189         	8.217          	5.231
MS.190         	8.202          	5.255
MS.191         	8.185          	5.293
MS.192         	8.17           	5.243
MS.193         	8.153          	5.239
MS.194         	8.137          	5.203
MS.195         	8.12           	5.219
MS.196         	8.105          	5.213
MS.197         	8.087          	5.158
MS.198         	8.073          	5.227
MS.199         	8.055          	5.162
MS.200         	8.04           	5.122
MS.201         	8.023          	5.144
MS.202         	8.007          	5.14
MS.203         	7.99           	5.128
MS.204         	7.975          	5.114
MS.205         	7.96           	5.126
MS.206         	7.942          	5.09
MS.207         	7.927          	5.088
MS.208         	7.912          	5.037
MS.209         	7.895          	5.086
MS.210         	7.88           	5.058
MS.211         	7.865          	5.088
MS.212         	7.847          	5.019
MS.213         	7.832          	5.003
MS.214         	7.817          	5.025
MS.215         	7.802          	5.088
MS.216         	7.785          	4.979
MS.217         	7.77           	4.937
MS.218         	7.755          	5.078
MS.219         	7.74           	4.947
MS.220         	7.725          	4.921
MS.221         	7.707          	4.975
MS.222         	7.692          	4.947
MS.223         	7.677          	5.035
MS.224         	7.662          	4.995
MS.225         	7.648          	5.021
MS.226         	7.632          	4.961
MS.227         	7.617          	4.852
MS.228         	7.602          	4.896
MS.229         	7.587          	4.86
MS.230         	7.57           	4.844
MS.231         	7.555          	4.904
MS.232         	7.54           	4.87
MS.233         	7.525          	4.85
MS.234         	7.51           	4.87
MS.235         	7.495          	4.838
MS.236         	7.48           	4.961
MS.237         	7.465          	4.878
MS.238         	7.45           	4.866
MS.239         	7.435          	4.892
MS.240         	7.42           	4.822
MS.241         	7.407          	4.814
MS.242         	7.392          	4.78
MS.243         	7.378          	4.735
MS.244         	7.362          	4.816
MS.245         	7.347          	4.759
MS.246         	7.332          	4.77
MS.247         	7.317          	4.772
MS.248         	7.302          	4.689
MS.249         	7.29           	4.848
MS.250         	7.275          	4.727
MS.251         	7.26           	4.679
MS.252         	7.245          	4.703
MS.253         	7.23           	4.675
MS.254         	7.217          	4.705
MS.255         	7.202          	4.598
MS.256         	7.188          	4.655
MS.257         	7.172          	4.649
MS.258         	7.16           	4.639
MS.259         	7.145          	4.622
MS.260         	7.13           	4.552
MS.261         	7.115          	4.6
MS.262         	7.102          	4.59
MS.263         	7.087          	4.677
MS.264         	7.072          	4.387
MS.265         	7.06           	4.512
MS.266         	7.045          	4.691
MS.267         	7.03           	4.679
MS.268         	7.017          	4.705
MS.269         	7.003          	4.683
MS.270         	6.99           	4.544
MS.271         	6.975          	4.504
MS.272         	6.96           	4.606
MS.273         	6.947          	4.542
MS.274         	6.932          	4.526
MS.275         	6.92           	4.5
MS.276         	6.905          	4.5
MS.277         	6.892          	4.498
MS.278         	6.878          	4.496
MS.279         	6.865          	4.492
MS.280         	6.85           	4.449
MS.281         	6.837          	4.377
MS.282         	6.822          	4.385
MS.283         	6.81           	4.262
MS.284         	6.795          	4.332
MS.285         	6.782          	4.206
MS.286         	6.77           	4.302
MS.287         	6.755          	4.361
MS.288         	6.742          	4.204
MS.289         	6.727          	4.29
MS.290         	6.715          	4.202
MS.291         	6.702          	4.117
MS.292         	6.688          	4.167
MS.293         	6.675          	4.155
MS.294         	6.662          	4.107
MS.295         	6.648          	4.057
MS.296         	6.635          	4.177
MS.297         	6.622          	4.075
MS.298         	6.608          	4.022
MS.299         	6.595          	4.135
MS.300         	6.582          	4.067
MS.301         	6.57           	4.075
MS.302         	6.555          	4
MS.303         	6.543          	4.055
MS.304         	6.53           	3.889
MS.305         	6.517          	3.899
MS.306         	6.503          	3.944
MS.307         	6.49           	3.771
MS.308         	6.477          	3.797
MS.309         	6.465          	3.899
MS.310         	6.452          	3.819
MS.311         	6.44           	3.754
MS.312         	6.425          	3.837
MS.313         	6.412          	3.752
MS.314         	6.4            	3.785
MS.315         	6.387          	3.654
MS.316         	6.375          	3.773
MS.317         	6.362          	3.758
MS.318         	6.35           	3.805
MS.319         	6.338          	3.658
MS.320         	6.325          	3.766
MS.321         	6.312          	3.69
MS.322         	6.297          	3.714
MS.323         	6.285          	3.688
MS.324         	6.273          	3.716
MS.325         	6.26           	3.656
MS.326         	6.247          	3.636
MS.327         	6.235          	3.577
MS.328         	6.222          	3.499
MS.329         	6.21           	3.591
MS.330         	6.197          	3.591
MS.331         	6.188          	3.579
MS.332         	6.175          	3.511
MS.333         	6.162          	3.537
MS.334         	6.15           	3.664
MS.335         	6.137          	3.583
MS.336         	6.125          	3.531
MS.337         	6.112          	3.72
MS.338         	6.1            	3.571
MS.339         	6.088          	3.42
MS.340         	6.075          	3.537
MS.341         	6.065          	3.509
MS.342         	6.052          	3.36
MS.343         	6.04           	3.495
MS.344         	6.027          	3.412
MS.345         	6.015          	3.297
MS.346         	6.003          	3.416
MS.347         	5.992          	3.42
MS.348         	5.98           	3.47
MS.349         	5.967          	3.416
MS.350         	5.955          	3.448
MS.351         	5.945          	3.319
MS.352         	5.932          	3.329
MS.353         	5.92           	3.279
MS.354         	5.907          	3.247
MS.355         	5.898          	3.317
MS.356         	5.885          	3.295
MS.357         	5.872          	3.088
MS.358         	5.86           	3.317
MS.359         	5.85           	3.15
MS.360         	5.838          	3.182
MS.361         	5.825          	3.255
MS.362         	5.815          	3.1
MS.363         	5.802          	3.144
MS.364         	5.79           	3.144
MS.365         	5.78           	3.152
MS.366         	5.767          	3.16
MS.367         	5.757          	3.011
MS.368         	5.745          	3.062
MS.369         	5.733          	3.055
MS.370         	5.722          	2.921
MS.371         	5.71           	3.07
MS.372         	5.7            	2.852
MS.373         	5.688          	3.039
MS.374         	5.677          	3.027
MS.375         	5.665          	2.884
MS.376         	5.655          	2.904
MS.377         	5.642          	2.723
MS.378         	5.632          	2.959
MS.379         	5.62           	2.808
MS.380         	5.61           	2.755
MS.381         	5.597          	2.52
MS.382         	5.588          	2.767
MS.383         	5.575          	2.667
MS.384         	5.565          	2.633
MS.385         	5.552          	2.61
MS.386         	5.543          	2.657
MS.387         	5.53           	2.633
MS.388         	5.52           	2.568
MS.389         	5.51           	2.485
MS.390         	5.497          	2.506
MS.391         	5.487          	2.508
MS.392         	5.475          	2.467
MS.393         	5.465          	2.421
MS.394         	5.455          	2.377
MS.395         	5.443          	2.391
MS.396         	5.432          	2.371
MS.397         	5.422          	2.395
MS.398         	5.41           	2.338
MS.399         	5.4            	2.469
MS.400         	5.39           	2.459
MS.401         	5.378          	2.357
MS.402         	5.367          	2.405
MS.403         	5.358          	2.391
MS.404         	5.345          	2.363
MS.405         	5.335          	2.193
MS.406         	5.325          	2.26
MS.407         	5.315          	2.199
MS.408         	5.302          	2.262
MS.409         	5.293          	2.149
MS.410         	5.282          	2.25
MS.411         	5.273          	2.274
MS.412         	5.26           	2.087
MS.413         	5.25           	2.131
MS.414         	5.24           	2.079
MS.415         	5.23           	2.042
MS.416         	5.22           	1.978
MS.417         	5.21           	1.972
MS.418         	5.197          	1.845
MS.419         	5.188          	1.988
MS.420         	5.177          	1.919
MS.421         	5.168          	2.042
MS.422         	5.157          	1.926
MS.423         	5.148          	1.95
MS.424         	5.137          	1.867
MS.425         	5.125          	1.688
MS.426         	5.115          	1.789
MS.427         	5.105          	1.909
MS.428         	5.095          	1.768
MS.429         	5.085          	1.803
MS.430         	5.075          	1.633
MS.431         	5.065          	1.722
MS.432         	5.055          	1.797
MS.433         	5.045          	1.789
MS.434         	5.035          	1.581
MS.435         	5.025          	1.718
MS.436         	5.015          	1.575
MS.437         	5.005          	1.646
MS.438         	4.995          	1.509
MS.439         	4.985          	1.486
MS.440         	4.975          	1.509
MS.441         	4.965          	1.541
MS.442         	4.955          	1.343
MS.443         	4.945          	1.442
MS.444         	4.935          	1.446
MS.445         	4.925          	1.404
MS.446         	4.915          	1.352
MS.447         	4.905          	1.392
MS.448         	4.895          	1.335
MS.449         	4.885          	1.343
MS.450         	4.875          	1.436
MS.451         	4.867          	1.339
MS.452         	4.858          	1.347
MS.453         	4.847          	1.364
MS.454         	4.838          	1.368
MS.455         	4.827          	1.315
MS.456         	4.818          	1.243
MS.457         	4.807          	1.227
MS.458         	4.797          	1.293
MS.459         	4.79           	1.219
MS.460         	4.78           	1.243
MS.461         	4.77           	1.196
MS.462         	4.76           	1.263
MS.463         	4.75           	1.273
MS.464         	4.742          	1.287
MS.465         	4.733          	1.231
MS.466         	4.722          	1.267
MS.467         	4.713          	1.237
MS.468         	4.702          	1.162
MS.469         	4.695          	1.184
MS.470         	4.685          	1.152
MS.471         	4.675          	1.188
MS.472         	4.665          	1.182
MS.473         	4.657          	1.136
MS.474         	4.648          	1.114
MS.475         	4.637          	1.126
MS.476         	4.63           	1.106
MS.477         	4.62           	1.144
MS.478         	4.61           	1.146
MS.479         	4.602          	1.156
MS.480         	4.592          	1.072
MS.481         	4.582          	1.07
MS.482         	4.575          	1.078
MS.483         	4.565          	1.025
MS.484         	4.555          	1.043
MS.485         	4.548          	1.061
MS.486         	4.537          	1.082
MS.487         	4.527          	1.013
MS.488         	4.52           	1.043
MS.489         	4.51           	1.084
MS.490         	4.5            	1.015
MS.491         	4.492          	1.023
MS.492         	4.483          	0.969
MS.493         	4.475          	0.929
MS.494         	4.465          	0.929
MS.495         	4.457          	0.945
MS.496         	4.447          	0.999
MS.497         	4.438          	0.957
MS.498         	4.43           	0.933
MS.499         	4.42           	0.916
MS.500         	4.412          	0.852
MS.501         	4.402          	0.892
