File:              	C:\Qtrac\Data\Daniel M Sørensen\MScan multicentre study\Data from centres\Odense\Processed data\TKC00221B.QZD
Name:              	DK.ODE.NC.2.1
Protocol:          	MSCAN-R2
Date:              	21/2/20
Start time:        	11:41:50
Age:               	74
Sex:               	M
Temperature:       	31.9
S/R sites:         	ADM
NC/disease:        	NC
Operator:          	TK
Comments:
M-SCAN DATA (8.3-1.9m)
Scanpts: 77, 81, 449, 468
Stim. (mA)     	Amp. (mV)
MS.1           	25             	5.438
MS.2           	25             	5.511
MS.3           	25             	5.45
MS.4           	25             	5.549
MS.5           	25             	5.481
MS.6           	25             	5.551
MS.7           	25             	5.561
MS.8           	25             	5.603
MS.9           	25             	5.575
MS.10          	25             	5.585
MS.11          	25             	5.507
MS.12          	25             	5.615
MS.13          	25             	5.63
MS.14          	25             	5.648
MS.15          	25             	5.495
MS.16          	25             	5.636
MS.17          	25             	5.662
MS.18          	25             	5.613
MS.19          	25             	5.603
MS.20          	25             	5.617
MS.21          	25             	5.67
MS.22          	25             	5.638
MS.23          	25             	5.726
MS.24          	24.9           	5.613
MS.25          	24.85          	5.632
MS.26          	24.8           	5.609
MS.27          	24.75          	5.575
MS.28          	24.702         	5.67
MS.29          	24.653         	5.688
MS.30          	24.602         	5.696
MS.31          	24.555         	5.62
MS.32          	24.505         	5.73
MS.33          	24.455         	5.662
MS.34          	24.407         	5.64
MS.35          	24.358         	5.615
MS.36          	24.31          	5.68
MS.37          	24.26          	5.831
MS.38          	24.212         	5.69
MS.39          	24.165         	5.626
MS.40          	24.115         	5.748
MS.41          	24.067         	5.785
MS.42          	24.02          	5.686
MS.43          	23.972         	5.789
MS.44          	23.925         	5.777
MS.45          	23.875         	5.767
MS.46          	23.827         	5.783
MS.47          	23.78          	5.746
MS.48          	23.733         	5.883
MS.49          	23.685         	5.851
MS.50          	23.637         	5.837
MS.51          	23.59          	5.839
MS.52          	23.545         	5.893
MS.53          	23.497         	5.781
MS.54          	23.45          	5.91
MS.55          	23.403         	5.908
MS.56          	23.358         	5.773
MS.57          	23.31          	5.954
MS.58          	23.262         	5.926
MS.59          	23.217         	5.974
MS.60          	23.17          	5.938
MS.61          	23.125         	6.103
MS.62          	23.077         	5.954
MS.63          	23.032         	6.047
MS.64          	22.985         	6.042
MS.65          	22.94          	5.998
MS.66          	22.895         	6.093
MS.67          	22.847         	6.061
MS.68          	22.802         	5.92
MS.69          	22.757         	6.135
MS.70          	22.712         	5.92
MS.71          	22.665         	6.216
MS.72          	22.62          	6.206
MS.73          	22.575         	6.093
MS.74          	22.53          	6.151
MS.75          	22.485         	6.079
MS.76          	22.44          	5.908
MS.77          	22.395         	6.095
MS.78          	22.35          	6.042
MS.79          	22.307         	6.157
MS.80          	22.262         	6.129
MS.81          	22.217         	6.079
MS.82          	22.172         	6.25
MS.83          	22.127         	6.081
MS.84          	22.085         	5.968
MS.85          	22.04          	6.167
MS.86          	21.995         	6.081
MS.87          	21.952         	6.117
MS.88          	21.907         	6.212
MS.89          	21.865         	6.101
MS.90          	21.82          	6.314
MS.91          	21.778         	6.149
MS.92          	21.735         	6.121
MS.93          	21.69          	6.109
MS.94          	21.647         	6.171
MS.95          	21.605         	5.998
MS.96          	21.56          	6.105
MS.97          	21.517         	5.976
MS.98          	21.475         	6.081
MS.99          	21.432         	5.986
MS.100         	21.39          	6.042
MS.101         	21.345         	6.155
MS.102         	21.302         	6.049
MS.103         	21.26          	5.918
MS.104         	21.217         	6.083
MS.105         	21.175         	5.879
MS.106         	21.135         	6.145
MS.107         	21.092         	6.185
MS.108         	21.05          	6.061
MS.109         	21.007         	6.042
MS.110         	20.965         	5.964
MS.111         	20.922         	5.974
MS.112         	20.882         	5.952
MS.113         	20.84          	6.032
MS.114         	20.797         	6.04
MS.115         	20.757         	6.101
MS.116         	20.715         	5.96
MS.117         	20.675         	5.815
MS.118         	20.632         	5.869
MS.119         	20.592         	5.694
MS.120         	20.55          	5.857
MS.121         	20.51          	5.813
MS.122         	20.467         	5.841
MS.123         	20.427         	5.765
MS.124         	20.387         	5.803
MS.125         	20.345         	5.674
MS.126         	20.305         	5.728
MS.127         	20.265         	5.674
MS.128         	20.225         	5.579
MS.129         	20.182         	5.724
MS.130         	20.142         	5.539
MS.131         	20.102         	5.597
MS.132         	20.062         	5.652
MS.133         	20.022         	5.523
MS.134         	19.983         	5.654
MS.135         	19.942         	5.577
MS.136         	19.903         	5.573
MS.137         	19.862         	5.609
MS.138         	19.823         	5.605
MS.139         	19.785         	5.694
MS.140         	19.745         	5.62
MS.141         	19.705         	5.66
MS.142         	19.665         	5.257
MS.143         	19.627         	5.581
MS.144         	19.587         	5.37
MS.145         	19.547         	5.535
MS.146         	19.51          	5.617
MS.147         	19.47          	5.464
MS.148         	19.43          	5.539
MS.149         	19.392         	5.599
MS.150         	19.352         	5.517
MS.151         	19.315         	5.547
MS.152         	19.275         	5.573
MS.153         	19.237         	5.571
MS.154         	19.2           	5.275
MS.155         	19.16          	5.271
MS.156         	19.122         	5.213
MS.157         	19.085         	4.987
MS.158         	19.047         	5.249
MS.159         	19.007         	5.275
MS.160         	18.97          	5.221
MS.161         	18.932         	5.193
MS.162         	18.895         	5.233
MS.163         	18.858         	5.158
MS.164         	18.82          	5.366
MS.165         	18.782         	5.291
MS.166         	18.745         	5.112
MS.167         	18.708         	4.971
MS.168         	18.67          	5.188
MS.169         	18.632         	4.997
MS.170         	18.595         	5.245
MS.171         	18.557         	5.245
MS.172         	18.52          	4.906
MS.173         	18.483         	5.239
MS.174         	18.448         	4.971
MS.175         	18.41          	4.858
MS.176         	18.372         	4.987
MS.177         	18.335         	5.001
MS.178         	18.3           	4.913
MS.179         	18.262         	4.888
MS.180         	18.227         	4.957
MS.181         	18.19          	4.693
MS.182         	18.153         	4.872
MS.183         	18.118         	4.896
MS.184         	18.08          	4.81
MS.185         	18.045         	4.902
MS.186         	18.01          	4.858
MS.187         	17.972         	4.808
MS.188         	17.938         	4.854
MS.189         	17.903         	4.84
MS.190         	17.865         	4.83
MS.191         	17.83          	4.864
MS.192         	17.795         	4.808
MS.193         	17.757         	4.794
MS.194         	17.722         	4.866
MS.195         	17.688         	4.784
MS.196         	17.653         	4.766
MS.197         	17.618         	4.772
MS.198         	17.583         	4.818
MS.199         	17.547         	4.719
MS.200         	17.512         	4.766
MS.201         	17.477         	4.679
MS.202         	17.442         	4.753
MS.203         	17.407         	4.715
MS.204         	17.372         	4.693
MS.205         	17.337         	4.661
MS.206         	17.302         	4.685
MS.207         	17.267         	4.697
MS.208         	17.235         	4.576
MS.209         	17.2           	4.667
MS.210         	17.165         	4.705
MS.211         	17.13          	4.671
MS.212         	17.097         	4.618
MS.213         	17.062         	4.471
MS.214         	17.028         	4.451
MS.215         	16.995         	4.377
MS.216         	16.96          	4.447
MS.217         	16.927         	4.334
MS.218         	16.892         	4.588
MS.219         	16.86          	4.312
MS.220         	16.825         	4.336
MS.221         	16.792         	4.473
MS.222         	16.757         	4.069
MS.223         	16.725         	4.463
MS.224         	16.69          	3.938
MS.225         	16.657         	4.21
MS.226         	16.625         	4.175
MS.227         	16.59          	4.32
MS.228         	16.557         	4.206
MS.229         	16.525         	4.228
MS.230         	16.493         	4.195
MS.231         	16.46          	3.789
MS.232         	16.425         	4.181
MS.233         	16.392         	4.097
MS.234         	16.36          	3.438
MS.235         	16.327         	3.285
MS.236         	16.295         	2.84
MS.237         	16.262         	3.271
MS.238         	16.23          	3.341
MS.239         	16.198         	3.269
MS.240         	16.165         	3.728
MS.241         	16.132         	3.317
MS.242         	16.1           	2.878
MS.243         	16.067         	3.539
MS.244         	16.038         	3.281
MS.245         	16.005         	3.221
MS.246         	15.972         	2.818
MS.247         	15.94          	2.852
MS.248         	15.91          	2.943
MS.249         	15.877         	2.828
MS.250         	15.845         	2.798
MS.251         	15.812         	2.689
MS.252         	15.782         	2.808
MS.253         	15.75          	2.471
MS.254         	15.72          	2.618
MS.255         	15.688         	2.439
MS.256         	15.657         	2.647
MS.257         	15.625         	2.56
MS.258         	15.595         	2.502
MS.259         	15.562         	2.645
MS.260         	15.532         	2.494
MS.261         	15.5           	2.465
MS.262         	15.47          	2.451
MS.263         	15.438         	2.22
MS.264         	15.407         	2.222
MS.265         	15.377         	2.131
MS.266         	15.347         	2.401
MS.267         	15.315         	2.381
MS.268         	15.285         	2.242
MS.269         	15.255         	2.326
MS.270         	15.225         	2.33
MS.271         	15.193         	2.357
MS.272         	15.162         	2.23
MS.273         	15.132         	2.147
MS.274         	15.102         	2.149
MS.275         	15.072         	2.167
MS.276         	15.042         	2.288
MS.277         	15.012         	2.163
MS.278         	14.983         	2.016
MS.279         	14.952         	2.121
MS.280         	14.922         	2.022
MS.281         	14.892         	2.016
MS.282         	14.862         	2.228
MS.283         	14.832         	2.097
MS.284         	14.802         	1.994
MS.285         	14.775         	1.94
MS.286         	14.745         	1.974
MS.287         	14.715         	2.03
MS.288         	14.685         	2.02
MS.289         	14.657         	1.827
MS.290         	14.627         	1.817
MS.291         	14.597         	1.946
MS.292         	14.568         	1.748
MS.293         	14.54          	1.823
MS.294         	14.51          	1.662
MS.295         	14.483         	1.682
MS.296         	14.452         	1.605
MS.297         	14.422         	1.744
MS.298         	14.395         	1.791
MS.299         	14.365         	1.521
MS.300         	14.337         	1.994
MS.301         	14.31          	1.581
MS.302         	14.28          	1.581
MS.303         	14.252         	1.448
MS.304         	14.222         	1.799
MS.305         	14.195         	1.567
MS.306         	14.167         	1.529
MS.307         	14.137         	1.565
MS.308         	14.11          	1.619
MS.309         	14.082         	1.545
MS.310         	14.052         	1.462
MS.311         	14.025         	1.505
MS.312         	13.997         	1.492
MS.313         	13.97          	1.46
MS.314         	13.943         	1.46
MS.315         	13.912         	1.466
MS.316         	13.885         	1.458
MS.317         	13.858         	1.476
MS.318         	13.83          	1.462
MS.319         	13.802         	1.438
MS.320         	13.775         	1.436
MS.321         	13.747         	1.386
MS.322         	13.72          	1.414
MS.323         	13.693         	1.448
MS.324         	13.665         	1.386
MS.325         	13.637         	1.368
MS.326         	13.61          	1.352
MS.327         	13.582         	1.345
MS.328         	13.557         	1.319
MS.329         	13.53          	1.339
MS.330         	13.502         	1.307
MS.331         	13.475         	1.368
MS.332         	13.447         	1.347
MS.333         	13.422         	1.37
MS.334         	13.395         	1.311
MS.335         	13.367         	1.303
MS.336         	13.342         	1.311
MS.337         	13.315         	1.285
MS.338         	13.287         	1.356
MS.339         	13.262         	1.311
MS.340         	13.235         	1.321
MS.341         	13.207         	1.311
MS.342         	13.182         	1.321
MS.343         	13.155         	1.285
MS.344         	13.13          	1.243
MS.345         	13.102         	1.321
MS.346         	13.077         	1.247
MS.347         	13.05          	1.245
MS.348         	13.025         	1.317
MS.349         	13             	1.253
MS.350         	12.972         	1.061
MS.351         	12.947         	1.321
MS.352         	12.92          	1.317
MS.353         	12.895         	1.241
MS.354         	12.87          	1.174
MS.355         	12.845         	1.309
MS.356         	12.818         	1.063
MS.357         	12.792         	1.327
MS.358         	12.767         	1.102
MS.359         	12.742         	1.07
MS.360         	12.715         	1.18
MS.361         	12.69          	1.229
MS.362         	12.665         	0.929
MS.363         	12.64          	1.072
MS.364         	12.615         	0.8
MS.365         	12.59          	0.912
MS.366         	12.565         	0.743
MS.367         	12.54          	0.85
MS.368         	12.515         	0.753
MS.369         	12.49          	0.657
MS.370         	12.465         	0.618
MS.371         	12.44          	0.705
MS.372         	12.415         	0.703
MS.373         	12.39          	0.632
MS.374         	12.365         	0.697
MS.375         	12.34          	0.524
MS.376         	12.315         	0.81
MS.377         	12.29          	0.624
MS.378         	12.267         	0.626
MS.379         	12.242         	0.703
MS.380         	12.217         	0.33
MS.381         	12.193         	0.814
MS.382         	12.17          	0.508
MS.383         	12.145         	0.516
MS.384         	12.12          	0.602
MS.385         	12.095         	0.538
MS.386         	12.072         	0.33
MS.387         	12.047         	0.487
MS.388         	12.023         	0.524
MS.389         	12             	0.516
MS.390         	11.975         	0.514
MS.391         	11.952         	0.34
MS.392         	11.927         	0.34
MS.393         	11.905         	0.405
MS.394         	11.88          	0.332
MS.395         	11.858         	0.34
MS.396         	11.832         	0.334
MS.397         	11.81          	0.336
MS.398         	11.785         	0.506
MS.399         	11.762         	0.336
MS.400         	11.738         	0.342
MS.401         	11.715         	0.336
MS.402         	11.693         	0.34
MS.403         	11.667         	0.35
MS.404         	11.645         	0.342
MS.405         	11.622         	0.344
MS.406         	11.597         	0.314
MS.407         	11.575         	0.33
MS.408         	11.552         	0.342
MS.409         	11.53          	0.334
MS.410         	11.505         	0.322
MS.411         	11.483         	0.338
MS.412         	11.46          	0.338
MS.413         	11.438         	0.322
MS.414         	11.415         	0.344
MS.415         	11.392         	0.326
MS.416         	11.37          	0.193
MS.417         	11.345         	0.195
MS.418         	11.322         	0.31
MS.419         	11.3           	0.197
MS.420         	11.278         	0.209
MS.421         	11.255         	0.211
MS.422         	11.233         	0.091
MS.423         	11.21          	0.173
MS.424         	11.188         	0.218
MS.425         	11.165         	0.163
MS.426         	11.142         	0.139
MS.427         	11.122         	0.133
MS.428         	11.1           	0.129
MS.429         	11.077         	0.193
MS.430         	11.055         	0.133
MS.431         	11.032         	0.131
MS.432         	11.01          	0.131
MS.433         	10.988         	0.129
MS.434         	10.967         	0.143
MS.435         	10.945         	0.139
MS.436         	10.922         	0.133
MS.437         	10.9           	0.131
MS.438         	10.88          	0.131
MS.439         	10.858         	0.133
MS.440         	10.835         	0.133
MS.441         	10.815         	0.129
MS.442         	10.792         	0.129
MS.443         	10.77          	0.133
MS.444         	10.75          	0.133
MS.445         	10.727         	0.125
MS.446         	10.707         	0.131
MS.447         	10.685         	0.129
MS.448         	10.665         	0.137
MS.449         	10.642         	0.131
MS.450         	10.622         	0.129
MS.451         	10.6           	0.127
MS.452         	10.58          	0.129
MS.453         	10.557         	0.129
MS.454         	10.537         	0.131
MS.455         	10.515         	0.129
MS.456         	10.495         	0.129
MS.457         	10.472         	0.131
MS.458         	10.452         	0.129
MS.459         	10.432         	0.133
MS.460         	10.41          	0.129
MS.461         	10.39          	0.129
MS.462         	10.37          	0.127
MS.463         	10.35          	0.131
MS.464         	10.327         	0.127
MS.465         	10.307         	0.125
MS.466         	10.287         	0.133
MS.467         	10.267         	0.131
MS.468         	10.245         	0.131
MS.469         	10.225         	0.131
MS.470         	10.205         	0.123
MS.471         	10.185         	0.127
MS.472         	10.165         	0.127
MS.473         	10.145         	0.133
MS.474         	10.122         	0.133
MS.475         	10.102         	0.129
MS.476         	10.082         	0.131
MS.477         	10.062         	0.127
MS.478         	10.042         	0.127
MS.479         	10.023         	0.119
MS.480         	10.002         	0.129
MS.481         	9.983          	0.133
MS.482         	9.962          	0.133
MS.483         	9.943          	0.133
MS.484         	9.922          	0.129
MS.485         	9.903          	0.131
MS.486         	9.882          	0.127
MS.487         	9.865          	0.143
MS.488         	9.845          	0.137
MS.489         	9.825          	0.133
MS.490         	9.805          	0.119
MS.491         	9.785          	0.133
MS.492         	9.765          	0.115
MS.493         	9.745          	0.129
MS.494         	9.727          	0.125
MS.495         	9.707          	0.113
MS.496         	9.688          	0.125
MS.497         	9.667          	0.129
MS.498         	9.65           	0.133
MS.499         	9.63           	0.129
MS.500         	9.61           	0.127
MS.501         	9.592          	0.117
