File:              	C:\Qtrac\Data\Daniel M Sørensen\MScan multicentre study\Data from centres\Odense\Processed data\TKC01123A (2).QZD
Name:              	DK.ODE.NC.10.2
Protocol:          	MSCAN-R2
Date:              	23/11/20
Start time:        	13:12:56
Age:               	74
Sex:               	M
Temperature:       	34.2
S/R sites:         	APB
NC/disease:        	NC
Operator:          	TK
Comments:
M-SCAN DATA (4.6-1.1m)
Scanpts: 30, 35, 355, 363
Stim. (mA)     	Amp. (mV)
MS.1           	16.5           	8.026
MS.2           	16.5           	8.043
MS.3           	16.5           	8.139
MS.4           	16.5           	8.045
MS.5           	16.5           	8.022
MS.6           	16.5           	8.057
MS.7           	16.5           	7.996
MS.8           	16.5           	8.091
MS.9           	16.5           	8.085
MS.10          	16.5           	8.105
MS.11          	16.5           	8.079
MS.12          	16.5           	8.111
MS.13          	16.5           	8.077
MS.14          	16.5           	8.103
MS.15          	16.5           	8.145
MS.16          	16.5           	8.125
MS.17          	16.5           	8.036
MS.18          	16.5           	8.071
MS.19          	16.5           	8.081
MS.20          	16.5           	8.057
MS.21          	16.5           	8.083
MS.22          	16.5           	8.045
MS.23          	16.5           	8.109
MS.24          	16.435         	8.093
MS.25          	16.4           	8.087
MS.26          	16.368         	8.113
MS.27          	16.335         	8.073
MS.28          	16.302         	8.085
MS.29          	16.27          	8.097
MS.30          	16.237         	8.105
MS.31          	16.205         	8.139
MS.32          	16.172         	8.115
MS.33          	16.14          	8.115
MS.34          	16.108         	8.077
MS.35          	16.077         	8.103
MS.36          	16.045         	8.133
MS.37          	16.012         	8.137
MS.38          	15.98          	8.123
MS.39          	15.947         	8.089
MS.40          	15.917         	8.177
MS.41          	15.885         	8.093
MS.42          	15.852         	8.119
MS.43          	15.822         	8.202
MS.44          	15.79          	8.145
MS.45          	15.757         	8.109
MS.46          	15.727         	8.204
MS.47          	15.695         	8.109
MS.48          	15.665         	8.077
MS.49          	15.632         	8.036
MS.50          	15.602         	8.091
MS.51          	15.57          	8.107
MS.52          	15.54          	8.008
MS.53          	15.507         	8.069
MS.54          	15.477         	8.022
MS.55          	15.445         	8.012
MS.56          	15.415         	8.047
MS.57          	15.385         	8
MS.58          	15.352         	8.041
MS.59          	15.322         	8.051
MS.60          	15.292         	8.053
MS.61          	15.262         	7.934
MS.62          	15.233         	7.942
MS.63          	15.2           	7.93
MS.64          	15.17          	7.978
MS.65          	15.14          	7.978
MS.66          	15.11          	7.902
MS.67          	15.08          	7.908
MS.68          	15.05          	7.96
MS.69          	15.02          	7.97
MS.70          	14.99          	7.902
MS.71          	14.96          	7.94
MS.72          	14.93          	7.916
MS.73          	14.9           	7.896
MS.74          	14.87          	7.924
MS.75          	14.84          	7.944
MS.76          	14.81          	7.904
MS.77          	14.78          	7.873
MS.78          	14.752         	7.867
MS.79          	14.722         	7.934
MS.80          	14.693         	7.881
MS.81          	14.662         	7.926
MS.82          	14.635         	7.698
MS.83          	14.605         	7.763
MS.84          	14.575         	7.493
MS.85          	14.547         	7.845
MS.86          	14.517         	7.865
MS.87          	14.487         	7.746
MS.88          	14.46          	7.748
MS.89          	14.43          	7.728
MS.90          	14.403         	7.791
MS.91          	14.372         	7.738
MS.92          	14.345         	7.473
MS.93          	14.315         	7.708
MS.94          	14.287         	7.479
MS.95          	14.257         	7.483
MS.96          	14.23          	7.469
MS.97          	14.202         	7.471
MS.98          	14.172         	7.517
MS.99          	14.145         	7.444
MS.100         	14.117         	7.483
MS.101         	14.087         	7.497
MS.102         	14.06          	7.392
MS.103         	14.032         	7.442
MS.104         	14.005         	7.364
MS.105         	13.975         	7.444
MS.106         	13.947         	7.309
MS.107         	13.92          	7.513
MS.108         	13.892         	7.462
MS.109         	13.865         	7.319
MS.110         	13.837         	7.36
MS.111         	13.81          	7.342
MS.112         	13.782         	7.321
MS.113         	13.755         	7.332
MS.114         	13.727         	7.311
MS.115         	13.7           	7.39
MS.116         	13.672         	7.253
MS.117         	13.645         	7.374
MS.118         	13.617         	7.253
MS.119         	13.59          	7.112
MS.120         	13.562         	7.247
MS.121         	13.535         	7.261
MS.122         	13.51          	7.168
MS.123         	13.483         	7.033
MS.124         	13.455         	7.09
MS.125         	13.427         	7.247
MS.126         	13.403         	6.951
MS.127         	13.375         	7.027
MS.128         	13.347         	6.896
MS.129         	13.32          	6.61
MS.130         	13.295         	7.086
MS.131         	13.267         	7.094
MS.132         	13.242         	6.921
MS.133         	13.215         	6.655
MS.134         	13.188         	6.606
MS.135         	13.162         	6.675
MS.136         	13.135         	6.727
MS.137         	13.11          	6.59
MS.138         	13.082         	6.635
MS.139         	13.057         	6.518
MS.140         	13.032         	6.506
MS.141         	13.005         	6.6
MS.142         	12.98          	6.423
MS.143         	12.952         	6.224
MS.144         	12.927         	6.113
MS.145         	12.903         	6.449
MS.146         	12.875         	6.153
MS.147         	12.85          	6.044
MS.148         	12.825         	5.833
MS.149         	12.8           	5.881
MS.150         	12.773         	6.349
MS.151         	12.747         	6.181
MS.152         	12.722         	5.887
MS.153         	12.697         	5.922
MS.154         	12.672         	5.575
MS.155         	12.645         	5.531
MS.156         	12.62          	5.585
MS.157         	12.595         	5.722
MS.158         	12.57          	5.398
MS.159         	12.545         	5.269
MS.160         	12.52          	5.267
MS.161         	12.495         	5.253
MS.162         	12.47          	5.297
MS.163         	12.445         	5.291
MS.164         	12.42          	5.251
MS.165         	12.395         	5.432
MS.166         	12.37          	5.09
MS.167         	12.347         	5.203
MS.168         	12.322         	5.16
MS.169         	12.297         	5.168
MS.170         	12.273         	4.898
MS.171         	12.247         	4.973
MS.172         	12.222         	4.798
MS.173         	12.2           	4.991
MS.174         	12.175         	5.09
MS.175         	12.15          	4.659
MS.176         	12.125         	4.782
MS.177         	12.102         	4.78
MS.178         	12.077         	4.52
MS.179         	12.052         	4.254
MS.180         	12.03          	4.334
MS.181         	12.005         	4.258
MS.182         	11.983         	4.284
MS.183         	11.957         	4.016
MS.184         	11.932         	3.535
MS.185         	11.91          	4.179
MS.186         	11.885         	3.454
MS.187         	11.863         	3.803
MS.188         	11.837         	3.914
MS.189         	11.815         	3.805
MS.190         	11.79          	3.251
MS.191         	11.767         	3.545
MS.192         	11.745         	3.817
MS.193         	11.72          	3.694
MS.194         	11.697         	3.005
MS.195         	11.675         	2.848
MS.196         	11.65          	3.311
MS.197         	11.627         	2.479
MS.198         	11.605         	2.459
MS.199         	11.58          	2.663
MS.200         	11.557         	2.81
MS.201         	11.535         	2.667
MS.202         	11.512         	2.322
MS.203         	11.488         	2.477
MS.204         	11.465         	2.367
MS.205         	11.443         	2.304
MS.206         	11.42          	2.187
MS.207         	11.398         	2.508
MS.208         	11.375         	2.006
MS.209         	11.352         	2.081
MS.210         	11.33          	2.093
MS.211         	11.307         	2.091
MS.212         	11.282         	1.998
MS.213         	11.26          	2.006
MS.214         	11.238         	1.877
MS.215         	11.215         	1.917
MS.216         	11.195         	2.034
MS.217         	11.172         	1.881
MS.218         	11.15          	1.905
MS.219         	11.127         	1.835
MS.220         	11.105         	1.837
MS.221         	11.082         	1.722
MS.222         	11.06          	1.684
MS.223         	11.037         	1.742
MS.224         	11.015         	1.839
MS.225         	10.995         	1.543
MS.226         	10.972         	1.525
MS.227         	10.95          	1.543
MS.228         	10.927         	1.432
MS.229         	10.907         	1.37
MS.230         	10.885         	1.499
MS.231         	10.863         	1.076
MS.232         	10.84          	1.112
MS.233         	10.82          	0.914
MS.234         	10.797         	1.084
MS.235         	10.778         	1.057
MS.236         	10.755         	1.035
MS.237         	10.733         	1.106
MS.238         	10.712         	1.033
MS.239         	10.69          	1.037
MS.240         	10.67          	0.975
MS.241         	10.648         	0.975
MS.242         	10.627         	0.967
MS.243         	10.605         	0.906
MS.244         	10.585         	0.896
MS.245         	10.562         	0.765
MS.246         	10.542         	0.953
MS.247         	10.52          	0.892
MS.248         	10.5           	0.918
MS.249         	10.48          	0.713
MS.250         	10.457         	0.749
MS.251         	10.438         	0.679
MS.252         	10.415         	0.788
MS.253         	10.395         	0.709
MS.254         	10.375         	0.671
MS.255         	10.355         	0.701
MS.256         	10.332         	0.705
MS.257         	10.312         	0.653
MS.258         	10.292         	0.679
MS.259         	10.273         	0.641
MS.260         	10.25          	0.455
MS.261         	10.23          	0.445
MS.262         	10.21          	0.449
MS.263         	10.19          	0.34
MS.264         	10.17          	0.383
MS.265         	10.15          	0.455
MS.266         	10.127         	0.429
MS.267         	10.108         	0.453
MS.268         	10.087         	0.441
MS.269         	10.068         	0.308
MS.270         	10.047         	0.447
MS.271         	10.028         	0.435
MS.272         	10.007         	0.338
MS.273         	9.988          	0.175
MS.274         	9.967          	0.312
MS.275         	9.948          	0.228
MS.276         	9.927          	0.181
MS.277         	9.907          	0.262
MS.278         	9.887          	0.153
MS.279         	9.867          	0.095
MS.280         	9.85           	0.242
MS.281         	9.83           	0.201
MS.282         	9.81           	0.242
MS.283         	9.79           	0.183
MS.284         	9.77           	0.262
MS.285         	9.75           	0.109
MS.286         	9.733          	0.127
MS.287         	9.712          	0.121
MS.288         	9.693          	0.083
MS.289         	9.672          	0.105
MS.290         	9.655          	0.304
MS.291         	9.635          	0.07
MS.292         	9.615          	0.149
MS.293         	9.595          	0.087
MS.294         	9.577          	0.147
MS.295         	9.557          	0.085
MS.296         	9.537          	0.117
MS.297         	9.52           	0.105
MS.298         	9.5            	0.129
MS.299         	9.483          	0.101
MS.300         	9.462          	0.091
MS.301         	9.445          	0.081
MS.302         	9.425          	0.103
MS.303         	9.405          	0.101
MS.304         	9.387          	0.097
MS.305         	9.367          	0.103
MS.306         	9.35           	0.115
MS.307         	9.33           	0.133
MS.308         	9.312          	0.127
MS.309         	9.295          	0.05
MS.310         	9.275          	0.056
MS.311         	9.257          	0.046
MS.312         	9.238          	0.06
MS.313         	9.22           	0.089
MS.314         	9.202          	0.002
MS.315         	9.182          	0.01
MS.316         	9.165          	0.05
MS.317         	9.148          	0.046
MS.318         	9.127          	0.105
MS.319         	9.11           	0.026
MS.320         	9.092          	0.018
MS.321         	9.073          	0.056
MS.322         	9.055          	0.028
MS.323         	9.037          	0.046
MS.324         	9.02           	-0.004
MS.325         	9              	0.028
MS.326         	8.983          	0.03
MS.327         	8.965          	0.052
MS.328         	8.948          	-0.002
MS.329         	8.93           	0.079
MS.330         	8.912          	0.054
MS.331         	8.895          	0.016
MS.332         	8.875          	0.008
MS.333         	8.858          	0.046
MS.334         	8.84           	0.012
MS.335         	8.823          	0.036
MS.336         	8.805          	0.006
MS.337         	8.787          	0.032
MS.338         	8.77           	0.036
MS.339         	8.752          	0.014
MS.340         	8.735          	0.03
MS.341         	8.717          	0.046
MS.342         	8.7            	0.044
MS.343         	8.682          	0.008
MS.344         	8.665          	0.064
MS.345         	8.648          	0.028
MS.346         	8.63           	0.032
MS.347         	8.613          	0.03
MS.348         	8.597          	0.014
MS.349         	8.58           	0.034
MS.350         	8.562          	0.038
MS.351         	8.545          	0.012
MS.352         	8.528          	0.058
MS.353         	8.51           	0.01
MS.354         	8.495          	0.014
MS.355         	8.477          	0.002
MS.356         	8.46           	-0.042
MS.357         	8.443          	0.022
MS.358         	8.427          	0.008
MS.359         	8.41           	0.002
MS.360         	8.392          	0.014
MS.361         	8.375          	-0.02
MS.362         	8.36           	0.056
MS.363         	8.342          	0.016
MS.364         	8.325          	-0.01
MS.365         	8.31           	0.03
MS.366         	8.292          	0.046
MS.367         	8.275          	0.018
MS.368         	8.26           	0.03
MS.369         	8.242          	0.04
MS.370         	8.227          	0.006
MS.371         	8.21           	0.034
MS.372         	8.193          	0.012
MS.373         	8.177          	-0.01
MS.374         	8.16           	0.044
MS.375         	8.145          	0.02
MS.376         	8.127          	0.028
MS.377         	8.113          	-0.006
MS.378         	8.095          	0.028
MS.379         	8.08           	0.026
MS.380         	8.062          	0.02
MS.381         	8.047          	0.012
MS.382         	8.033          	0.07
MS.383         	8.015          	0.034
MS.384         	8              	0.028
MS.385         	7.982          	0.016
MS.386         	7.967          	0.032
MS.387         	7.952          	0.052
MS.388         	7.935          	0.012
MS.389         	7.92           	0.022
MS.390         	7.905          	0.042
MS.391         	7.887          	0.044
MS.392         	7.872          	-0.01
MS.393         	7.857          	0.028
MS.394         	7.84           	0.006
DERIVED EXCITABILITY VARIABLES
Program = QTracP 9/10/2021
Threshold method = 6 (optimised for CAP, using data for present condition only)
SR method = 1 (using actual data values)
6.                 	0.000               	Peak response\(mV)
9.                 	34.2                	Temperature ( C)
17.                	74                  	Age (years)
18.                	1                   	Sex (M=1, F=2)

EXTRA VARIABLES

MScPeak(mV) = 8.05
MScS5(mA) = 10.1
MScS50(mA) = 11.93
MScS95(mA) = 14.43
MScNSteps = 4
MScSteps(%) = 9.9
MScStepMax(%) = 3.2
MScD50 = 30
MScSlope = 7.92
MScDuration(min) = 3.5
MSFTraces = 334
MSFPeakAmp(mV) = 8.1
MSFNUnits = 123
MSFMeanUnitAmp(uV) = 65.9
MSFHuntTime(m) = 1.69
MSFError(%) = 8.26
MSFNLarge = 28.92
MSFMedianAmp(%) = 0.573
MSFMedianAmp(mV) = 0.0464
MSFHalfAmpAmp(%) = 0.927
MSFHalfAmpAmp(mV) = 0.0751
MSFLargestAmp(%) = 4.64
MSFLargestAmp(mV) = 0.376
MSFMeanRS(%) = 1.99
MSFSizeLimit(uV) = 20.3
MSFLimitType = 1
MSFSmallestAmp(uV) = 21.7
MSFOpts = 10106121

EXTRA WAVEFORMS


!MScan Model
!123
	1	9.13	0.42	2
	2	9.29	0.47	2
	3	9.71	0.92	2
	4	9.85	0.5	2
	5	9.93	0.63	2
	6	9.96	0.33	2
	7	9.99	0.37	2
	8	10.14	1.34	2
	9	10.17	0.27	2
	10	10.19	0.42	2
	11	10.22	0.43	2
	12	10.24	0.4	2
	13	10.27	0.32	2
	14	10.29	0.32	2
	15	10.31	0.38	2
	16	10.34	0.42	2
	17	10.37	0.54	2
	18	10.41	0.52	2
	19	10.45	0.59	2
	20	10.49	0.35	2
	21	10.54	0.54	2
	22	10.57	0.42	2
	23	10.6	0.45	2
	24	10.76	1.36	1.6
	25	10.8	0.69	2
	26	10.84	1.17	2
	27	10.87	0.45	2
	28	10.88	0.45	2
	29	10.9	0.46	2
	30	10.91	0.47	2
	31	10.93	0.5	2
	32	10.94	0.49	2
	33	10.96	0.49	2
	34	10.97	0.49	2
	35	10.99	0.56	2
	36	11.01	0.54	2
	37	11.02	0.5	2
	38	11.04	0.46	2
	39	11.06	0.38	2
	40	11.07	0.34	2
	41	11.09	0.33	2
	42	11.1	0.33	2
	43	11.15	0.48	2
	44	11.18	0.61	2
	45	11.24	0.93	2
	46	11.25	0.59	2
	47	11.29	0.83	2
	48	11.32	0.52	2
	49	11.35	0.57	2
	50	11.37	0.59	2
	51	11.4	0.75	2
	52	11.45	1.29	2
	53	11.52	2.27	2
	54	11.55	0.84	2
	55	11.58	1.15	2
	56	11.6	1.24	2
	57	11.63	1.81	2
	58	11.68	2.61	2
	59	11.73	2.21	2
	60	11.83	4.64	2
	61	11.89	2.02	2
	62	11.91	0.6	2
	63	11.93	0.65	2
	64	11.95	0.58	2
	65	11.97	1.01	2
	66	11.99	0.91	2
	67	12.01	0.79	2
	68	12.02	0.79	2
	69	12.04	0.78	2
	70	12.05	0.77	2
	71	12.07	0.68	2
	72	12.08	0.65	2
	73	12.09	0.57	2
	74	12.11	0.57	2
	75	12.12	0.57	2
	76	12.18	2.06	2
	77	12.23	1.38	2
	78	12.26	0.63	2
	79	12.29	0.58	2
	80	12.33	0.54	2
	81	12.36	0.67	2
	82	12.41	0.98	2
	83	12.47	1.04	2
	84	12.49	0.35	2
	85	12.5	0.29	2
	86	12.52	0.29	2
	87	12.54	0.3	2
	88	12.56	0.3	2
	89	12.57	0.38	2
	90	12.59	0.65	2
	91	12.61	0.65	2
	92	12.65	1.5	2
	93	12.74	2.42	2
	94	12.85	3.22	2
	95	12.89	0.85	2
	96	12.91	0.41	2
	97	12.93	0.43	2
	98	12.95	0.41	2
	99	12.97	0.5	2
	100	13	0.73	2
	101	13.04	1.03	2
	102	13.07	0.94	2
	103	13.11	0.81	2
	104	13.19	1.24	2
	105	13.36	3.15	2
	106	13.45	1.18	2
	107	13.52	0.84	2
	108	13.61	1.06	2
	109	13.72	0.75	2
	110	13.88	0.87	2
	111	14.02	0.51	2
	112	14.13	0.36	2
	113	14.2	0.7	2
	114	14.25	0.48	2
	115	14.28	0.33	2
	116	14.32	0.28	2
	117	14.35	0.28	2
	118	14.53	2.59	2
	119	15.01	1.23	2
	120	15.24	0.56	2
	121	15.35	0.47	2
	122	15.54	0.54	2
	123	15.66	0.5	2

