File:              	C:\Qtrac\Data\Daniel M Sørensen\MScan multicentre study\Data from centres\Odense\Processed data\TKC01109A.QZD
Name:              	DK.ODE.NC.7.2
Protocol:          	MSCAN-R2
Date:              	9/11/20
Start time:        	12:23:29
Age:               	41
Sex:               	F
Temperature:       	32.3
S/R sites:         	APB
NC/disease:        	NC
Operator:          	TK
Comments:
M-SCAN DATA (6.8-0.6m)
Scanpts: 160, 169, 553, 566
Stim. (mA)     	Amp. (mV)
MS.1           	15             	12.298
MS.2           	15             	12.317
MS.3           	15             	12.373
MS.4           	15             	12.383
MS.5           	15             	12.349
MS.6           	15             	12.367
MS.7           	15             	12.397
MS.8           	15             	12.425
MS.9           	15             	12.419
MS.10          	15             	12.403
MS.11          	15             	12.47
MS.12          	15             	12.468
MS.13          	15             	12.413
MS.14          	15             	12.389
MS.15          	15             	12.403
MS.16          	15             	12.407
MS.17          	15             	12.381
MS.18          	15             	12.488
MS.19          	15             	12.48
MS.20          	15             	12.464
MS.21          	15             	12.542
MS.22          	15             	12.53
MS.23          	14.94          	12.562
MS.24          	14.91          	12.534
MS.25          	14.88          	12.504
MS.26          	14.85          	12.492
MS.27          	14.82          	12.534
MS.28          	14.792         	12.572
MS.29          	14.762         	12.51
MS.30          	14.733         	12.544
MS.31          	14.702         	12.492
MS.32          	14.672         	12.552
MS.33          	14.645         	12.522
MS.34          	14.615         	12.578
MS.35          	14.585         	12.546
MS.36          	14.557         	12.572
MS.37          	14.527         	12.54
MS.38          	14.497         	12.52
MS.39          	14.47          	12.552
MS.40          	14.44          	12.615
MS.41          	14.412         	12.615
MS.42          	14.382         	12.635
MS.43          	14.355         	12.597
MS.44          	14.325         	12.534
MS.45          	14.297         	12.593
MS.46          	14.267         	12.627
MS.47          	14.24          	12.524
MS.48          	14.212         	12.607
MS.49          	14.182         	12.534
MS.50          	14.155         	12.52
MS.51          	14.127         	12.601
MS.52          	14.097         	12.639
MS.53          	14.07          	12.558
MS.54          	14.042         	12.599
MS.55          	14.015         	12.564
MS.56          	13.985         	12.57
MS.57          	13.957         	12.595
MS.58          	13.93          	12.655
MS.59          	13.903         	12.591
MS.60          	13.875         	12.647
MS.61          	13.847         	12.633
MS.62          	13.82          	12.556
MS.63          	13.792         	12.627
MS.64          	13.765         	12.578
MS.65          	13.737         	12.586
MS.66          	13.71          	12.599
MS.67          	13.682         	12.552
MS.68          	13.655         	12.54
MS.69          	13.627         	12.538
MS.70          	13.6           	12.589
MS.71          	13.572         	12.584
MS.72          	13.545         	12.582
MS.73          	13.517         	12.528
MS.74          	13.492         	12.651
MS.75          	13.465         	12.627
MS.76          	13.438         	12.595
MS.77          	13.41          	12.597
MS.78          	13.385         	12.601
MS.79          	13.358         	12.595
MS.80          	13.33          	12.584
MS.81          	13.305         	12.623
MS.82          	13.278         	12.584
MS.83          	13.25          	12.623
MS.84          	13.225         	12.611
MS.85          	13.197         	12.582
MS.86          	13.172         	12.661
MS.87          	13.145         	12.58
MS.88          	13.12          	12.609
MS.89          	13.092         	12.649
MS.90          	13.068         	12.663
MS.91          	13.04          	12.586
MS.92          	13.015         	12.645
MS.93          	12.987         	12.655
MS.94          	12.962         	12.665
MS.95          	12.938         	12.554
MS.96          	12.91          	12.629
MS.97          	12.885         	12.627
MS.98          	12.86          	12.625
MS.99          	12.832         	12.564
MS.100         	12.807         	12.621
MS.101         	12.782         	12.641
MS.102         	12.757         	12.651
MS.103         	12.73          	12.687
MS.104         	12.705         	12.643
MS.105         	12.68          	12.653
MS.106         	12.655         	12.601
MS.107         	12.63          	12.615
MS.108         	12.605         	12.617
MS.109         	12.58          	12.697
MS.110         	12.555         	12.631
MS.111         	12.53          	12.667
MS.112         	12.505         	12.705
MS.113         	12.48          	12.679
MS.114         	12.455         	12.625
MS.115         	12.43          	12.701
MS.116         	12.405         	12.645
MS.117         	12.38          	12.675
MS.118         	12.355         	12.697
MS.119         	12.33          	12.679
MS.120         	12.305         	12.655
MS.121         	12.28          	12.732
MS.122         	12.257         	12.627
MS.123         	12.233         	12.637
MS.124         	12.207         	12.719
MS.125         	12.182         	12.83
MS.126         	12.157         	12.671
MS.127         	12.135         	12.738
MS.128         	12.11          	12.752
MS.129         	12.085         	12.778
MS.130         	12.062         	12.695
MS.131         	12.037         	12.721
MS.132         	12.012         	12.723
MS.133         	11.99          	12.776
MS.134         	11.965         	12.742
MS.135         	11.943         	12.822
MS.136         	11.917         	12.788
MS.137         	11.895         	12.84
MS.138         	11.87          	12.764
MS.139         	11.847         	12.774
MS.140         	11.822         	12.77
MS.141         	11.8           	12.78
MS.142         	11.775         	12.75
MS.143         	11.752         	12.762
MS.144         	11.73          	12.766
MS.145         	11.705         	12.707
MS.146         	11.682         	12.786
MS.147         	11.657         	12.758
MS.148         	11.635         	12.82
MS.149         	11.613         	12.79
MS.150         	11.59          	12.762
MS.151         	11.565         	12.796
MS.152         	11.542         	12.875
MS.153         	11.52          	12.738
MS.154         	11.497         	12.889
MS.155         	11.472         	12.768
MS.156         	11.45          	12.856
MS.157         	11.427         	12.832
MS.158         	11.405         	12.8
MS.159         	11.382         	12.776
MS.160         	11.36          	12.806
MS.161         	11.337         	12.87
MS.162         	11.315         	12.707
MS.163         	11.292         	12.756
MS.164         	11.27          	12.816
MS.165         	11.247         	12.796
MS.166         	11.225         	12.762
MS.167         	11.202         	12.858
MS.168         	11.18          	12.786
MS.169         	11.157         	12.852
MS.170         	11.135         	12.792
MS.171         	11.113         	12.802
MS.172         	11.09          	12.792
MS.173         	11.068         	12.816
MS.174         	11.045         	12.81
MS.175         	11.023         	12.758
MS.176         	11.002         	12.812
MS.177         	10.98          	12.734
MS.178         	10.957         	12.79
MS.179         	10.935         	12.655
MS.180         	10.915         	12.667
MS.181         	10.892         	12.721
MS.182         	10.87          	12.822
MS.183         	10.847         	12.782
MS.184         	10.827         	12.897
MS.185         	10.805         	12.806
MS.186         	10.785         	12.81
MS.187         	10.762         	12.822
MS.188         	10.74          	12.617
MS.189         	10.72          	12.828
MS.190         	10.698         	12.782
MS.191         	10.677         	12.806
MS.192         	10.655         	12.701
MS.193         	10.635         	12.659
MS.194         	10.613         	12.693
MS.195         	10.592         	12.661
MS.196         	10.57          	12.645
MS.197         	10.55          	12.685
MS.198         	10.528         	12.715
MS.199         	10.507         	12.635
MS.200         	10.485         	12.729
MS.201         	10.465         	12.78
MS.202         	10.445         	12.651
MS.203         	10.422         	12.574
MS.204         	10.403         	12.538
MS.205         	10.382         	12.673
MS.206         	10.36          	12.641
MS.207         	10.34          	12.508
MS.208         	10.32          	12.407
MS.209         	10.3           	12.498
MS.210         	10.278         	12.466
MS.211         	10.257         	12.377
MS.212         	10.238         	12.399
MS.213         	10.217         	12.427
MS.214         	10.198         	12.433
MS.215         	10.175         	12.409
MS.216         	10.155         	12.349
MS.217         	10.135         	12.411
MS.218         	10.115         	11.922
MS.219         	10.095         	12.498
MS.220         	10.075         	12.333
MS.221         	10.055         	12.208
MS.222         	10.035         	12.25
MS.223         	10.015         	12.385
MS.224         	9.995          	12.284
MS.225         	9.975          	11.789
MS.226         	9.955          	12.323
MS.227         	9.935          	11.88
MS.228         	9.915          	12.222
MS.229         	9.895          	12.23
MS.230         	9.875          	12.159
MS.231         	9.855          	12.041
MS.232         	9.835          	12.145
MS.233         	9.818          	11.747
MS.234         	9.797          	11.739
MS.235         	9.778          	11.745
MS.236         	9.757          	11.678
MS.237         	9.738          	11.797
MS.238         	9.717          	11.473
MS.239         	9.7            	11.307
MS.240         	9.68           	11.614
MS.241         	9.66           	11.759
MS.242         	9.64           	11.507
MS.243         	9.622          	11.342
MS.244         	9.602          	11.201
MS.245         	9.582          	10.74
MS.246         	9.565          	10.649
MS.247         	9.545          	10.937
MS.248         	9.525          	10.834
MS.249         	9.507          	10.788
MS.250         	9.488          	11.179
MS.251         	9.47           	10.621
MS.252         	9.45           	10.8
MS.253         	9.432          	10.474
MS.254         	9.412          	10.659
MS.255         	9.395          	11.291
MS.256         	9.375          	10.86
MS.257         	9.358          	10.949
MS.258         	9.337          	10.762
MS.259         	9.32           	10.74
MS.260         	9.3            	9.763
MS.261         	9.283          	9.682
MS.262         	9.262          	9.545
MS.263         	9.245          	10.379
MS.264         	9.225          	10.039
MS.265         	9.207          	10.339
MS.266         	9.19           	10.51
MS.267         	9.17           	10.085
MS.268         	9.153          	10.174
MS.269         	9.135          	10.079
MS.270         	9.115          	10.089
MS.271         	9.097          	10.113
MS.272         	9.08           	9.676
MS.273         	9.062          	9.599
MS.274         	9.042          	9.358
MS.275         	9.025          	9.366
MS.276         	9.007          	9.438
MS.277         	8.99           	9.811
MS.278         	8.972          	8.764
MS.279         	8.952          	8.363
MS.280         	8.935          	8.604
MS.281         	8.917          	8.278
MS.282         	8.9            	7.773
MS.283         	8.882          	7.966
MS.284         	8.865          	8.262
MS.285         	8.847          	8.613
MS.286         	8.83           	7.243
MS.287         	8.812          	7.471
MS.288         	8.795          	6.685
MS.289         	8.775          	6.874
MS.290         	8.757          	7.001
MS.291         	8.74           	6.202
MS.292         	8.722          	6.238
MS.293         	8.707          	5.994
MS.294         	8.69           	6.196
MS.295         	8.672          	6.647
MS.296         	8.655          	6.921
MS.297         	8.637          	6.675
MS.298         	8.62           	6.975
MS.299         	8.602          	6.246
MS.300         	8.585          	5.891
MS.301         	8.568          	6.653
MS.302         	8.55           	6.957
MS.303         	8.535          	6.103
MS.304         	8.517          	5.628
MS.305         	8.5            	5.799
MS.306         	8.483          	5.295
MS.307         	8.465          	4.772
MS.308         	8.45           	5.076
MS.309         	8.432          	5.624
MS.310         	8.415          	5.555
MS.311         	8.398          	5.698
MS.312         	8.382          	5.992
MS.313         	8.365          	5.672
MS.314         	8.347          	5.535
MS.315         	8.332          	5.019
MS.316         	8.315          	3.47
MS.317         	8.297          	3.954
MS.318         	8.283          	3.69
MS.319         	8.265          	3.587
MS.320         	8.247          	3.593
MS.321         	8.233          	4.103
MS.322         	8.215          	3.95
MS.323         	8.2            	4.006
MS.324         	8.182          	3.676
MS.325         	8.167          	4.121
MS.326         	8.15           	3.474
MS.327         	8.135          	4.004
MS.328         	8.117          	3.861
MS.329         	8.102          	3.346
MS.330         	8.085          	3.315
MS.331         	8.07           	2.782
MS.332         	8.052          	3.11
MS.333         	8.037          	3.108
MS.334         	8.02           	3.265
MS.335         	8.005          	3.045
MS.336         	7.99           	3.166
MS.337         	7.972          	3.482
MS.338         	7.957          	3.219
MS.339         	7.94           	2.917
MS.340         	7.925          	3.049
MS.341         	7.91           	2.794
MS.342         	7.892          	2.848
MS.343         	7.878          	2.802
MS.344         	7.862          	2.431
MS.345         	7.847          	2.852
MS.346         	7.83           	2.689
MS.347         	7.815          	2.81
MS.348         	7.8            	2.635
MS.349         	7.785          	2.51
MS.350         	7.767          	2.304
MS.351         	7.753          	2.236
MS.352         	7.737          	2.417
MS.353         	7.722          	1.946
MS.354         	7.707          	1.934
MS.355         	7.69           	1.841
MS.356         	7.675          	1.797
MS.357         	7.66           	1.948
MS.358         	7.645          	1.781
MS.359         	7.63           	1.839
MS.360         	7.615          	1.922
MS.361         	7.6            	1.837
MS.362         	7.585          	1.317
MS.363         	7.57           	1.45
MS.364         	7.555          	1.466
MS.365         	7.537          	1.418
MS.366         	7.523          	1.507
MS.367         	7.507          	1.46
MS.368         	7.492          	1.492
MS.369         	7.477          	1.285
MS.370         	7.462          	1.404
MS.371         	7.447          	1.283
MS.372         	7.435          	1.476
MS.373         	7.42           	1.18
MS.374         	7.405          	1.108
MS.375         	7.39           	1.025
MS.376         	7.375          	1.132
MS.377         	7.36           	1.033
MS.378         	7.345          	0.86
MS.379         	7.33           	0.84
MS.380         	7.315          	0.87
MS.381         	7.302          	0.765
MS.382         	7.287          	0.649
MS.383         	7.273          	0.667
MS.384         	7.257          	0.693
MS.385         	7.242          	0.761
MS.386         	7.227          	0.562
MS.387         	7.215          	0.586
MS.388         	7.2            	0.628
MS.389         	7.185          	0.647
MS.390         	7.17           	0.598
MS.391         	7.157          	0.564
MS.392         	7.142          	0.54
MS.393         	7.128          	0.594
MS.394         	7.115          	0.564
MS.395         	7.1            	0.598
MS.396         	7.085          	0.713
MS.397         	7.072          	0.554
MS.398         	7.057          	0.584
MS.399         	7.043          	0.471
MS.400         	7.03           	0.554
MS.401         	7.015          	0.618
MS.402         	7              	0.431
MS.403         	6.987          	0.455
MS.404         	6.972          	0.449
MS.405         	6.96           	0.544
MS.406         	6.945          	0.542
MS.407         	6.932          	0.437
MS.408         	6.918          	0.373
MS.409         	6.902          	0.375
MS.410         	6.89           	0.401
MS.411         	6.875          	0.417
MS.412         	6.862          	0.371
MS.413         	6.847          	0.308
MS.414         	6.835          	0.27
MS.415         	6.822          	0.338
MS.416         	6.807          	0.246
MS.417         	6.795          	0.431
MS.418         	6.78           	0.316
MS.419         	6.767          	0.248
MS.420         	6.753          	0.27
MS.421         	6.74           	0.274
MS.422         	6.727          	0.31
MS.423         	6.712          	0.232
MS.424         	6.7            	0.27
MS.425         	6.685          	0.3
MS.426         	6.672          	0.272
MS.427         	6.66           	0.383
MS.428         	6.645          	0.246
MS.429         	6.632          	0.244
MS.430         	6.62           	0.344
MS.431         	6.608          	0.234
MS.432         	6.592          	0.228
MS.433         	6.58           	0.244
MS.434         	6.567          	0.264
MS.435         	6.555          	0.214
MS.436         	6.54           	0.258
MS.437         	6.527          	0.252
MS.438         	6.515          	0.205
MS.439         	6.503          	0.264
MS.440         	6.487          	0.23
MS.441         	6.475          	0.294
MS.442         	6.462          	0.222
MS.443         	6.45           	0.209
MS.444         	6.438          	0.236
MS.445         	6.425          	0.246
MS.446         	6.41           	0.218
MS.447         	6.398          	0.284
MS.448         	6.385          	0.159
MS.449         	6.372          	0.228
MS.450         	6.36           	0.24
MS.451         	6.347          	0.189
MS.452         	6.335          	0.22
MS.453         	6.322          	0.211
MS.454         	6.31           	0.201
MS.455         	6.297          	0.181
MS.456         	6.285          	0.211
MS.457         	6.273          	0.139
MS.458         	6.26           	0.205
MS.459         	6.247          	0.193
MS.460         	6.235          	0.218
MS.461         	6.222          	0.234
MS.462         	6.21           	0.292
MS.463         	6.197          	0.187
MS.464         	6.185          	0.131
MS.465         	6.172          	0.252
MS.466         	6.16           	0.145
MS.467         	6.148          	0.242
MS.468         	6.135          	0.173
MS.469         	6.122          	0.193
MS.470         	6.11           	0.236
MS.471         	6.097          	0.169
MS.472         	6.088          	0.197
MS.473         	6.075          	0.187
MS.474         	6.062          	0.181
MS.475         	6.05           	0.226
MS.476         	6.037          	0.181
MS.477         	6.025          	0.28
MS.478         	6.012          	0.199
MS.479         	6.003          	0.187
MS.480         	5.99           	0.272
MS.481         	5.977          	0.254
MS.482         	5.965          	0.193
MS.483         	5.955          	0.193
MS.484         	5.942          	0.24
MS.485         	5.93           	0.179
MS.486         	5.918          	0.218
MS.487         	5.907          	0.252
MS.488         	5.895          	0.234
MS.489         	5.882          	0.115
MS.490         	5.87           	0.25
MS.491         	5.86           	0.171
MS.492         	5.847          	0.226
MS.493         	5.835          	0.264
MS.494         	5.825          	0.222
