File:              	C:\Qtrac\Data\Daniel M Sørensen\MScan multicentre study\Data from centres\Odense\Processed data\TKC01123C.QZD
Name:              	DK.ODE.NC.10.2
Protocol:          	MSCAN-R2
Date:              	23/11/20
Start time:        	13:30:52
Age:               	74
Sex:               	M
Temperature:       	32.3
S/R sites:         	TA
NC/disease:        	NC
Operator:          	TK
Comments:
M-SCAN DATA (5.5-0.8m)
Scanpts: 94, 111, 489, 499
Stim. (mA)     	Amp. (mV)
MS.1           	31.5           	3.849
MS.2           	31.5           	3.845
MS.3           	31.5           	3.909
MS.4           	31.5           	3.847
MS.5           	31.5           	3.911
MS.6           	31.5           	3.853
MS.7           	31.5           	3.821
MS.8           	31.5           	3.94
MS.9           	31.5           	3.873
MS.10          	31.5           	3.823
MS.11          	31.5           	3.837
MS.12          	31.5           	3.865
MS.13          	31.5           	3.871
MS.14          	31.5           	3.853
MS.15          	31.5           	3.865
MS.16          	31.5           	3.827
MS.17          	31.5           	3.805
MS.18          	31.5           	3.833
MS.19          	31.5           	3.823
MS.20          	31.5           	3.843
MS.21          	31.5           	3.837
MS.22          	31.5           	3.821
MS.23          	31.375         	3.795
MS.24          	31.312         	3.833
MS.25          	31.25          	3.932
MS.26          	31.188         	3.865
MS.27          	31.125         	3.861
MS.28          	31.062         	3.827
MS.29          	31             	3.829
MS.30          	30.938         	3.841
MS.31          	30.875         	3.843
MS.32          	30.815         	3.905
MS.33          	30.752         	3.841
MS.34          	30.692         	3.829
MS.35          	30.63          	3.829
MS.36          	30.57          	3.823
MS.37          	30.507         	3.879
MS.38          	30.448         	3.859
MS.39          	30.385         	3.809
MS.40          	30.325         	3.871
MS.41          	30.265         	3.845
MS.42          	30.205         	3.813
MS.43          	30.145         	3.869
MS.44          	30.082         	3.891
MS.45          	30.022         	3.871
MS.46          	29.962         	3.893
MS.47          	29.903         	3.825
MS.48          	29.845         	3.875
MS.49          	29.785         	3.857
MS.50          	29.725         	3.875
MS.51          	29.665         	3.853
MS.52          	29.605         	3.899
MS.53          	29.547         	3.855
MS.54          	29.487         	3.918
MS.55          	29.43          	3.911
MS.56          	29.37          	3.877
MS.57          	29.312         	3.865
MS.58          	29.252         	3.893
MS.59          	29.195         	3.839
MS.60          	29.137         	3.897
MS.61          	29.077         	3.928
MS.62          	29.02          	3.859
MS.63          	28.962         	3.845
MS.64          	28.905         	3.861
MS.65          	28.847         	3.877
MS.66          	28.787         	3.853
MS.67          	28.73          	3.845
MS.68          	28.675         	3.865
MS.69          	28.618         	3.835
MS.70          	28.56          	3.845
MS.71          	28.502         	3.901
MS.72          	28.445         	3.817
MS.73          	28.387         	3.901
MS.74          	28.332         	3.918
MS.75          	28.275         	3.883
MS.76          	28.217         	3.877
MS.77          	28.162         	3.845
MS.78          	28.105         	3.869
MS.79          	28.05          	3.865
MS.80          	27.995         	3.899
MS.81          	27.938         	3.869
MS.82          	27.882         	3.875
MS.83          	27.827         	3.875
MS.84          	27.77          	3.922
MS.85          	27.715         	3.845
MS.86          	27.66          	3.875
MS.87          	27.605         	3.885
MS.88          	27.55          	3.867
MS.89          	27.495         	3.845
MS.90          	27.44          	3.914
MS.91          	27.385         	3.879
MS.92          	27.33          	3.859
MS.93          	27.275         	3.926
MS.94          	27.22          	3.869
MS.95          	27.167         	3.893
MS.96          	27.112         	3.879
MS.97          	27.057         	3.867
MS.98          	27.005         	3.928
MS.99          	26.95          	3.905
MS.100         	26.895         	3.875
MS.101         	26.842         	3.944
MS.102         	26.79          	3.95
MS.103         	26.735         	3.936
MS.104         	26.682         	3.873
MS.105         	26.627         	3.845
MS.106         	26.575         	3.907
MS.107         	26.522         	3.889
MS.108         	26.47          	3.875
MS.109         	26.417         	3.901
MS.110         	26.362         	3.897
MS.111         	26.31          	3.922
MS.112         	26.257         	3.901
MS.113         	26.205         	3.845
MS.114         	26.153         	3.94
MS.115         	26.102         	3.825
MS.116         	26.05          	3.895
MS.117         	25.997         	3.867
MS.118         	25.945         	3.889
MS.119         	25.892         	3.877
MS.120         	25.842         	3.932
MS.121         	25.79          	3.877
MS.122         	25.737         	3.901
MS.123         	25.688         	3.895
MS.124         	25.635         	3.887
MS.125         	25.585         	3.869
MS.126         	25.532         	3.863
MS.127         	25.483         	3.918
MS.128         	25.432         	3.861
MS.129         	25.38          	3.821
MS.130         	25.33          	3.777
MS.131         	25.28          	3.775
MS.132         	25.227         	3.899
MS.133         	25.177         	3.734
MS.134         	25.127         	3.766
MS.135         	25.077         	3.887
MS.136         	25.028         	3.777
MS.137         	24.977         	3.821
MS.138         	24.927         	3.714
MS.139         	24.877         	3.68
MS.140         	24.827         	3.732
MS.141         	24.778         	3.694
MS.142         	24.73          	3.71
MS.143         	24.68          	3.724
MS.144         	24.63          	3.714
MS.145         	24.58          	3.712
MS.146         	24.532         	3.698
MS.147         	24.483         	3.756
MS.148         	24.435         	3.682
MS.149         	24.385         	3.694
MS.150         	24.337         	3.696
MS.151         	24.288         	3.67
MS.152         	24.24          	3.642
MS.153         	24.19          	3.714
MS.154         	24.142         	3.742
MS.155         	24.095         	3.634
MS.156         	24.047         	3.654
MS.157         	23.997         	3.599
MS.158         	23.95          	3.698
MS.159         	23.903         	3.67
MS.160         	23.855         	3.64
MS.161         	23.807         	3.664
MS.162         	23.76          	3.686
MS.163         	23.712         	3.692
MS.164         	23.665         	3.704
MS.165         	23.618         	3.66
MS.166         	23.57          	3.656
MS.167         	23.522         	3.638
MS.168         	23.475         	3.632
MS.169         	23.43          	3.696
MS.170         	23.382         	3.706
MS.171         	23.335         	3.694
MS.172         	23.29          	3.642
MS.173         	23.243         	3.652
MS.174         	23.195         	3.672
MS.175         	23.15          	3.648
MS.176         	23.102         	3.684
MS.177         	23.057         	3.595
MS.178         	23.01          	3.571
MS.179         	22.965         	3.605
MS.180         	22.92          	3.567
MS.181         	22.872         	3.561
MS.182         	22.827         	3.551
MS.183         	22.782         	3.491
MS.184         	22.737         	3.553
MS.185         	22.692         	3.549
MS.186         	22.645         	3.539
MS.187         	22.6           	3.563
MS.188         	22.555         	3.444
MS.189         	22.51          	3.482
MS.190         	22.465         	3.509
MS.191         	22.42          	3.468
MS.192         	22.375         	3.519
MS.193         	22.33          	3.468
MS.194         	22.288         	3.458
MS.195         	22.243         	3.557
MS.196         	22.198         	3.505
MS.197         	22.153         	3.448
MS.198         	22.11          	3.489
MS.199         	22.065         	3.418
MS.200         	22.02          	3.45
MS.201         	21.977         	3.424
MS.202         	21.932         	3.474
MS.203         	21.89          	3.396
MS.204         	21.845         	3.438
MS.205         	21.802         	3.474
MS.206         	21.757         	3.404
MS.207         	21.715         	3.362
MS.208         	21.67          	3.313
MS.209         	21.627         	3.438
MS.210         	21.585         	3.329
MS.211         	21.542         	3.366
MS.212         	21.497         	3.331
MS.213         	21.455         	3.372
MS.214         	21.413         	3.307
MS.215         	21.37          	3.303
MS.216         	21.327         	3.352
MS.217         	21.285         	3.257
MS.218         	21.243         	3.344
MS.219         	21.2           	3.305
MS.220         	21.157         	3.066
MS.221         	21.115         	3.225
MS.222         	21.073         	3.148
MS.223         	21.03          	3.215
MS.224         	20.987         	3.055
MS.225         	20.948         	3.14
MS.226         	20.905         	3.132
MS.227         	20.862         	3.07
MS.228         	20.823         	2.995
MS.229         	20.78          	3.019
MS.230         	20.737         	3.023
MS.231         	20.698         	3.003
MS.232         	20.655         	2.961
MS.233         	20.615         	3.12
MS.234         	20.573         	2.949
MS.235         	20.532         	3.021
MS.236         	20.49          	2.925
MS.237         	20.45          	2.983
MS.238         	20.41          	2.929
MS.239         	20.368         	2.808
MS.240         	20.327         	2.906
MS.241         	20.288         	2.784
MS.242         	20.247         	2.782
MS.243         	20.205         	2.844
MS.244         	20.165         	2.927
MS.245         	20.125         	2.816
MS.246         	20.085         	2.767
MS.247         	20.045         	2.755
MS.248         	20.005         	2.727
MS.249         	19.965         	2.721
MS.250         	19.925         	2.78
MS.251         	19.885         	2.715
MS.252         	19.845         	2.628
MS.253         	19.805         	2.751
MS.254         	19.767         	2.826
MS.255         	19.727         	2.725
MS.256         	19.688         	2.661
MS.257         	19.647         	2.667
MS.258         	19.61          	2.586
MS.259         	19.57          	2.661
MS.260         	19.53          	2.608
MS.261         	19.493         	2.576
MS.262         	19.452         	2.645
MS.263         	19.415         	2.528
MS.264         	19.375         	2.518
MS.265         	19.337         	2.536
MS.266         	19.297         	2.502
MS.267         	19.26          	2.63
MS.268         	19.22          	2.467
MS.269         	19.182         	2.522
MS.270         	19.145         	2.51
MS.271         	19.105         	2.411
MS.272         	19.067         	2.49
MS.273         	19.03          	2.431
MS.274         	18.993         	2.393
MS.275         	18.952         	2.28
MS.276         	18.915         	2.477
MS.277         	18.877         	2.236
MS.278         	18.84          	2.268
MS.279         	18.802         	2.226
MS.280         	18.765         	2.252
MS.281         	18.727         	2.232
MS.282         	18.69          	2.216
MS.283         	18.653         	2.131
MS.284         	18.615         	2.056
MS.285         	18.577         	2.232
MS.286         	18.54          	2.069
MS.287         	18.505         	2.137
MS.288         	18.467         	2.121
MS.289         	18.43          	2.103
MS.290         	18.392         	2.054
MS.291         	18.358         	1.996
MS.292         	18.32          	1.984
MS.293         	18.282         	1.992
MS.294         	18.247         	1.895
MS.295         	18.21          	1.855
MS.296         	18.175         	1.976
MS.297         	18.137         	1.871
MS.298         	18.102         	1.928
MS.299         	18.065         	1.851
MS.300         	18.03          	1.891
MS.301         	17.993         	1.859
MS.302         	17.958         	1.857
MS.303         	17.92          	1.698
MS.304         	17.885         	1.732
MS.305         	17.85          	1.833
MS.306         	17.815         	1.72
MS.307         	17.778         	1.714
MS.308         	17.743         	1.68
MS.309         	17.708         	1.599
MS.310         	17.672         	1.642
MS.311         	17.637         	1.64
MS.312         	17.602         	1.627
MS.313         	17.567         	1.692
MS.314         	17.53          	1.662
MS.315         	17.495         	1.597
MS.316         	17.46          	1.629
MS.317         	17.427         	1.587
MS.318         	17.392         	1.593
MS.319         	17.358         	1.617
MS.320         	17.323         	1.565
MS.321         	17.288         	1.547
MS.322         	17.253         	1.517
MS.323         	17.217         	1.551
MS.324         	17.185         	1.48
MS.325         	17.15          	1.499
MS.326         	17.115         	1.478
MS.327         	17.083         	1.549
MS.328         	17.047         	1.442
MS.329         	17.012         	1.484
MS.330         	16.98          	1.492
MS.331         	16.945         	1.458
MS.332         	16.913         	1.482
MS.333         	16.878         	1.462
MS.334         	16.845         	1.4
MS.335         	16.81          	1.426
MS.336         	16.778         	1.374
MS.337         	16.743         	1.287
MS.338         	16.71          	1.392
MS.339         	16.675         	1.364
MS.340         	16.642         	1.372
MS.341         	16.61          	1.362
MS.342         	16.577         	1.2
MS.343         	16.542         	1.219
MS.344         	16.51          	1.331
MS.345         	16.477         	1.271
MS.346         	16.445         	1.112
MS.347         	16.413         	1.285
MS.348         	16.378         	1.241
MS.349         	16.345         	1.009
MS.350         	16.312         	1.13
MS.351         	16.28          	1.074
MS.352         	16.247         	1.219
MS.353         	16.215         	1.027
MS.354         	16.182         	1.14
MS.355         	16.15          	0.999
MS.356         	16.118         	1.025
MS.357         	16.087         	1.078
MS.358         	16.055         	0.914
MS.359         	16.022         	0.969
MS.360         	15.99          	0.971
MS.361         	15.957         	0.87
MS.362         	15.927         	0.882
MS.363         	15.895         	0.882
MS.364         	15.862         	0.788
MS.365         	15.83          	0.858
MS.366         	15.8           	0.792
MS.367         	15.767         	0.729
MS.368         	15.737         	0.775
MS.369         	15.705         	0.769
MS.370         	15.672         	0.804
MS.371         	15.642         	0.687
MS.372         	15.61          	0.713
MS.373         	15.58          	0.651
MS.374         	15.55          	0.677
MS.375         	15.517         	0.61
MS.376         	15.487         	0.636
MS.377         	15.455         	0.641
MS.378         	15.425         	0.655
MS.379         	15.395         	0.596
MS.380         	15.362         	0.618
MS.381         	15.332         	0.584
MS.382         	15.302         	0.608
MS.383         	15.273         	0.594
MS.384         	15.24          	0.524
MS.385         	15.21          	0.528
MS.386         	15.18          	0.612
MS.387         	15.15          	0.534
MS.388         	15.12          	0.504
MS.389         	15.09          	0.493
MS.390         	15.06          	0.514
MS.391         	15.03          	0.459
MS.392         	15             	0.506
MS.393         	14.97          	0.493
MS.394         	14.94          	0.441
MS.395         	14.91          	0.455
MS.396         	14.88          	0.435
MS.397         	14.85          	0.447
MS.398         	14.82          	0.425
MS.399         	14.79          	0.383
MS.400         	14.76          	0.471
MS.401         	14.733         	0.361
MS.402         	14.702         	0.381
MS.403         	14.672         	0.302
MS.404         	14.642         	0.357
MS.405         	14.615         	0.256
MS.406         	14.585         	0.381
MS.407         	14.555         	0.288
MS.408         	14.527         	0.322
MS.409         	14.497         	0.393
MS.410         	14.467         	0.361
MS.411         	14.44          	0.375
MS.412         	14.41          	0.326
MS.413         	14.382         	0.268
MS.414         	14.352         	0.236
MS.415         	14.325         	0.218
MS.416         	14.295         	0.288
MS.417         	14.267         	0.199
MS.418         	14.24          	0.211
MS.419         	14.21          	0.25
MS.420         	14.182         	0.159
MS.421         	14.155         	0.211
MS.422         	14.125         	0.187
MS.423         	14.097         	0.079
MS.424         	14.07          	0.099
MS.425         	14.04          	0.127
MS.426         	14.012         	0.139
MS.427         	13.985         	0.07
MS.428         	13.957         	0.093
MS.429         	13.93          	0.105
MS.430         	13.903         	0.093
MS.431         	13.872         	0.04
MS.432         	13.845         	0.05
MS.433         	13.818         	0.046
MS.434         	13.79          	0.028
MS.435         	13.762         	0.026
MS.436         	13.735         	0.034
MS.437         	13.707         	0.032
MS.438         	13.68          	0.075
MS.439         	13.653         	0.068
MS.440         	13.625         	0.054
MS.441         	13.6           	0.01
MS.442         	13.572         	0.008
MS.443         	13.545         	0.032
MS.444         	13.517         	-0.006
MS.445         	13.49          	0.046
MS.446         	13.462         	0.002
MS.447         	13.438         	0.018
MS.448         	13.41          	-0.034
MS.449         	13.382         	-0.004
MS.450         	13.355         	-0.01
MS.451         	13.33          	-0.024
MS.452         	13.302         	-0.006
MS.453         	13.278         	-0.018
MS.454         	13.25          	0.022
MS.455         	13.222         	0.002
MS.456         	13.197         	-0.006
MS.457         	13.17          	-0.03
MS.458         	13.145         	-0.004
MS.459         	13.117         	-0.054
MS.460         	13.092         	-0.004
MS.461         	13.065         	-0.01
MS.462         	13.04          	-0.034
MS.463         	13.012         	-0.024
MS.464         	12.987         	-0.05
MS.465         	12.962         	-0.03
MS.466         	12.935         	-0.004
MS.467         	12.91          	0.014
MS.468         	12.885         	-0.03
MS.469         	12.858         	-0.044
MS.470         	12.832         	-0.01
MS.471         	12.807         	-0.062
MS.472         	12.782         	-0.018
MS.473         	12.755         	-0.034
MS.474         	12.73          	0.012
MS.475         	12.705         	-0.046
MS.476         	12.68          	-0.048
MS.477         	12.655         	-0.008
MS.478         	12.63          	-0.02
MS.479         	12.602         	-0.05
MS.480         	12.577         	-0.04
MS.481         	12.552         	-0.073
MS.482         	12.528         	-0.012
MS.483         	12.502         	-0.03
MS.484         	12.477         	-0.024
MS.485         	12.452         	-0.054
MS.486         	12.427         	-0.024
MS.487         	12.403         	-0.026
MS.488         	12.38          	-0.048
MS.489         	12.355         	-0.026
MS.490         	12.33          	-0.032
MS.491         	12.305         	-0.026
MS.492         	12.28          	-0.052
MS.493         	12.255         	-0.034
MS.494         	12.23          	-0.014
MS.495         	12.207         	-0.008
MS.496         	12.182         	-0.016
MS.497         	12.157         	-0.042
MS.498         	12.132         	-0.012
MS.499         	12.11          	-0.002
MS.500         	12.085         	-0.046
