File:              	C:\Qtrac\Data\Daniel M Sørensen\MScan multicentre study\Data from centres\Odense\Processed data\TKC00922C.QZD
Name:              	DK.ODE.NC.4.2
Protocol:          	MSCAN-R2
Date:              	22/9/20
Start time:        	08:41:46
Age:               	51
Sex:               	F
Temperature:       	31.1
S/R sites:         	TA
NC/disease:        	NC
Operator:          	TK
Comments:
M-SCAN DATA (7-1.2m)
Scanpts: 50, 61, 502, 515
Stim. (mA)     	Amp. (mV)
MS.1           	11.5           	7.068
MS.2           	11.5           	7.114
MS.3           	11.5           	7.084
MS.4           	11.5           	7.025
MS.5           	11.5           	7.027
MS.6           	11.5           	7.068
MS.7           	11.5           	7.054
MS.8           	11.5           	7.096
MS.9           	11.5           	7.096
MS.10          	11.5           	7.116
MS.11          	11.5           	7.072
MS.12          	11.5           	7.116
MS.13          	11.5           	7.039
MS.14          	11.5           	7.092
MS.15          	11.5           	7.058
MS.16          	11.5           	7.027
MS.17          	11.5           	7.037
MS.18          	11.5           	7.056
MS.19          	11.5           	6.993
MS.20          	11.5           	7.009
MS.21          	11.5           	6.983
MS.22          	11.5           	7.009
MS.23          	11.5           	7.056
MS.24          	11.455         	6.985
MS.25          	11.43          	7.035
MS.26          	11.407         	7.029
MS.27          	11.385         	6.969
MS.28          	11.363         	7.042
MS.29          	11.34          	6.973
MS.30          	11.318         	7.029
MS.31          	11.295         	7.052
MS.32          	11.273         	7.05
MS.33          	11.25          	7.021
MS.34          	11.227         	7.086
MS.35          	11.205         	7.068
MS.36          	11.182         	7.048
MS.37          	11.16          	7.092
MS.38          	11.137         	7.052
MS.39          	11.115         	7.052
MS.40          	11.092         	7.025
MS.41          	11.07          	7.054
MS.42          	11.05          	7.044
MS.43          	11.028         	7.044
MS.44          	11.005         	7.13
MS.45          	10.983         	7.09
MS.46          	10.96          	7.08
MS.47          	10.94          	7.056
MS.48          	10.917         	7.058
MS.49          	10.895         	7.05
MS.50          	10.872         	7.023
MS.51          	10.852         	7.072
MS.52          	10.83          	7.086
MS.53          	10.807         	7.044
MS.54          	10.787         	7.037
MS.55          	10.765         	7.08
MS.56          	10.745         	7.011
MS.57          	10.722         	7.088
MS.58          	10.7           	7.042
MS.59          	10.68          	7.046
MS.60          	10.657         	7.06
MS.61          	10.637         	7.082
MS.62          	10.615         	7.116
MS.63          	10.595         	7.1
MS.64          	10.573         	7.088
MS.65          	10.552         	7.112
MS.66          	10.53          	7.084
MS.67          	10.51          	7.025
MS.68          	10.49          	7.052
MS.69          	10.467         	7.076
MS.70          	10.448         	7.088
MS.71          	10.427         	7.035
MS.72          	10.405         	7.056
MS.73          	10.385         	7.023
MS.74          	10.365         	6.995
MS.75          	10.342         	7.128
MS.76          	10.323         	7.078
MS.77          	10.302         	7.16
MS.78          	10.282         	7.068
MS.79          	10.26          	7.156
MS.80          	10.24          	7.05
MS.81          	10.22          	7.094
MS.82          	10.2           	7.06
MS.83          	10.18          	7.14
MS.84          	10.16          	7.078
MS.85          	10.137         	7.074
MS.86          	10.117         	7.094
MS.87          	10.097         	7.08
MS.88          	10.077         	7.033
MS.89          	10.057         	7.048
MS.90          	10.037         	7.05
MS.91          	10.017         	6.993
MS.92          	9.997          	7.023
MS.93          	9.977          	7.07
MS.94          	9.957          	7.064
MS.95          	9.938          	7.021
MS.96          	9.917          	6.987
MS.97          	9.898          	7.14
MS.98          	9.877          	7.025
MS.99          	9.858          	7.013
MS.100         	9.84           	6.987
MS.101         	9.82           	6.975
MS.102         	9.8            	6.911
MS.103         	9.78           	7.023
MS.104         	9.76           	6.862
MS.105         	9.74           	6.985
MS.106         	9.722          	6.945
MS.107         	9.702          	6.947
MS.108         	9.682          	6.901
MS.109         	9.662          	6.941
MS.110         	9.645          	6.985
MS.111         	9.625          	6.937
MS.112         	9.605          	6.953
MS.113         	9.587          	6.864
MS.114         	9.568          	6.874
MS.115         	9.547          	6.971
MS.116         	9.53           	6.872
MS.117         	9.51           	6.858
MS.118         	9.49           	6.882
MS.119         	9.472          	6.88
MS.120         	9.452          	6.943
MS.121         	9.435          	6.913
MS.122         	9.415          	6.88
MS.123         	9.398          	6.834
MS.124         	9.377          	6.751
MS.125         	9.36           	6.89
MS.126         	9.34           	6.874
MS.127         	9.323          	6.832
MS.128         	9.302          	6.784
MS.129         	9.285          	6.892
MS.130         	9.265          	6.751
MS.131         	9.247          	6.677
MS.132         	9.23           	6.707
MS.133         	9.21           	6.788
MS.134         	9.193          	6.637
MS.135         	9.172          	6.689
MS.136         	9.155          	6.514
MS.137         	9.137          	6.556
MS.138         	9.12           	6.588
MS.139         	9.1            	6.582
MS.140         	9.082          	6.474
MS.141         	9.065          	6.639
MS.142         	9.045          	6.576
MS.143         	9.028          	6.615
MS.144         	9.01           	6.486
MS.145         	8.992          	6.522
MS.146         	8.975          	6.606
MS.147         	8.955          	6.471
MS.148         	8.938          	6.482
MS.149         	8.92           	6.542
MS.150         	8.903          	6.435
MS.151         	8.885          	6.558
MS.152         	8.867          	6.463
MS.153         	8.85           	6.363
MS.154         	8.832          	6.453
MS.155         	8.815          	6.286
MS.156         	8.797          	6.331
MS.157         	8.78           	6.27
MS.158         	8.762          	6.28
MS.159         	8.745          	6.236
MS.160         	8.727          	6.31
MS.161         	8.71           	6.234
MS.162         	8.693          	6.179
MS.163         	8.675          	6.226
MS.164         	8.658          	6.181
MS.165         	8.64           	6.308
MS.166         	8.622          	6.306
MS.167         	8.605          	6.306
MS.168         	8.587          	6.29
MS.169         	8.57           	6.282
MS.170         	8.552          	6.169
MS.171         	8.537          	6.095
MS.172         	8.52           	6.131
MS.173         	8.502          	6.161
MS.174         	8.485          	6.19
MS.175         	8.467          	6.036
MS.176         	8.452          	6.179
MS.177         	8.435          	6.097
MS.178         	8.417          	6.016
MS.179         	8.4            	5.926
MS.180         	8.385          	5.974
MS.181         	8.367          	6.059
MS.182         	8.35           	5.97
MS.183         	8.335          	5.964
MS.184         	8.318          	5.871
MS.185         	8.3            	5.897
MS.186         	8.285          	5.96
MS.187         	8.267          	5.914
MS.188         	8.25           	5.851
MS.189         	8.235          	5.64
MS.190         	8.217          	5.732
MS.191         	8.202          	5.744
MS.192         	8.185          	5.65
MS.193         	8.17           	5.704
MS.194         	8.153          	5.577
MS.195         	8.137          	5.609
MS.196         	8.12           	5.624
MS.197         	8.105          	5.672
MS.198         	8.087          	5.549
MS.199         	8.073          	5.547
MS.200         	8.055          	5.613
MS.201         	8.04           	5.529
MS.202         	8.023          	5.358
MS.203         	8.007          	5.424
MS.204         	7.99           	5.354
MS.205         	7.975          	5.35
MS.206         	7.96           	5.344
MS.207         	7.942          	5.261
MS.208         	7.927          	5.188
MS.209         	7.912          	5.219
MS.210         	7.895          	5.265
MS.211         	7.88           	5.346
MS.212         	7.865          	5.327
MS.213         	7.847          	5.293
MS.214         	7.832          	5.096
MS.215         	7.817          	5.207
MS.216         	7.802          	5.072
MS.217         	7.785          	5.07
MS.218         	7.77           	5.011
MS.219         	7.755          	5.142
MS.220         	7.74           	4.898
MS.221         	7.725          	5.021
MS.222         	7.707          	4.971
MS.223         	7.692          	4.925
MS.224         	7.677          	4.955
MS.225         	7.662          	4.997
MS.226         	7.648          	4.913
MS.227         	7.632          	4.874
MS.228         	7.617          	4.822
MS.229         	7.602          	4.745
MS.230         	7.587          	4.838
MS.231         	7.57           	4.778
MS.232         	7.555          	4.637
MS.233         	7.54           	4.657
MS.234         	7.525          	4.651
MS.235         	7.51           	4.679
MS.236         	7.495          	4.768
MS.237         	7.48           	4.691
MS.238         	7.465          	4.671
MS.239         	7.45           	4.57
MS.240         	7.435          	4.459
MS.241         	7.42           	4.469
MS.242         	7.407          	4.419
MS.243         	7.392          	4.512
MS.244         	7.378          	4.334
MS.245         	7.362          	4.159
MS.246         	7.347          	4.254
MS.247         	7.332          	4.232
MS.248         	7.317          	4.175
MS.249         	7.302          	4.244
MS.250         	7.29           	4.226
MS.251         	7.275          	4.099
MS.252         	7.26           	4.264
MS.253         	7.245          	3.982
MS.254         	7.23           	4.079
MS.255         	7.217          	4.107
MS.256         	7.202          	4.085
MS.257         	7.188          	3.573
MS.258         	7.172          	3.843
MS.259         	7.16           	3.857
MS.260         	7.145          	3.801
MS.261         	7.13           	3.899
MS.262         	7.115          	3.599
MS.263         	7.102          	3.714
MS.264         	7.087          	3.664
MS.265         	7.072          	3.547
MS.266         	7.06           	3.489
MS.267         	7.045          	3.714
MS.268         	7.03           	3.46
MS.269         	7.017          	3.497
MS.270         	7.003          	3.462
MS.271         	6.99           	3.523
MS.272         	6.975          	3.422
MS.273         	6.96           	3.267
MS.274         	6.947          	3.36
MS.275         	6.932          	3.122
MS.276         	6.92           	3.303
MS.277         	6.905          	3.257
MS.278         	6.892          	3.088
MS.279         	6.878          	3.144
MS.280         	6.865          	3.086
MS.281         	6.85           	3.015
MS.282         	6.837          	2.908
MS.283         	6.822          	3.015
MS.284         	6.81           	2.86
MS.285         	6.795          	2.884
MS.286         	6.782          	2.828
MS.287         	6.77           	2.951
MS.288         	6.755          	2.715
MS.289         	6.742          	2.739
MS.290         	6.727          	2.592
MS.291         	6.715          	2.586
MS.292         	6.702          	2.683
MS.293         	6.688          	2.711
MS.294         	6.675          	2.645
MS.295         	6.662          	2.671
MS.296         	6.648          	2.703
MS.297         	6.635          	2.633
MS.298         	6.622          	2.496
MS.299         	6.608          	2.556
MS.300         	6.595          	2.485
MS.301         	6.582          	2.572
MS.302         	6.57           	2.375
MS.303         	6.555          	2.342
MS.304         	6.543          	2.6
MS.305         	6.53           	2.328
MS.306         	6.517          	2.29
MS.307         	6.503          	2.375
MS.308         	6.49           	2.258
MS.309         	6.477          	2.234
MS.310         	6.465          	2.28
MS.311         	6.452          	1.962
MS.312         	6.44           	2.034
MS.313         	6.425          	2.062
MS.314         	6.412          	1.988
MS.315         	6.4            	2.091
MS.316         	6.387          	1.932
MS.317         	6.375          	1.998
MS.318         	6.362          	1.813
MS.319         	6.35           	1.811
MS.320         	6.338          	1.992
MS.321         	6.325          	1.909
MS.322         	6.312          	1.73
MS.323         	6.297          	1.706
MS.324         	6.285          	1.658
MS.325         	6.273          	1.736
MS.326         	6.26           	1.523
MS.327         	6.247          	1.563
MS.328         	6.235          	1.617
MS.329         	6.222          	1.609
MS.330         	6.21           	1.621
MS.331         	6.197          	1.569
MS.332         	6.188          	1.615
MS.333         	6.175          	1.599
MS.334         	6.162          	1.424
MS.335         	6.15           	1.364
MS.336         	6.137          	1.378
MS.337         	6.125          	1.313
MS.338         	6.112          	1.295
MS.339         	6.1            	1.297
MS.340         	6.088          	1.279
MS.341         	6.075          	1.086
MS.342         	6.065          	1.128
MS.343         	6.052          	1.094
MS.344         	6.04           	1.196
MS.345         	6.027          	1.104
MS.346         	6.015          	0.967
MS.347         	6.003          	0.945
MS.348         	5.992          	0.971
MS.349         	5.98           	0.965
MS.350         	5.967          	0.949
MS.351         	5.955          	0.973
MS.352         	5.945          	0.826
MS.353         	5.932          	0.927
MS.354         	5.92           	0.886
MS.355         	5.907          	0.922
MS.356         	5.898          	0.967
MS.357         	5.885          	0.87
MS.358         	5.872          	0.866
MS.359         	5.86           	0.814
MS.360         	5.85           	0.812
MS.361         	5.838          	0.812
MS.362         	5.825          	0.844
MS.363         	5.815          	0.878
MS.364         	5.802          	0.806
MS.365         	5.79           	0.647
MS.366         	5.78           	0.713
MS.367         	5.767          	0.765
MS.368         	5.757          	0.715
MS.369         	5.745          	0.626
MS.370         	5.733          	0.645
MS.371         	5.722          	0.634
MS.372         	5.71           	0.608
MS.373         	5.7            	0.479
MS.374         	5.688          	0.588
MS.375         	5.677          	0.524
MS.376         	5.665          	0.469
MS.377         	5.655          	0.489
MS.378         	5.642          	0.449
MS.379         	5.632          	0.344
MS.380         	5.62           	0.439
MS.381         	5.61           	0.411
MS.382         	5.597          	0.413
MS.383         	5.588          	0.469
MS.384         	5.575          	0.445
MS.385         	5.565          	0.405
MS.386         	5.552          	0.324
MS.387         	5.543          	0.359
MS.388         	5.53           	0.284
MS.389         	5.52           	0.248
MS.390         	5.51           	0.371
MS.391         	5.497          	0.399
MS.392         	5.487          	0.403
MS.393         	5.475          	0.377
MS.394         	5.465          	0.288
MS.395         	5.455          	0.324
MS.396         	5.443          	0.405
MS.397         	5.432          	0.264
MS.398         	5.422          	0.352
MS.399         	5.41           	0.31
MS.400         	5.4            	0.375
MS.401         	5.39           	0.256
MS.402         	5.378          	0.304
MS.403         	5.367          	0.379
MS.404         	5.358          	0.332
MS.405         	5.345          	0.29
MS.406         	5.335          	0.238
MS.407         	5.325          	0.336
MS.408         	5.315          	0.282
MS.409         	5.302          	0.28
MS.410         	5.293          	0.318
MS.411         	5.282          	0.288
MS.412         	5.273          	0.316
MS.413         	5.26           	0.31
MS.414         	5.25           	0.238
MS.415         	5.24           	0.284
MS.416         	5.23           	0.203
MS.417         	5.22           	0.175
MS.418         	5.21           	0.216
MS.419         	5.197          	0.244
MS.420         	5.188          	0.228
MS.421         	5.177          	0.268
MS.422         	5.168          	0.266
MS.423         	5.157          	0.242
MS.424         	5.148          	0.232
MS.425         	5.137          	0.244
MS.426         	5.125          	0.26
MS.427         	5.115          	0.183
MS.428         	5.105          	0.244
MS.429         	5.095          	0.185
MS.430         	5.085          	0.207
MS.431         	5.075          	0.197
MS.432         	5.065          	0.169
MS.433         	5.055          	0.214
MS.434         	5.045          	0.22
MS.435         	5.035          	0.159
MS.436         	5.025          	0.246
MS.437         	5.015          	0.185
MS.438         	5.005          	0.185
MS.439         	4.995          	0.201
MS.440         	4.985          	0.232
MS.441         	4.975          	0.175
MS.442         	4.965          	0.207
MS.443         	4.955          	0.203
MS.444         	4.945          	0.193
MS.445         	4.935          	0.199
MS.446         	4.925          	0.185
MS.447         	4.915          	0.163
MS.448         	4.905          	0.191
MS.449         	4.895          	0.125
MS.450         	4.885          	0.218
MS.451         	4.875          	0.167
MS.452         	4.867          	0.117
MS.453         	4.858          	0.163
MS.454         	4.847          	0.191
MS.455         	4.838          	0.171
MS.456         	4.827          	0.161
MS.457         	4.818          	0.175
MS.458         	4.807          	0.161
MS.459         	4.797          	0.163
MS.460         	4.79           	0.131
MS.461         	4.78           	0.187
MS.462         	4.77           	0.109
MS.463         	4.76           	0.143
MS.464         	4.75           	0.149
MS.465         	4.742          	0.222
MS.466         	4.733          	0.211
MS.467         	4.722          	0.163
MS.468         	4.713          	0.175
MS.469         	4.702          	0.147
MS.470         	4.695          	0.199
MS.471         	4.685          	0.222
MS.472         	4.675          	0.179
MS.473         	4.665          	0.153
MS.474         	4.657          	0.155
MS.475         	4.648          	0.141
MS.476         	4.637          	0.153
MS.477         	4.63           	0.177
MS.478         	4.62           	0.113
MS.479         	4.61           	0.123
MS.480         	4.602          	0.139
MS.481         	4.592          	0.159
MS.482         	4.582          	0.169
MS.483         	4.575          	0.153
MS.484         	4.565          	0.161
MS.485         	4.555          	0.141
MS.486         	4.548          	0.111
MS.487         	4.537          	0.139
MS.488         	4.527          	0.117
MS.489         	4.52           	0.107
MS.490         	4.51           	0.115
MS.491         	4.5            	0.101
MS.492         	4.492          	0.165
MS.493         	4.483          	0.121
MS.494         	4.475          	0.173
MS.495         	4.465          	0.149
MS.496         	4.457          	0.119
MS.497         	4.447          	0.171
MS.498         	4.438          	0.193
MS.499         	4.43           	0.111
MS.500         	4.42           	0.129
MS.501         	4.412          	0.119
