File:              	C:\Qtrac\Data\Daniel M Sørensen\MScan multicentre study\Data from centres\Odense\Processed data\TKC01021C.QZD
Name:              	DK.ODE.NC.6.2
Protocol:          	MSCAN-R2
Date:              	21/10/20
Start time:        	11:52:52
Age:               	50
Sex:               	F
Temperature:       	31.3
S/R sites:         	TA
NC/disease:        	NC
Operator:          	TK
Comments:
M-SCAN DATA (6.2-0.7m)
Scanpts: 95, 104, 524, 530
Stim. (mA)     	Amp. (mV)
MS.1           	22.5           	4.878
MS.2           	22.5           	4.925
MS.3           	22.5           	4.882
MS.4           	22.5           	4.906
MS.5           	22.5           	4.927
MS.6           	22.5           	4.927
MS.7           	22.5           	4.917
MS.8           	22.5           	4.866
MS.9           	22.5           	4.913
MS.10          	22.5           	4.854
MS.11          	22.5           	4.88
MS.12          	22.5           	4.816
MS.13          	22.5           	4.941
MS.14          	22.5           	4.911
MS.15          	22.5           	4.888
MS.16          	22.5           	4.852
MS.17          	22.5           	4.858
MS.18          	22.5           	4.919
MS.19          	22.5           	4.848
MS.20          	22.5           	4.898
MS.21          	22.5           	4.858
MS.22          	22.5           	4.876
MS.23          	22.5           	4.82
MS.24          	22.41          	4.874
MS.25          	22.365         	4.878
MS.26          	22.32          	4.856
MS.27          	22.275         	4.878
MS.28          	22.233         	4.89
MS.29          	22.188         	4.87
MS.30          	22.142         	4.868
MS.31          	22.097         	4.896
MS.32          	22.055         	4.862
MS.33          	22.01          	4.83
MS.34          	21.967         	4.88
MS.35          	21.922         	4.872
MS.36          	21.877         	4.818
MS.37          	21.835         	4.834
MS.38          	21.792         	4.88
MS.39          	21.747         	4.858
MS.40          	21.705         	4.89
MS.41          	21.66          	4.864
MS.42          	21.618         	4.87
MS.43          	21.575         	4.866
MS.44          	21.532         	4.854
MS.45          	21.487         	4.872
MS.46          	21.445         	4.876
MS.47          	21.403         	4.874
MS.48          	21.36          	4.896
MS.49          	21.317         	4.866
MS.50          	21.275         	4.838
MS.51          	21.233         	4.878
MS.52          	21.19          	4.886
MS.53          	21.147         	4.917
MS.54          	21.105         	4.866
MS.55          	21.062         	4.927
MS.56          	21.02          	4.894
MS.57          	20.98          	4.89
MS.58          	20.938         	4.904
MS.59          	20.895         	4.941
MS.60          	20.852         	4.884
MS.61          	20.812         	4.868
MS.62          	20.77          	4.852
MS.63          	20.727         	4.832
MS.64          	20.688         	4.86
MS.65          	20.645         	4.852
MS.66          	20.605         	4.858
MS.67          	20.562         	4.856
MS.68          	20.522         	4.904
MS.69          	20.483         	4.902
MS.70          	20.44          	4.86
MS.71          	20.4           	4.82
MS.72          	20.36          	4.874
MS.73          	20.317         	4.872
MS.74          	20.278         	4.89
MS.75          	20.237         	4.929
MS.76          	20.198         	4.864
MS.77          	20.155         	4.925
MS.78          	20.115         	4.9
MS.79          	20.075         	4.892
MS.80          	20.035         	4.929
MS.81          	19.995         	4.89
MS.82          	19.955         	4.894
MS.83          	19.915         	4.898
MS.84          	19.875         	4.9
MS.85          	19.837         	4.882
MS.86          	19.797         	4.945
MS.87          	19.757         	4.915
MS.88          	19.717         	4.866
MS.89          	19.677         	4.915
MS.90          	19.64          	4.959
MS.91          	19.6           	4.909
MS.92          	19.56          	4.959
MS.93          	19.522         	4.882
MS.94          	19.483         	4.886
MS.95          	19.442         	4.88
MS.96          	19.405         	4.906
MS.97          	19.365         	4.878
MS.98          	19.327         	4.945
MS.99          	19.288         	4.866
MS.100         	19.25          	4.915
MS.101         	19.212         	4.88
MS.102         	19.172         	4.866
MS.103         	19.135         	4.896
MS.104         	19.097         	4.906
MS.105         	19.057         	4.864
MS.106         	19.02          	4.884
MS.107         	18.983         	4.862
MS.108         	18.945         	4.911
MS.109         	18.907         	4.9
MS.110         	18.87          	4.943
MS.111         	18.83          	4.906
MS.112         	18.792         	4.915
MS.113         	18.755         	4.904
MS.114         	18.717         	4.909
MS.115         	18.68          	4.919
MS.116         	18.645         	4.989
MS.117         	18.608         	4.943
MS.118         	18.57          	4.909
MS.119         	18.532         	4.844
MS.120         	18.495         	4.858
MS.121         	18.458         	4.906
MS.122         	18.422         	4.921
MS.123         	18.385         	4.921
MS.124         	18.347         	4.909
MS.125         	18.31          	4.872
MS.126         	18.275         	4.874
MS.127         	18.237         	4.888
MS.128         	18.202         	4.83
MS.129         	18.165         	4.882
MS.130         	18.13          	4.848
MS.131         	18.092         	4.898
MS.132         	18.057         	4.868
MS.133         	18.02          	4.927
MS.134         	17.985         	4.935
MS.135         	17.948         	4.864
MS.136         	17.913         	4.868
MS.137         	17.878         	4.888
MS.138         	17.84          	4.856
MS.139         	17.805         	4.874
MS.140         	17.77          	4.844
MS.141         	17.735         	4.852
MS.142         	17.7           	4.858
MS.143         	17.663         	4.844
MS.144         	17.628         	4.806
MS.145         	17.592         	4.838
MS.146         	17.557         	4.854
MS.147         	17.522         	4.824
MS.148         	17.487         	4.84
MS.149         	17.452         	4.788
MS.150         	17.417         	4.782
MS.151         	17.382         	4.82
MS.152         	17.347         	4.828
MS.153         	17.315         	4.828
MS.154         	17.28          	4.786
MS.155         	17.245         	4.727
MS.156         	17.21          	4.792
MS.157         	17.175         	4.709
MS.158         	17.142         	4.741
MS.159         	17.108         	4.725
MS.160         	17.073         	4.719
MS.161         	17.04          	4.788
MS.162         	17.005         	4.707
MS.163         	16.97          	4.709
MS.164         	16.938         	4.717
MS.165         	16.903         	4.637
MS.166         	16.87          	4.673
MS.167         	16.835         	4.685
MS.168         	16.802         	4.693
MS.169         	16.767         	4.681
MS.170         	16.735         	4.677
MS.171         	16.702         	4.645
MS.172         	16.667         	4.739
MS.173         	16.635         	4.749
MS.174         	16.602         	4.655
MS.175         	16.567         	4.643
MS.176         	16.535         	4.687
MS.177         	16.503         	4.586
MS.178         	16.47          	4.687
MS.179         	16.438         	4.627
MS.180         	16.405         	4.665
MS.181         	16.37          	4.558
MS.182         	16.337         	4.518
MS.183         	16.305         	4.572
MS.184         	16.272         	4.639
MS.185         	16.24          	4.516
MS.186         	16.208         	4.463
MS.187         	16.175         	4.556
MS.188         	16.142         	4.562
MS.189         	16.11          	4.622
MS.190         	16.08          	4.552
MS.191         	16.047         	4.548
MS.192         	16.015         	4.681
MS.193         	15.983         	4.522
MS.194         	15.95          	4.522
MS.195         	15.92          	4.602
MS.196         	15.887         	4.409
MS.197         	15.855         	4.498
MS.198         	15.822         	4.431
MS.199         	15.792         	4.465
MS.200         	15.76          	4.395
MS.201         	15.73          	4.486
MS.202         	15.697         	4.425
MS.203         	15.667         	4.395
MS.204         	15.635         	4.33
MS.205         	15.602         	4.286
MS.206         	15.572         	4.516
MS.207         	15.542         	4.409
MS.208         	15.51          	4.421
MS.209         	15.48          	4.423
MS.210         	15.447         	4.316
MS.211         	15.417         	4.363
MS.212         	15.387         	4.33
MS.213         	15.355         	4.3
MS.214         	15.325         	4.308
MS.215         	15.295         	4.29
MS.216         	15.265         	4.242
MS.217         	15.233         	4.232
MS.218         	15.202         	4.202
MS.219         	15.172         	4.198
MS.220         	15.142         	4.381
MS.221         	15.112         	4.212
MS.222         	15.082         	4.214
MS.223         	15.052         	4.119
MS.224         	15.023         	4.284
MS.225         	14.992         	4.191
MS.226         	14.962         	4.117
MS.227         	14.932         	4.175
MS.228         	14.902         	4.091
MS.229         	14.872         	4.101
MS.230         	14.842         	4.079
MS.231         	14.812         	4.163
MS.232         	14.782         	3.998
MS.233         	14.755         	4.109
MS.234         	14.725         	4.119
MS.235         	14.695         	4.073
MS.236         	14.665         	4
MS.237         	14.637         	3.972
MS.238         	14.608         	3.968
MS.239         	14.577         	4.044
MS.240         	14.55          	3.905
MS.241         	14.52          	3.972
MS.242         	14.49          	3.984
MS.243         	14.462         	3.903
MS.244         	14.432         	3.96
MS.245         	14.405         	3.92
MS.246         	14.375         	3.926
MS.247         	14.347         	3.835
MS.248         	14.318         	3.795
MS.249         	14.29          	3.936
MS.250         	14.26          	3.827
MS.251         	14.233         	3.853
MS.252         	14.205         	3.734
MS.253         	14.175         	3.837
MS.254         	14.148         	3.897
MS.255         	14.12          	3.837
MS.256         	14.09          	3.823
MS.257         	14.062         	3.698
MS.258         	14.035         	3.889
MS.259         	14.007         	3.787
MS.260         	13.977         	3.698
MS.261         	13.95          	3.698
MS.262         	13.922         	3.736
MS.263         	13.895         	3.781
MS.264         	13.867         	3.698
MS.265         	13.84          	3.748
MS.266         	13.812         	3.595
MS.267         	13.785         	3.68
MS.268         	13.757         	3.547
MS.269         	13.73          	3.597
MS.270         	13.702         	3.487
MS.271         	13.675         	3.571
MS.272         	13.648         	3.575
MS.273         	13.62          	3.577
MS.274         	13.592         	3.456
MS.275         	13.565         	3.464
MS.276         	13.537         	3.575
MS.277         	13.51          	3.472
MS.278         	13.485         	3.358
MS.279         	13.457         	3.513
MS.280         	13.43          	3.47
MS.281         	13.403         	3.575
MS.282         	13.377         	3.325
MS.283         	13.35          	3.364
MS.284         	13.322         	3.344
MS.285         	13.297         	3.42
MS.286         	13.27          	3.311
MS.287         	13.242         	3.35
MS.288         	13.217         	3.331
MS.289         	13.19          	3.319
MS.290         	13.165         	3.188
MS.291         	13.137         	3.287
MS.292         	13.112         	3.211
MS.293         	13.085         	3.18
MS.294         	13.06          	3.116
MS.295         	13.032         	3.174
MS.296         	13.007         	3.055
MS.297         	12.983         	3.031
MS.298         	12.955         	3.144
MS.299         	12.93          	2.995
MS.300         	12.903         	3.136
MS.301         	12.877         	3.07
MS.302         	12.852         	2.961
MS.303         	12.827         	3.035
MS.304         	12.8           	2.997
MS.305         	12.775         	2.925
MS.306         	12.75          	2.935
MS.307         	12.725         	2.898
MS.308         	12.7           	2.852
MS.309         	12.672         	2.8
MS.310         	12.648         	2.852
MS.311         	12.622         	2.808
MS.312         	12.597         	2.757
MS.313         	12.572         	2.782
MS.314         	12.547         	2.84
MS.315         	12.523         	2.669
MS.316         	12.497         	2.711
MS.317         	12.472         	2.663
MS.318         	12.447         	2.649
MS.319         	12.422         	2.651
MS.320         	12.398         	2.576
MS.321         	12.372         	2.641
MS.322         	12.347         	2.719
MS.323         	12.322         	2.594
MS.324         	12.3           	2.562
MS.325         	12.275         	2.437
MS.326         	12.25          	2.568
MS.327         	12.225         	2.558
MS.328         	12.2           	2.451
MS.329         	12.177         	2.546
MS.330         	12.153         	2.449
MS.331         	12.127         	2.498
MS.332         	12.102         	2.383
MS.333         	12.08          	2.483
MS.334         	12.055         	2.481
MS.335         	12.032         	2.26
MS.336         	12.007         	2.29
MS.337         	11.983         	2.359
MS.338         	11.96          	2.23
MS.339         	11.935         	2.294
MS.340         	11.912         	2.353
MS.341         	11.887         	2.302
MS.342         	11.865         	2.222
MS.343         	11.84          	2.125
MS.344         	11.818         	2.234
MS.345         	11.792         	2.113
MS.346         	11.77          	2.165
MS.347         	11.745         	2.139
MS.348         	11.722         	2.185
MS.349         	11.7           	2.062
MS.350         	11.675         	1.93
MS.351         	11.653         	1.887
MS.352         	11.63          	1.928
MS.353         	11.605         	1.837
MS.354         	11.582         	1.809
MS.355         	11.56          	1.972
MS.356         	11.537         	1.859
MS.357         	11.512         	1.744
MS.358         	11.49          	1.772
MS.359         	11.467         	1.696
MS.360         	11.445         	1.785
MS.361         	11.422         	1.591
MS.362         	11.4           	1.656
MS.363         	11.375         	1.505
MS.364         	11.352         	1.684
MS.365         	11.33          	1.517
MS.366         	11.307         	1.47
MS.367         	11.285         	1.539
MS.368         	11.262         	1.472
MS.369         	11.24          	1.444
MS.370         	11.217         	1.533
MS.371         	11.195         	1.448
MS.372         	11.172         	1.438
MS.373         	11.15          	1.404
MS.374         	11.127         	1.287
MS.375         	11.108         	1.343
MS.376         	11.085         	1.307
MS.377         	11.062         	1.466
MS.378         	11.04          	1.333
MS.379         	11.017         	1.17
MS.380         	10.995         	1.233
MS.381         	10.975         	1.223
MS.382         	10.952         	1.182
MS.383         	10.93          	1.132
MS.384         	10.907         	1.146
MS.385         	10.887         	1.082
MS.386         	10.865         	1.065
MS.387         	10.842         	1.118
MS.388         	10.82          	1.051
MS.389         	10.8           	1.007
MS.390         	10.778         	1.059
MS.391         	10.757         	1.061
MS.392         	10.735         	0.989
MS.393         	10.712         	0.977
MS.394         	10.693         	1.005
MS.395         	10.67          	0.951
MS.396         	10.65          	0.918
MS.397         	10.627         	0.979
MS.398         	10.608         	0.937
MS.399         	10.585         	0.832
MS.400         	10.565         	0.872
MS.401         	10.542         	0.83
MS.402         	10.523         	0.918
MS.403         	10.502         	0.804
MS.404         	10.48          	0.83
MS.405         	10.46          	0.854
MS.406         	10.438         	0.876
MS.407         	10.417         	0.85
MS.408         	10.398         	0.771
MS.409         	10.375         	0.836
MS.410         	10.355         	0.743
MS.411         	10.335         	0.792
MS.412         	10.315         	0.709
MS.413         	10.292         	0.657
MS.414         	10.273         	0.697
MS.415         	10.252         	0.628
MS.416         	10.233         	0.713
MS.417         	10.212         	0.681
MS.418         	10.19          	0.695
MS.419         	10.17          	0.636
MS.420         	10.15          	0.626
MS.421         	10.13          	0.651
MS.422         	10.11          	0.685
MS.423         	10.09          	0.566
MS.424         	10.07          	0.624
MS.425         	10.05          	0.554
MS.426         	10.03          	0.522
MS.427         	10.01          	0.59
MS.428         	9.99           	0.514
MS.429         	9.97           	0.526
MS.430         	9.95           	0.53
MS.431         	9.93           	0.491
MS.432         	9.91           	0.542
MS.433         	9.89           	0.495
MS.434         	9.87           	0.504
MS.435         	9.85           	0.546
MS.436         	9.83           	0.465
MS.437         	9.81           	0.431
MS.438         	9.792          	0.491
MS.439         	9.773          	0.407
MS.440         	9.752          	0.377
MS.441         	9.733          	0.425
MS.442         	9.712          	0.421
MS.443         	9.695          	0.385
MS.444         	9.675          	0.405
MS.445         	9.655          	0.379
MS.446         	9.635          	0.423
MS.447         	9.617          	0.346
MS.448         	9.597          	0.357
MS.449         	9.577          	0.272
MS.450         	9.56           	0.373
MS.451         	9.54           	0.348
MS.452         	9.52           	0.32
MS.453         	9.502          	0.292
MS.454         	9.483          	0.314
MS.455         	9.465          	0.348
MS.456         	9.445          	0.24
MS.457         	9.427          	0.278
MS.458         	9.407          	0.266
MS.459         	9.387          	0.211
MS.460         	9.37           	0.3
MS.461         	9.352          	0.29
MS.462         	9.332          	0.268
MS.463         	9.315          	0.189
MS.464         	9.295          	0.211
MS.465         	9.278          	0.159
MS.466         	9.257          	0.22
MS.467         	9.24           	0.181
MS.468         	9.222          	0.218
MS.469         	9.202          	0.207
MS.470         	9.185          	0.201
MS.471         	9.165          	0.137
MS.472         	9.148          	0.173
MS.473         	9.13           	0.137
MS.474         	9.113          	0.181
MS.475         	9.092          	0.163
MS.476         	9.075          	0.211
MS.477         	9.057          	0.135
MS.478         	9.037          	0.169
MS.479         	9.02           	0.141
MS.480         	9.002          	0.151
MS.481         	8.985          	0.133
MS.482         	8.967          	0.193
MS.483         	8.948          	0.151
MS.484         	8.93           	0.163
MS.485         	8.912          	0.145
MS.486         	8.895          	0.169
MS.487         	8.877          	0.109
MS.488         	8.86           	0.097
MS.489         	8.842          	0.133
MS.490         	8.825          	0.117
MS.491         	8.807          	0.125
MS.492         	8.79           	0.109
MS.493         	8.773          	0.095
MS.494         	8.755          	0.111
MS.495         	8.738          	0.085
MS.496         	8.72           	0.081
MS.497         	8.702          	0.109
MS.498         	8.685          	0.111
MS.499         	8.667          	0.052
MS.500         	8.65           	0.131
MS.501         	8.632          	0.105
