File:              	C:\Qtrac\Data\Daniel M Sørensen\MScan multicentre study\Data from centres\Aarhus\Processed data\DMSB91218C.QZD
Name:              	DK.AAR.NC.9.2
Protocol:          	MSCAN-R2
Date:              	18/12/19
Start time:        	09:37:13
Age:               	74
Sex:               	m
Temperature:       	35,2
S/R sites:         	TA
NC/disease:        	Control
Operator:          	DS
Comments:
M-SCAN DATA (10.5-1.8m)
Scanpts: 6, 21, 887, 909
Stim. (mA)     	Amp. (mV)
MS.1           	28             	4.826
MS.2           	28             	4.834
MS.3           	28             	4.824
MS.4           	28             	4.788
MS.5           	28             	4.776
MS.6           	28             	4.77
MS.7           	28             	4.776
MS.8           	28             	4.766
MS.9           	28             	4.774
MS.10          	28             	4.766
MS.11          	28             	4.78
MS.12          	28             	4.768
MS.13          	28             	4.77
MS.14          	28             	4.759
MS.15          	28             	4.761
MS.16          	28             	4.77
MS.17          	28             	4.77
MS.18          	28             	4.768
MS.19          	28             	4.768
MS.20          	28             	4.766
MS.21          	28             	4.759
MS.22          	28             	4.772
MS.23          	28             	4.79
MS.24          	27.887         	4.747
MS.25          	27.832         	4.747
MS.26          	27.778         	4.743
MS.27          	27.722         	4.723
MS.28          	27.665         	4.741
MS.29          	27.61          	4.749
MS.30          	27.555         	4.766
MS.31          	27.5           	4.757
MS.32          	27.445         	4.751
MS.33          	27.39          	4.759
MS.34          	27.335         	4.755
MS.35          	27.282         	4.749
MS.36          	27.227         	4.772
MS.37          	27.172         	4.763
MS.38          	27.118         	4.757
MS.39          	27.065         	4.757
MS.40          	27.01          	4.768
MS.41          	26.955         	4.749
MS.42          	26.903         	4.755
MS.43          	26.847         	4.759
MS.44          	26.795         	4.753
MS.45          	26.74          	4.751
MS.46          	26.688         	4.743
MS.47          	26.635         	4.759
MS.48          	26.58          	4.747
MS.49          	26.528         	4.719
MS.50          	26.475         	4.745
MS.51          	26.422         	4.711
MS.52          	26.37          	4.741
MS.53          	26.317         	4.743
MS.54          	26.265         	4.717
MS.55          	26.212         	4.745
MS.56          	26.16          	4.701
MS.57          	26.108         	4.709
MS.58          	26.055         	4.731
MS.59          	26.002         	4.717
MS.60          	25.95          	4.707
MS.61          	25.9           	4.691
MS.62          	25.847         	4.723
MS.63          	25.795         	4.719
MS.64          	25.745         	4.705
MS.65          	25.692         	4.725
MS.66          	25.64          	4.701
MS.67          	25.59          	4.721
MS.68          	25.54          	4.719
MS.69          	25.487         	4.717
MS.70          	25.438         	4.733
MS.71          	25.385         	4.719
MS.72          	25.335         	4.693
MS.73          	25.285         	4.697
MS.74          	25.235         	4.713
MS.75          	25.185         	4.695
MS.76          	25.132         	4.679
MS.77          	25.082         	4.715
MS.78          	25.032         	4.711
MS.79          	24.983         	4.709
MS.80          	24.932         	4.685
MS.81          	24.882         	4.715
MS.82          	24.832         	4.687
MS.83          	24.785         	4.725
MS.84          	24.735         	4.709
MS.85          	24.685         	4.691
MS.86          	24.635         	4.681
MS.87          	24.587         	4.699
MS.88          	24.538         	4.691
MS.89          	24.487         	4.701
MS.90          	24.44          	4.739
MS.91          	24.39          	4.673
MS.92          	24.342         	4.703
MS.93          	24.292         	4.697
MS.94          	24.245         	4.715
MS.95          	24.198         	4.699
MS.96          	24.147         	4.701
MS.97          	24.1           	4.667
MS.98          	24.052         	4.792
MS.99          	24.002         	4.723
MS.100         	23.955         	4.763
MS.101         	23.907         	4.681
MS.102         	23.86          	4.677
MS.103         	23.812         	4.749
MS.104         	23.765         	4.778
MS.105         	23.717         	4.743
MS.106         	23.67          	4.745
MS.107         	23.622         	4.743
MS.108         	23.575         	4.757
MS.109         	23.528         	4.671
MS.110         	23.48          	4.733
MS.111         	23.435         	4.747
MS.112         	23.387         	4.743
MS.113         	23.34          	4.745
MS.114         	23.295         	4.751
MS.115         	23.247         	4.733
MS.116         	23.2           	4.715
MS.117         	23.155         	4.749
MS.118         	23.108         	4.737
MS.119         	23.062         	4.735
MS.120         	23.017         	4.723
MS.121         	22.97          	4.723
MS.122         	22.925         	4.725
MS.123         	22.877         	4.701
MS.124         	22.832         	4.717
MS.125         	22.788         	4.665
MS.126         	22.743         	4.717
MS.127         	22.698         	4.705
MS.128         	22.65          	4.705
MS.129         	22.605         	4.673
MS.130         	22.56          	4.693
MS.131         	22.515         	4.723
MS.132         	22.47          	4.659
MS.133         	22.425         	4.653
MS.134         	22.38          	4.598
MS.135         	22.335         	4.685
MS.136         	22.292         	4.673
MS.137         	22.247         	4.669
MS.138         	22.202         	4.671
MS.139         	22.157         	4.635
MS.140         	22.115         	4.679
MS.141         	22.07          	4.633
MS.142         	22.025         	4.622
MS.143         	21.983         	4.661
MS.144         	21.938         	4.659
MS.145         	21.892         	4.635
MS.146         	21.85          	4.643
MS.147         	21.807         	4.661
MS.148         	21.762         	4.639
MS.149         	21.72          	4.653
MS.150         	21.675         	4.622
MS.151         	21.632         	4.647
MS.152         	21.59          	4.622
MS.153         	21.545         	4.604
MS.154         	21.502         	4.606
MS.155         	21.46          	4.61
MS.156         	21.417         	4.629
MS.157         	21.375         	4.588
MS.158         	21.333         	4.61
MS.159         	21.29          	4.637
MS.160         	21.247         	4.594
MS.161         	21.205         	4.566
MS.162         	21.163         	4.62
MS.163         	21.12          	4.572
MS.164         	21.077         	4.604
MS.165         	21.035         	4.618
MS.166         	20.993         	4.6
MS.167         	20.952         	4.592
MS.168         	20.91          	4.558
MS.169         	20.868         	4.566
MS.170         	20.825         	4.594
MS.171         	20.785         	4.6
MS.172         	20.743         	4.572
MS.173         	20.702         	4.562
MS.174         	20.66          	4.548
MS.175         	20.62          	4.59
MS.176         	20.577         	4.512
MS.177         	20.538         	4.534
MS.178         	20.495         	4.558
MS.179         	20.455         	4.528
MS.180         	20.413         	4.558
MS.181         	20.372         	4.516
MS.182         	20.333         	4.484
MS.183         	20.292         	4.538
MS.184         	20.25          	4.482
MS.185         	20.21          	4.53
MS.186         	20.17          	4.492
MS.187         	20.13          	4.562
MS.188         	20.09          	4.53
MS.189         	20.05          	4.528
MS.190         	20.01          	4.488
MS.191         	19.97          	4.486
MS.192         	19.93          	4.496
MS.193         	19.89          	4.524
MS.194         	19.85          	4.463
MS.195         	19.81          	4.512
MS.196         	19.77          	4.494
MS.197         	19.73          	4.498
MS.198         	19.692         	4.502
MS.199         	19.653         	4.479
MS.200         	19.612         	4.477
MS.201         	19.575         	4.473
MS.202         	19.535         	4.455
MS.203         	19.495         	4.471
MS.204         	19.458         	4.465
MS.205         	19.417         	4.451
MS.206         	19.38          	4.431
MS.207         	19.34          	4.421
MS.208         	19.302         	4.445
MS.209         	19.262         	4.421
MS.210         	19.225         	4.453
MS.211         	19.188         	4.423
MS.212         	19.147         	4.413
MS.213         	19.11          	4.445
MS.214         	19.073         	4.473
MS.215         	19.032         	4.457
MS.216         	18.995         	4.459
MS.217         	18.958         	4.435
MS.218         	18.92          	4.435
MS.219         	18.882         	4.439
MS.220         	18.845         	4.419
MS.221         	18.807         	4.473
MS.222         	18.77          	4.465
MS.223         	18.733         	4.441
MS.224         	18.695         	4.385
MS.225         	18.657         	4.467
MS.226         	18.62          	4.391
MS.227         	18.583         	4.363
MS.228         	18.545         	4.389
MS.229         	18.507         	4.473
MS.230         	18.47          	4.393
MS.231         	18.435         	4.365
MS.232         	18.397         	4.397
MS.233         	18.36          	4.405
MS.234         	18.325         	4.385
MS.235         	18.288         	4.381
MS.236         	18.25          	4.415
MS.237         	18.215         	4.453
MS.238         	18.177         	4.421
MS.239         	18.142         	4.425
MS.240         	18.105         	4.328
MS.241         	18.07          	4.318
MS.242         	18.032         	4.349
MS.243         	17.997         	4.367
MS.244         	17.96          	4.437
MS.245         	17.925         	4.379
MS.246         	17.89          	4.399
MS.247         	17.852         	4.391
MS.248         	17.817         	4.411
MS.249         	17.782         	4.334
MS.250         	17.747         	4.409
MS.251         	17.712         	4.3
MS.252         	17.675         	4.351
MS.253         	17.64          	4.306
MS.254         	17.605         	4.365
MS.255         	17.57          	4.25
MS.256         	17.535         	4.274
MS.257         	17.5           	4.365
MS.258         	17.465         	4.326
MS.259         	17.43          	4.31
MS.260         	17.395         	4.304
MS.261         	17.36          	4.264
MS.262         	17.325         	4.28
MS.263         	17.292         	4.23
MS.264         	17.257         	4.29
MS.265         	17.222         	4.236
MS.266         	17.188         	4.21
MS.267         	17.153         	4.195
MS.268         	17.12          	4.185
MS.269         	17.085         	4.198
MS.270         	17.05          	4.216
MS.271         	17.017         	4.195
MS.272         	16.983         	4.083
MS.273         	16.95          	4.119
MS.274         	16.915         	4.202
MS.275         	16.88          	4.23
MS.276         	16.847         	4.105
MS.277         	16.815         	4.173
MS.278         	16.78          	4.159
MS.279         	16.747         	4.179
MS.280         	16.712         	4.063
MS.281         	16.68          	4.135
MS.282         	16.647         	4.145
MS.283         	16.612         	4.055
MS.284         	16.58          	4.151
MS.285         	16.547         	4.063
MS.286         	16.515         	4.05
MS.287         	16.48          	4.018
MS.288         	16.448         	3.99
MS.289         	16.415         	4.014
MS.290         	16.382         	4.04
MS.291         	16.35          	4.024
MS.292         	16.317         	3.982
MS.293         	16.285         	4.014
MS.294         	16.253         	4.01
MS.295         	16.22          	4.03
MS.296         	16.188         	4.012
MS.297         	16.155         	3.95
MS.298         	16.122         	3.972
MS.299         	16.09          	3.998
MS.300         	16.057         	4.012
MS.301         	16.025         	3.924
MS.302         	15.995         	3.956
MS.303         	15.962         	3.938
MS.304         	15.93          	3.958
MS.305         	15.898         	3.966
MS.306         	15.867         	3.924
MS.307         	15.835         	3.926
MS.308         	15.802         	4.046
MS.309         	15.773         	4.004
MS.310         	15.74          	4
MS.311         	15.707         	3.966
MS.312         	15.677         	3.994
MS.313         	15.645         	3.958
MS.314         	15.615         	3.962
MS.315         	15.582         	3.901
MS.316         	15.552         	3.914
MS.317         	15.52          	3.956
MS.318         	15.49          	3.843
MS.319         	15.46          	3.893
MS.320         	15.427         	3.734
MS.321         	15.398         	3.775
MS.322         	15.367         	3.851
MS.323         	15.335         	3.781
MS.324         	15.305         	3.75
MS.325         	15.275         	3.748
MS.326         	15.245         	3.756
MS.327         	15.215         	3.704
MS.328         	15.182         	3.676
MS.329         	15.152         	3.726
MS.330         	15.122         	3.688
MS.331         	15.092         	3.785
MS.332         	15.062         	3.72
MS.333         	15.032         	3.652
MS.334         	15.002         	3.682
MS.335         	14.972         	3.712
MS.336         	14.943         	3.69
MS.337         	14.912         	3.758
MS.338         	14.882         	3.621
MS.339         	14.852         	3.7
MS.340         	14.822         	3.529
MS.341         	14.792         	3.607
MS.342         	14.765         	3.563
MS.343         	14.735         	3.569
MS.344         	14.705         	3.563
MS.345         	14.675         	3.652
MS.346         	14.648         	3.533
MS.347         	14.617         	3.587
MS.348         	14.587         	3.634
MS.349         	14.56          	3.678
MS.350         	14.53          	3.462
MS.351         	14.5           	3.464
MS.352         	14.472         	3.513
MS.353         	14.443         	3.531
MS.354         	14.415         	3.499
MS.355         	14.385         	3.472
MS.356         	14.358         	3.503
MS.357         	14.327         	3.497
MS.358         	14.3           	3.436
MS.359         	14.27          	3.501
MS.360         	14.242         	3.474
MS.361         	14.212         	3.422
MS.362         	14.185         	3.531
MS.363         	14.157         	3.507
MS.364         	14.127         	3.474
MS.365         	14.1           	3.418
MS.366         	14.072         	3.394
MS.367         	14.045         	3.48
MS.368         	14.015         	3.484
MS.369         	13.987         	3.48
MS.370         	13.96          	3.446
MS.371         	13.932         	3.38
MS.372         	13.905         	3.436
MS.373         	13.877         	3.452
MS.374         	13.85          	3.436
MS.375         	13.82          	3.271
MS.376         	13.792         	3.4
MS.377         	13.765         	3.517
MS.378         	13.737         	3.396
MS.379         	13.71          	3.414
MS.380         	13.682         	3.356
MS.381         	13.657         	3.487
MS.382         	13.63          	3.267
MS.383         	13.602         	3.253
MS.384         	13.575         	3.424
MS.385         	13.547         	3.47
MS.386         	13.52          	3.426
MS.387         	13.492         	3.273
MS.388         	13.467         	3.174
MS.389         	13.44          	3.15
MS.390         	13.412         	3.178
MS.391         	13.385         	3.16
MS.392         	13.36          	3.339
MS.393         	13.332         	3.271
MS.394         	13.305         	3.14
MS.395         	13.28          	3.019
MS.396         	13.252         	3.08
MS.397         	13.225         	3.057
MS.398         	13.2           	3.126
MS.399         	13.172         	3.037
MS.400         	13.148         	3.1
MS.401         	13.12          	3.12
MS.402         	13.095         	3.138
MS.403         	13.068         	2.921
MS.404         	13.042         	3.005
MS.405         	13.017         	2.904
MS.406         	12.99          	2.995
MS.407         	12.965         	2.85
MS.408         	12.938         	2.975
MS.409         	12.912         	2.91
MS.410         	12.887         	2.868
MS.411         	12.86          	2.919
MS.412         	12.835         	2.979
MS.413         	12.81          	2.957
MS.414         	12.785         	2.858
MS.415         	12.757         	2.818
MS.416         	12.733         	2.898
MS.417         	12.707         	2.8
MS.418         	12.682         	2.836
MS.419         	12.657         	2.868
MS.420         	12.632         	2.798
MS.421         	12.608         	2.8
MS.422         	12.58          	2.854
MS.423         	12.555         	2.872
MS.424         	12.53          	2.741
MS.425         	12.505         	2.626
MS.426         	12.48          	2.558
MS.427         	12.455         	2.753
MS.428         	12.43          	2.814
MS.429         	12.405         	2.717
MS.430         	12.382         	2.727
MS.431         	12.358         	2.814
MS.432         	12.332         	2.753
MS.433         	12.307         	2.751
MS.434         	12.282         	2.776
MS.435         	12.257         	2.782
MS.436         	12.235         	2.85
MS.437         	12.21          	2.6
MS.438         	12.185         	2.608
MS.439         	12.16          	2.701
MS.440         	12.137         	2.628
MS.441         	12.113         	2.612
MS.442         	12.087         	2.784
MS.443         	12.062         	2.574
MS.444         	12.04          	2.538
MS.445         	12.015         	2.526
MS.446         	11.992         	2.55
MS.447         	11.967         	2.701
MS.448         	11.943         	2.574
MS.449         	11.92          	2.421
MS.450         	11.895         	2.57
MS.451         	11.872         	2.471
MS.452         	11.847         	2.506
MS.453         	11.825         	2.391
MS.454         	11.8           	2.425
MS.455         	11.778         	2.405
MS.456         	11.755         	2.445
MS.457         	11.73          	2.377
MS.458         	11.707         	2.393
MS.459         	11.685         	2.33
MS.460         	11.66          	2.357
MS.461         	11.637         	2.264
MS.462         	11.615         	2.326
MS.463         	11.59          	2.254
MS.464         	11.568         	2.244
MS.465         	11.545         	2.161
MS.466         	11.523         	2.224
MS.467         	11.497         	2.29
MS.468         	11.475         	2.214
MS.469         	11.452         	2.258
MS.470         	11.43          	2.179
MS.471         	11.407         	2.161
MS.472         	11.385         	2.203
MS.473         	11.36          	2.167
MS.474         	11.337         	2.23
MS.475         	11.315         	2.167
MS.476         	11.292         	2.081
MS.477         	11.27          	2.125
MS.478         	11.247         	2.187
MS.479         	11.225         	2.137
MS.480         	11.202         	2.071
MS.481         	11.18          	2.121
MS.482         	11.157         	2.151
MS.483         	11.135         	2.111
MS.484         	11.115         	2.121
MS.485         	11.092         	2.111
MS.486         	11.07          	2.097
MS.487         	11.047         	2.089
MS.488         	11.025         	2.079
MS.489         	11.002         	2.075
MS.490         	10.983         	2.083
MS.491         	10.96          	2.087
MS.492         	10.938         	1.996
MS.493         	10.915         	2.036
MS.494         	10.895         	2.022
MS.495         	10.872         	1.978
MS.496         	10.85          	2.03
MS.497         	10.827         	2.018
MS.498         	10.807         	2.02
MS.499         	10.785         	1.968
MS.500         	10.765         	1.853
MS.501         	10.742         	1.885
