File:              	C:\Qtrac\Data\Daniel M Sørensen\MScan multicentre study\Data from centres\Aarhus\Processed data\DMSB91206B.QZD
Name:              	DK.AAR.NC.9.1
Protocol:          	MSCAN-R2
Date:              	6/12/19
Start time:        	10:21:43
Age:               	74
Sex:               	m
Temperature:       	32,5
S/R sites:         	ADM
NC/disease:        	Control
Operator:          	DS
Comments:
M-SCAN DATA (9.2-2m)
Scanpts: 59, 68, 538, 573
Stim. (mA)     	Amp. (mV)
MS.1           	26.5           	9.881
MS.2           	26.5           	9.853
MS.3           	26.5           	9.841
MS.4           	26.5           	9.795
MS.5           	26.5           	9.807
MS.6           	26.5           	9.825
MS.7           	26.5           	9.853
MS.8           	26.5           	9.845
MS.9           	26.5           	9.839
MS.10          	26.5           	9.839
MS.11          	26.5           	9.855
MS.12          	26.5           	9.877
MS.13          	26.5           	9.841
MS.14          	26.5           	9.807
MS.15          	26.5           	9.795
MS.16          	26.5           	9.781
MS.17          	26.5           	9.835
MS.18          	26.5           	9.771
MS.19          	26.5           	9.797
MS.20          	26.5           	9.815
MS.21          	26.5           	9.773
MS.22          	26.5           	9.811
MS.23          	26.5           	9.847
MS.24          	26.395         	9.789
MS.25          	26.342         	9.815
MS.26          	26.287         	9.801
MS.27          	26.235         	9.781
MS.28          	26.185         	9.805
MS.29          	26.132         	9.833
MS.30          	26.08          	9.761
MS.31          	26.028         	9.809
MS.32          	25.975         	9.753
MS.33          	25.922         	9.785
MS.34          	25.872         	9.823
MS.35          	25.82          	9.755
MS.36          	25.767         	9.749
MS.37          	25.717         	9.759
MS.38          	25.665         	9.765
MS.39          	25.615         	9.821
MS.40          	25.562         	9.759
MS.41          	25.512         	9.757
MS.42          	25.46          	9.781
MS.43          	25.41          	9.773
MS.44          	25.36          	9.785
MS.45          	25.307         	9.767
MS.46          	25.257         	9.793
MS.47          	25.207         	9.805
MS.48          	25.157         	9.855
MS.49          	25.108         	9.763
MS.50          	25.057         	9.789
MS.51          	25.007         	9.815
MS.52          	24.957         	9.855
MS.53          	24.907         	9.855
MS.54          	24.858         	9.851
MS.55          	24.807         	9.785
MS.56          	24.757         	9.785
MS.57          	24.707         	9.879
MS.58          	24.66          	9.853
MS.59          	24.61          	9.888
MS.60          	24.56          	9.867
MS.61          	24.512         	9.829
MS.62          	24.462         	9.817
MS.63          	24.413         	9.827
MS.64          	24.365         	9.835
MS.65          	24.315         	9.89
MS.66          	24.267         	9.853
MS.67          	24.22          	9.869
MS.68          	24.17          	9.839
MS.69          	24.122         	9.869
MS.70          	24.075         	9.829
MS.71          	24.025         	9.91
MS.72          	23.977         	9.845
MS.73          	23.93          	9.888
MS.74          	23.882         	9.799
MS.75          	23.835         	9.855
MS.76          	23.788         	9.799
MS.77          	23.74          	9.837
MS.78          	23.692         	9.831
MS.79          	23.645         	9.825
MS.80          	23.597         	9.835
MS.81          	23.55          	9.833
MS.82          	23.502         	9.791
MS.83          	23.457         	9.849
MS.84          	23.41          	9.833
MS.85          	23.362         	9.807
MS.86          	23.315         	9.789
MS.87          	23.27          	9.843
MS.88          	23.222         	9.821
MS.89          	23.177         	9.787
MS.90          	23.13          	9.783
MS.91          	23.085         	9.779
MS.92          	23.038         	9.769
MS.93          	22.993         	9.821
MS.94          	22.945         	9.799
MS.95          	22.9           	9.775
MS.96          	22.855         	9.809
MS.97          	22.807         	9.755
MS.98          	22.762         	9.781
MS.99          	22.717         	9.771
MS.100         	22.672         	9.771
MS.101         	22.627         	9.74
MS.102         	22.582         	9.775
MS.103         	22.538         	9.747
MS.104         	22.493         	9.749
MS.105         	22.448         	9.755
MS.106         	22.403         	9.771
MS.107         	22.358         	9.769
MS.108         	22.312         	9.749
MS.109         	22.267         	9.734
MS.110         	22.222         	9.736
MS.111         	22.18          	9.71
MS.112         	22.135         	9.755
MS.113         	22.09          	9.738
MS.114         	22.045         	9.72
MS.115         	22.002         	9.718
MS.116         	21.958         	9.761
MS.117         	21.915         	9.767
MS.118         	21.87          	9.692
MS.119         	21.827         	9.704
MS.120         	21.782         	9.757
MS.121         	21.74          	9.736
MS.122         	21.698         	9.726
MS.123         	21.653         	9.72
MS.124         	21.61          	9.714
MS.125         	21.567         	9.726
MS.126         	21.522         	9.71
MS.127         	21.48          	9.72
MS.128         	21.438         	9.71
MS.129         	21.395         	9.716
MS.130         	21.352         	9.71
MS.131         	21.31          	9.686
MS.132         	21.267         	9.692
MS.133         	21.225         	9.67
MS.134         	21.182         	9.706
MS.135         	21.14          	9.694
MS.136         	21.097         	9.666
MS.137         	21.055         	9.688
MS.138         	21.012         	9.708
MS.139         	20.97          	9.672
MS.140         	20.93          	9.69
MS.141         	20.887         	9.688
MS.142         	20.845         	9.634
MS.143         	20.805         	9.672
MS.144         	20.762         	9.644
MS.145         	20.72          	9.694
MS.146         	20.68          	9.684
MS.147         	20.637         	9.636
MS.148         	20.597         	9.676
MS.149         	20.555         	9.632
MS.150         	20.515         	9.64
MS.151         	20.472         	9.624
MS.152         	20.432         	9.638
MS.153         	20.392         	9.581
MS.154         	20.35          	9.642
MS.155         	20.31          	9.591
MS.156         	20.27          	9.585
MS.157         	20.23          	9.539
MS.158         	20.19          	9.585
MS.159         	20.147         	9.563
MS.160         	20.108         	9.62
MS.161         	20.067         	9.521
MS.162         	20.028         	9.448
MS.163         	19.987         	9.557
MS.164         	19.948         	9.442
MS.165         	19.907         	9.569
MS.166         	19.868         	9.557
MS.167         	19.83          	9.541
MS.168         	19.79          	9.448
MS.169         	19.75          	9.519
MS.170         	19.71          	9.523
MS.171         	19.67          	9.412
MS.172         	19.632         	9.485
MS.173         	19.592         	9.438
MS.174         	19.552         	9.368
MS.175         	19.515         	9.525
MS.176         	19.475         	9.346
MS.177         	19.438         	9.42
MS.178         	19.397         	9.336
MS.179         	19.358         	9.229
MS.180         	19.32          	9.313
MS.181         	19.282         	9.305
MS.182         	19.243         	9.32
MS.183         	19.205         	9.168
MS.184         	19.165         	8.979
MS.185         	19.127         	9.255
MS.186         	19.09          	9.221
MS.187         	19.052         	9.203
MS.188         	19.012         	9.358
MS.189         	18.975         	8.808
MS.190         	18.938         	8.754
MS.191         	18.9           	8.705
MS.192         	18.862         	8.792
MS.193         	18.825         	8.701
MS.194         	18.788         	8.52
MS.195         	18.75          	8.518
MS.196         	18.712         	8.6
MS.197         	18.675         	8.355
MS.198         	18.637         	8.329
MS.199         	18.6           	8.314
MS.200         	18.562         	8.403
MS.201         	18.525         	8.274
MS.202         	18.487         	8.268
MS.203         	18.452         	7.787
MS.204         	18.415         	7.833
MS.205         	18.378         	8.224
MS.206         	18.34          	8.175
MS.207         	18.305         	7.813
MS.208         	18.267         	8.19
MS.209         	18.233         	7.891
MS.210         	18.195         	7.908
MS.211         	18.157         	7.922
MS.212         	18.122         	7.978
MS.213         	18.085         	7.898
MS.214         	18.05          	7.831
MS.215         	18.015         	7.632
MS.216         	17.977         	7.835
MS.217         	17.942         	7.581
MS.218         	17.905         	7.644
MS.219         	17.87          	7.632
MS.220         	17.835         	7.475
MS.221         	17.8           	7.535
MS.222         	17.762         	7.614
MS.223         	17.727         	7.601
MS.224         	17.692         	7.577
MS.225         	17.657         	7.97
MS.226         	17.622         	7.593
MS.227         	17.587         	7.74
MS.228         	17.552         	7.513
MS.229         	17.517         	7.908
MS.230         	17.483         	7.781
MS.231         	17.448         	7.285
MS.232         	17.413         	7.704
MS.233         	17.378         	7.746
MS.234         	17.342         	7.783
MS.235         	17.307         	7.783
MS.236         	17.272         	7.755
MS.237         	17.237         	7.654
MS.238         	17.205         	7.706
MS.239         	17.17          	7.73
MS.240         	17.135         	7.755
MS.241         	17.1           	7.698
MS.242         	17.067         	7.577
MS.243         	17.032         	7.585
MS.244         	17             	7.553
MS.245         	16.965         	7.317
MS.246         	16.93          	7.396
MS.247         	16.897         	7.434
MS.248         	16.862         	7.507
MS.249         	16.83          	7.454
MS.250         	16.795         	7.551
MS.251         	16.762         	7.021
MS.252         	16.73          	7.299
MS.253         	16.695         	7.003
MS.254         	16.663         	6.965
MS.255         	16.63          	7.205
MS.256         	16.595         	7.195
MS.257         	16.562         	6.903
MS.258         	16.53          	6.89
MS.259         	16.497         	6.762
MS.260         	16.462         	7.062
MS.261         	16.43          	6.762
MS.262         	16.397         	6.653
MS.263         	16.365         	6.421
MS.264         	16.333         	7.084
MS.265         	16.3           	6.359
MS.266         	16.267         	6.179
MS.267         	16.235         	6.449
MS.268         	16.202         	6.145
MS.269         	16.17          	6.214
MS.270         	16.137         	6.568
MS.271         	16.105         	6.141
MS.272         	16.073         	6.061
MS.273         	16.04          	5.972
MS.274         	16.01          	5.481
MS.275         	15.977         	6.155
MS.276         	15.945         	5.569
MS.277         	15.912         	6.036
MS.278         	15.882         	6.095
MS.279         	15.85          	5.974
MS.280         	15.818         	5.777
MS.281         	15.787         	5.436
MS.282         	15.755         	5.843
MS.283         	15.722         	5.307
MS.284         	15.693         	5.777
MS.285         	15.66          	5.819
MS.286         	15.63          	5.897
MS.287         	15.597         	5.267
MS.288         	15.568         	5.269
MS.289         	15.535         	5.205
MS.290         	15.505         	4.933
MS.291         	15.472         	4.77
MS.292         	15.443         	5.021
MS.293         	15.412         	4.822
MS.294         	15.38          	5.112
MS.295         	15.35          	4.848
MS.296         	15.32          	5.225
MS.297         	15.29          	4.786
MS.298         	15.257         	4.723
MS.299         	15.227         	4.768
MS.300         	15.197         	4.689
MS.301         	15.167         	4.947
MS.302         	15.137         	4.604
MS.303         	15.108         	4.667
MS.304         	15.077         	4.538
MS.305         	15.047         	4.371
MS.306         	15.017         	4.554
MS.307         	14.987         	4.389
MS.308         	14.957         	4.77
MS.309         	14.927         	4.125
MS.310         	14.898         	4.274
MS.311         	14.867         	4.334
MS.312         	14.837         	4.21
MS.313         	14.807         	4.157
MS.314         	14.777         	4.083
MS.315         	14.747         	4.109
MS.316         	14.72          	4.127
MS.317         	14.69          	4.105
MS.318         	14.66          	3.976
MS.319         	14.63          	3.841
MS.320         	14.602         	4.012
MS.321         	14.572         	3.982
MS.322         	14.542         	3.666
MS.323         	14.515         	3.976
MS.324         	14.485         	3.841
MS.325         	14.457         	3.895
MS.326         	14.427         	3.7
MS.327         	14.398         	3.599
MS.328         	14.37          	3.706
MS.329         	14.342         	3.47
MS.330         	14.312         	3.489
MS.331         	14.285         	3.47
MS.332         	14.255         	3.325
MS.333         	14.227         	3.382
MS.334         	14.197         	3.376
MS.335         	14.17          	3.17
MS.336         	14.142         	3.158
MS.337         	14.112         	3.227
MS.338         	14.085         	3.285
MS.339         	14.057         	3.142
MS.340         	14.03          	3.225
MS.341         	14             	3.188
MS.342         	13.972         	3.213
MS.343         	13.945         	2.987
MS.344         	13.917         	3.027
MS.345         	13.89          	2.969
MS.346         	13.862         	2.747
MS.347         	13.835         	2.923
MS.348         	13.807         	2.723
MS.349         	13.78          	2.568
MS.350         	13.752         	2.693
MS.351         	13.725         	2.703
MS.352         	13.697         	2.677
MS.353         	13.67          	2.8
MS.354         	13.642         	2.596
MS.355         	13.615         	2.453
MS.356         	13.587         	2.385
MS.357         	13.56          	2.56
MS.358         	13.532         	2.365
MS.359         	13.505         	2.25
MS.360         	13.48          	2.324
MS.361         	13.452         	2.32
MS.362         	13.425         	2.079
MS.363         	13.398         	2.081
MS.364         	13.372         	2.018
MS.365         	13.345         	1.75
MS.366         	13.318         	2.024
MS.367         	13.292         	1.95
MS.368         	13.265         	1.787
MS.369         	13.237         	2.014
MS.370         	13.212         	2.016
MS.371         	13.185         	1.758
MS.372         	13.16          	1.587
MS.373         	13.132         	1.869
MS.374         	13.108         	1.539
MS.375         	13.08          	1.66
MS.376         	13.055         	1.43
MS.377         	13.028         	1.42
MS.378         	13.002         	1.277
MS.379         	12.977         	1.418
MS.380         	12.95          	1.311
MS.381         	12.925         	1.291
MS.382         	12.9           	1.225
MS.383         	12.872         	1.253
MS.384         	12.847         	1.321
MS.385         	12.822         	1.259
MS.386         	12.795         	1.245
MS.387         	12.77          	1.223
MS.388         	12.745         	1.005
MS.389         	12.72          	0.977
MS.390         	12.695         	1.078
MS.391         	12.67          	1.019
MS.392         	12.642         	1.041
MS.393         	12.617         	0.983
MS.394         	12.592         	0.953
MS.395         	12.568         	1.005
MS.396         	12.542         	0.896
MS.397         	12.517         	0.943
MS.398         	12.492         	0.876
MS.399         	12.467         	0.997
MS.400         	12.443         	0.866
MS.401         	12.417         	0.788
MS.402         	12.392         	0.806
MS.403         	12.367         	0.753
MS.404         	12.342         	0.816
MS.405         	12.32          	0.786
MS.406         	12.295         	0.898
MS.407         	12.27          	0.792
MS.408         	12.245         	0.689
MS.409         	12.22          	0.636
MS.410         	12.197         	0.808
MS.411         	12.172         	0.645
MS.412         	12.148         	0.534
MS.413         	12.122         	0.753
MS.414         	12.1           	0.524
MS.415         	12.075         	0.491
MS.416         	12.05          	0.467
MS.417         	12.028         	0.578
MS.418         	12.002         	0.473
MS.419         	11.98          	0.506
MS.420         	11.955         	0.393
MS.421         	11.93          	0.441
MS.422         	11.907         	0.423
MS.423         	11.882         	0.5
MS.424         	11.86          	0.469
MS.425         	11.835         	0.312
MS.426         	11.812         	0.316
MS.427         	11.787         	0.25
MS.428         	11.765         	0.395
MS.429         	11.742         	0.33
MS.430         	11.717         	0.298
MS.431         	11.695         	0.31
MS.432         	11.672         	0.306
MS.433         	11.648         	0.252
MS.434         	11.625         	0.244
MS.435         	11.602         	0.173
MS.436         	11.577         	0.276
MS.437         	11.555         	0.218
MS.438         	11.532         	0.278
MS.439         	11.51          	0.209
MS.440         	11.485         	0.26
MS.441         	11.462         	0.228
MS.442         	11.44          	0.161
MS.443         	11.417         	0.193
MS.444         	11.395         	0.147
MS.445         	11.372         	0.145
MS.446         	11.35          	0.183
MS.447         	11.327         	0.169
MS.448         	11.305         	0.151
MS.449         	11.28          	0.133
MS.450         	11.257         	0.145
MS.451         	11.235         	0.129
MS.452         	11.215         	0.133
MS.453         	11.193         	0.125
MS.454         	11.17          	0.113
MS.455         	11.148         	0.135
MS.456         	11.125         	0.127
MS.457         	11.102         	0.129
MS.458         	11.08          	0.145
MS.459         	11.057         	0.109
MS.460         	11.035         	0.113
MS.461         	11.012         	0.109
MS.462         	10.992         	0.105
MS.463         	10.97          	0.103
MS.464         	10.948         	0.111
MS.465         	10.925         	0.107
MS.466         	10.905         	0.109
MS.467         	10.882         	0.087
MS.468         	10.86          	0.103
MS.469         	10.84          	0.085
MS.470         	10.818         	0.103
MS.471         	10.795         	0.115
MS.472         	10.775         	0.103
MS.473         	10.752         	0.089
MS.474         	10.73          	0.119
MS.475         	10.71          	0.087
MS.476         	10.688         	0.079
MS.477         	10.667         	0.087
MS.478         	10.645         	0.068
MS.479         	10.625         	0.075
MS.480         	10.602         	0.083
MS.481         	10.582         	0.066
MS.482         	10.56          	0.064
MS.483         	10.54          	0.062
MS.484         	10.517         	0.075
MS.485         	10.497         	0.077
MS.486         	10.477         	0.081
MS.487         	10.455         	0.068
MS.488         	10.435         	0.062
MS.489         	10.415         	0.054
MS.490         	10.392         	0.073
MS.491         	10.372         	0.083
MS.492         	10.352         	0.052
MS.493         	10.33          	0.058
MS.494         	10.31          	0.05
MS.495         	10.29          	0.066
MS.496         	10.27          	0.062
MS.497         	10.247         	0.05
MS.498         	10.227         	0.06
MS.499         	10.207         	0.058
MS.500         	10.188         	0.062
MS.501         	10.167         	0.056
