File:              	C:\Qtrac\Data\Daniel M Sørensen\MScan multicentre study\Data from centres\Aarhus\Processed data\DMSB91210B.QZD
Name:              	DK.AAR.NC.11.2
Protocol:          	MSCAN-R2
Date:              	10/12/19
Start time:        	15:34:02
Age:               	80
Sex:               	f
Temperature:       	36
S/R sites:         	ADM
NC/disease:        	Control
Operator:          	DS
Comments:
M-SCAN DATA (10.9-1.9m)
Scanpts: 12, 25, 892, 913
Stim. (mA)     	Amp. (mV)
MS.1           	24.5           	6.717
MS.2           	24.5           	6.701
MS.3           	24.5           	6.695
MS.4           	24.5           	6.679
MS.5           	24.5           	6.661
MS.6           	24.5           	6.689
MS.7           	24.5           	6.659
MS.8           	24.5           	6.661
MS.9           	24.5           	6.667
MS.10          	24.5           	6.647
MS.11          	24.5           	6.659
MS.12          	24.5           	6.657
MS.13          	24.5           	6.647
MS.14          	24.5           	6.669
MS.15          	24.5           	6.627
MS.16          	24.5           	6.649
MS.17          	24.5           	6.651
MS.18          	24.5           	6.651
MS.19          	24.5           	6.645
MS.20          	24.5           	6.631
MS.21          	24.5           	6.625
MS.22          	24.5           	6.663
MS.23          	24.5           	6.671
MS.24          	24.403         	6.647
MS.25          	24.352         	6.649
MS.26          	24.305         	6.578
MS.27          	24.255         	6.649
MS.28          	24.207         	6.645
MS.29          	24.16          	6.667
MS.30          	24.11          	6.645
MS.31          	24.062         	6.637
MS.32          	24.015         	6.641
MS.33          	23.967         	6.629
MS.34          	23.92          	6.594
MS.35          	23.87          	6.643
MS.36          	23.823         	6.623
MS.37          	23.775         	6.598
MS.38          	23.727         	6.649
MS.39          	23.68          	6.643
MS.40          	23.632         	6.6
MS.41          	23.587         	6.623
MS.42          	23.54          	6.588
MS.43          	23.493         	6.6
MS.44          	23.445         	6.619
MS.45          	23.397         	6.608
MS.46          	23.352         	6.584
MS.47          	23.305         	6.604
MS.48          	23.257         	6.6
MS.49          	23.212         	6.582
MS.50          	23.165         	6.627
MS.51          	23.12          	6.566
MS.52          	23.073         	6.59
MS.53          	23.028         	6.584
MS.54          	22.98          	6.621
MS.55          	22.935         	6.586
MS.56          	22.89          	6.59
MS.57          	22.842         	6.584
MS.58          	22.797         	6.61
MS.59          	22.752         	6.566
MS.60          	22.707         	6.606
MS.61          	22.663         	6.586
MS.62          	22.618         	6.574
MS.63          	22.57          	6.6
MS.64          	22.525         	6.572
MS.65          	22.48          	6.58
MS.66          	22.435         	6.56
MS.67          	22.39          	6.578
MS.68          	22.347         	6.556
MS.69          	22.302         	6.552
MS.70          	22.257         	6.588
MS.71          	22.212         	6.572
MS.72          	22.167         	6.552
MS.73          	22.125         	6.558
MS.74          	22.08          	6.584
MS.75          	22.035         	6.584
MS.76          	21.993         	6.57
MS.77          	21.948         	6.566
MS.78          	21.905         	6.56
MS.79          	21.86          	6.544
MS.80          	21.817         	6.578
MS.81          	21.772         	6.58
MS.82          	21.73          	6.582
MS.83          	21.685         	6.548
MS.84          	21.642         	6.562
MS.85          	21.6           	6.552
MS.86          	21.557         	6.554
MS.87          	21.512         	6.582
MS.88          	21.47          	6.564
MS.89          	21.427         	6.53
MS.90          	21.385         	6.576
MS.91          	21.342         	6.566
MS.92          	21.3           	6.558
MS.93          	21.257         	6.544
MS.94          	21.215         	6.568
MS.95          	21.172         	6.552
MS.96          	21.13          	6.548
MS.97          	21.087         	6.554
MS.98          	21.045         	6.54
MS.99          	21.002         	6.568
MS.100         	20.96          	6.558
MS.101         	20.92          	6.56
MS.102         	20.877         	6.574
MS.103         	20.835         	6.55
MS.104         	20.795         	6.621
MS.105         	20.752         	6.542
MS.106         	20.71          	6.566
MS.107         	20.67          	6.576
MS.108         	20.627         	6.546
MS.109         	20.587         	6.544
MS.110         	20.545         	6.534
MS.111         	20.505         	6.552
MS.112         	20.465         	6.512
MS.113         	20.422         	6.528
MS.114         	20.382         	6.558
MS.115         	20.342         	6.53
MS.116         	20.3           	6.58
MS.117         	20.26          	6.53
MS.118         	20.22          	6.508
MS.119         	20.18          	6.54
MS.120         	20.14          	6.544
MS.121         	20.1           	6.54
MS.122         	20.06          	6.542
MS.123         	20.017         	6.55
MS.124         	19.977         	6.538
MS.125         	19.94          	6.542
MS.126         	19.9           	6.544
MS.127         	19.86          	6.53
MS.128         	19.82          	6.532
MS.129         	19.78          	6.534
MS.130         	19.74          	6.538
MS.131         	19.7           	6.53
MS.132         	19.663         	6.536
MS.133         	19.622         	6.532
MS.134         	19.583         	6.542
MS.135         	19.545         	6.528
MS.136         	19.505         	6.542
MS.137         	19.465         	6.568
MS.138         	19.427         	6.532
MS.139         	19.387         	6.536
MS.140         	19.35          	6.544
MS.141         	19.31          	6.544
MS.142         	19.272         	6.518
MS.143         	19.235         	6.536
MS.144         	19.195         	6.528
MS.145         	19.157         	6.526
MS.146         	19.118         	6.528
MS.147         	19.08          	6.528
MS.148         	19.042         	6.534
MS.149         	19.005         	6.53
MS.150         	18.967         	6.542
MS.151         	18.927         	6.522
MS.152         	18.89          	6.534
MS.153         	18.852         	6.53
MS.154         	18.815         	6.528
MS.155         	18.778         	6.54
MS.156         	18.74          	6.522
MS.157         	18.702         	6.502
MS.158         	18.665         	6.534
MS.159         	18.628         	6.518
MS.160         	18.59          	6.524
MS.161         	18.552         	6.53
MS.162         	18.517         	6.534
MS.163         	18.48          	6.528
MS.164         	18.442         	6.514
MS.165         	18.405         	6.556
MS.166         	18.37          	6.512
MS.167         	18.333         	6.526
MS.168         	18.295         	6.534
MS.169         	18.26          	6.496
MS.170         	18.222         	6.512
MS.171         	18.188         	6.516
MS.172         	18.15          	6.496
MS.173         	18.112         	6.506
MS.174         	18.077         	6.512
MS.175         	18.042         	6.504
MS.176         	18.005         	6.496
MS.177         	17.97          	6.508
MS.178         	17.932         	6.467
MS.179         	17.897         	6.498
MS.180         	17.862         	6.482
MS.181         	17.825         	6.49
MS.182         	17.79          	6.449
MS.183         	17.755         	6.516
MS.184         	17.72          	6.506
MS.185         	17.685         	6.494
MS.186         	17.65          	6.508
MS.187         	17.612         	6.461
MS.188         	17.577         	6.482
MS.189         	17.542         	6.486
MS.190         	17.507         	6.469
MS.191         	17.472         	6.471
MS.192         	17.438         	6.498
MS.193         	17.403         	6.502
MS.194         	17.368         	6.471
MS.195         	17.335         	6.49
MS.196         	17.3           	6.461
MS.197         	17.265         	6.457
MS.198         	17.23          	6.488
MS.199         	17.195         	6.471
MS.200         	17.163         	6.455
MS.201         	17.128         	6.469
MS.202         	17.092         	6.455
MS.203         	17.06          	6.476
MS.204         	17.025         	6.471
MS.205         	16.99          	6.476
MS.206         	16.958         	6.455
MS.207         	16.922         	6.514
MS.208         	16.89          	6.469
MS.209         	16.855         	6.463
MS.210         	16.823         	6.476
MS.211         	16.788         	6.453
MS.212         	16.755         	6.465
MS.213         	16.72          	6.494
MS.214         	16.688         	6.451
MS.215         	16.655         	6.455
MS.216         	16.62          	6.457
MS.217         	16.587         	6.478
MS.218         	16.555         	6.457
MS.219         	16.522         	6.471
MS.220         	16.487         	6.421
MS.221         	16.455         	6.492
MS.222         	16.422         	6.435
MS.223         	16.39          	6.443
MS.224         	16.358         	6.474
MS.225         	16.325         	6.389
MS.226         	16.292         	6.445
MS.227         	16.26          	6.484
MS.228         	16.227         	6.461
MS.229         	16.195         	6.433
MS.230         	16.163         	6.467
MS.231         	16.13          	6.474
MS.232         	16.097         	6.461
MS.233         	16.065         	6.421
MS.234         	16.032         	6.471
MS.235         	16.003         	6.461
MS.236         	15.97          	6.443
MS.237         	15.938         	6.476
MS.238         	15.905         	6.459
MS.239         	15.875         	6.443
MS.240         	15.842         	6.445
MS.241         	15.81          	6.451
MS.242         	15.78          	6.413
MS.243         	15.747         	6.397
MS.244         	15.715         	6.433
MS.245         	15.685         	6.425
MS.246         	15.652         	6.411
MS.247         	15.622         	6.423
MS.248         	15.59          	6.411
MS.249         	15.56          	6.383
MS.250         	15.527         	6.413
MS.251         	15.497         	6.443
MS.252         	15.467         	6.367
MS.253         	15.435         	6.435
MS.254         	15.405         	6.431
MS.255         	15.375         	6.387
MS.256         	15.342         	6.433
MS.257         	15.312         	6.423
MS.258         	15.282         	6.389
MS.259         	15.252         	6.419
MS.260         	15.22          	6.403
MS.261         	15.19          	6.397
MS.262         	15.16          	6.435
MS.263         	15.13          	6.439
MS.264         	15.1           	6.389
MS.265         	15.07          	6.371
MS.266         	15.04          	6.399
MS.267         	15.01          	6.427
MS.268         	14.98          	6.361
MS.269         	14.95          	6.413
MS.270         	14.92          	6.387
MS.271         	14.89          	6.381
MS.272         	14.86          	6.395
MS.273         	14.83          	6.417
MS.274         	14.8           	6.379
MS.275         	14.77          	6.393
MS.276         	14.742         	6.415
MS.277         	14.712         	6.383
MS.278         	14.682         	6.391
MS.279         	14.652         	6.405
MS.280         	14.625         	6.383
MS.281         	14.595         	6.393
MS.282         	14.565         	6.409
MS.283         	14.537         	6.401
MS.284         	14.507         	6.401
MS.285         	14.477         	6.415
MS.286         	14.45          	6.419
MS.287         	14.42          	6.397
MS.288         	14.392         	6.401
MS.289         	14.362         	6.421
MS.290         	14.335         	6.397
MS.291         	14.305         	6.421
MS.292         	14.278         	6.415
MS.293         	14.247         	6.423
MS.294         	14.22          	6.401
MS.295         	14.193         	6.403
MS.296         	14.162         	6.401
MS.297         	14.135         	6.429
MS.298         	14.108         	6.393
MS.299         	14.08          	6.385
MS.300         	14.05          	6.395
MS.301         	14.023         	6.417
MS.302         	13.995         	6.387
MS.303         	13.967         	6.421
MS.304         	13.938         	6.399
MS.305         	13.91          	6.395
MS.306         	13.882         	6.397
MS.307         	13.855         	6.413
MS.308         	13.827         	6.401
MS.309         	13.8           	6.389
MS.310         	13.773         	6.401
MS.311         	13.745         	6.361
MS.312         	13.717         	6.409
MS.313         	13.69          	6.411
MS.314         	13.662         	6.393
MS.315         	13.635         	6.393
MS.316         	13.608         	6.395
MS.317         	13.58          	6.397
MS.318         	13.555         	6.391
MS.319         	13.528         	6.381
MS.320         	13.5           	6.389
MS.321         	13.472         	6.401
MS.322         	13.445         	6.399
MS.323         	13.42          	6.397
MS.324         	13.392         	6.401
MS.325         	13.365         	6.397
MS.326         	13.337         	6.407
MS.327         	13.312         	6.282
MS.328         	13.285         	6.393
MS.329         	13.26          	6.405
MS.330         	13.233         	6.377
MS.331         	13.205         	6.355
MS.332         	13.18          	6.407
MS.333         	13.153         	6.337
MS.334         	13.127         	6.355
MS.335         	13.1           	6.363
MS.336         	13.075         	6.403
MS.337         	13.047         	6.296
MS.338         	13.023         	6.357
MS.339         	12.997         	6.401
MS.340         	12.97          	6.318
MS.341         	12.945         	6.353
MS.342         	12.917         	6.343
MS.343         	12.892         	6.276
MS.344         	12.867         	6.357
MS.345         	12.842         	6.31
MS.346         	12.815         	6.278
MS.347         	12.79          	6.359
MS.348         	12.765         	6.308
MS.349         	12.74          	6.322
MS.350         	12.712         	6.25
MS.351         	12.688         	6.296
MS.352         	12.662         	6.25
MS.353         	12.637         	6.262
MS.354         	12.613         	6.296
MS.355         	12.587         	6.326
MS.356         	12.562         	6.256
MS.357         	12.537         	6.326
MS.358         	12.512         	6.375
MS.359         	12.488         	6.333
MS.360         	12.462         	6.345
MS.361         	12.438         	6.318
MS.362         	12.412         	6.312
MS.363         	12.387         	6.274
MS.364         	12.363         	6.308
MS.365         	12.337         	6.296
MS.366         	12.312         	6.292
MS.367         	12.287         	6.256
MS.368         	12.265         	6.272
MS.369         	12.24          	6.29
MS.370         	12.215         	6.262
MS.371         	12.19          	6.308
MS.372         	12.167         	6.29
MS.373         	12.142         	6.282
MS.374         	12.117         	6.252
MS.375         	12.092         	6.306
MS.376         	12.07          	6.278
MS.377         	12.045         	6.25
MS.378         	12.02          	6.316
MS.379         	11.997         	6.254
MS.380         	11.972         	6.238
MS.381         	11.95          	6.26
MS.382         	11.925         	6.206
MS.383         	11.903         	6.222
MS.384         	11.877         	6.26
MS.385         	11.855         	6.23
MS.386         	11.83          	6.228
MS.387         	11.807         	6.248
MS.388         	11.782         	6.141
MS.389         	11.76          	6.24
MS.390         	11.735         	6.24
MS.391         	11.712         	6.214
MS.392         	11.69          	6.151
MS.393         	11.665         	6.256
MS.394         	11.642         	6.151
MS.395         	11.62          	6.236
MS.396         	11.595         	6.139
MS.397         	11.572         	6.226
MS.398         	11.55          	6.173
MS.399         	11.528         	6.167
MS.400         	11.502         	6.107
MS.401         	11.48          	6.151
MS.402         	11.457         	6.079
MS.403         	11.435         	6.103
MS.404         	11.412         	6.129
MS.405         	11.39          	6.079
MS.406         	11.367         	6.051
MS.407         	11.345         	6.155
MS.408         	11.32          	6.097
MS.409         	11.297         	6.099
MS.410         	11.275         	6.131
MS.411         	11.252         	6.083
MS.412         	11.23          	6.067
MS.413         	11.207         	6.103
MS.414         	11.185         	6.107
MS.415         	11.162         	6.155
MS.416         	11.142         	6.087
MS.417         	11.12          	6.089
MS.418         	11.097         	6.105
MS.419         	11.075         	6.131
MS.420         	11.052         	6.085
MS.421         	11.03          	6.115
MS.422         	11.007         	6.115
MS.423         	10.988         	6.069
MS.424         	10.965         	6.117
MS.425         	10.943         	6.085
MS.426         	10.92          	6.087
MS.427         	10.9           	6.099
MS.428         	10.877         	6.143
MS.429         	10.855         	6.119
MS.430         	10.835         	6.109
MS.431         	10.812         	6.133
MS.432         	10.79          	6.109
MS.433         	10.77          	6.087
MS.434         	10.747         	6.089
MS.435         	10.725         	6.113
MS.436         	10.705         	6.113
MS.437         	10.682         	6.036
MS.438         	10.662         	6.123
MS.439         	10.64          	6.075
MS.440         	10.62          	6.04
MS.441         	10.597         	6.103
MS.442         	10.577         	6.095
MS.443         	10.555         	5.942
MS.444         	10.535         	6.131
MS.445         	10.512         	6.059
MS.446         	10.492         	6.002
MS.447         	10.472         	6.143
MS.448         	10.45          	6.137
MS.449         	10.43          	6.03
MS.450         	10.41          	6.006
MS.451         	10.387         	6.159
MS.452         	10.367         	6.061
MS.453         	10.347         	6
MS.454         	10.325         	6.089
MS.455         	10.305         	6.028
MS.456         	10.285         	5.922
MS.457         	10.265         	6.149
MS.458         	10.245         	6.071
MS.459         	10.222         	5.994
MS.460         	10.202         	5.976
MS.461         	10.182         	6.083
MS.462         	10.162         	6.03
MS.463         	10.142         	5.859
MS.464         	10.122         	5.954
MS.465         	10.102         	5.863
MS.466         	10.08          	5.793
MS.467         	10.06          	5.95
MS.468         	10.04          	5.932
MS.469         	10.02          	5.819
MS.470         	10             	5.944
MS.471         	9.98           	5.897
MS.472         	9.96           	5.771
MS.473         	9.94           	5.893
MS.474         	9.92           	5.767
MS.475         	9.903          	6.034
MS.476         	9.882          	5.783
MS.477         	9.863          	5.702
MS.478         	9.842          	5.746
MS.479         	9.823          	5.815
MS.480         	9.802          	5.686
MS.481         	9.782          	5.668
MS.482         	9.762          	5.777
MS.483         	9.745          	5.694
MS.484         	9.725          	5.289
MS.485         	9.705          	5.676
MS.486         	9.685          	5.636
MS.487         	9.667          	5.609
MS.488         	9.648          	5.553
MS.489         	9.627          	5.634
MS.490         	9.608          	5.436
MS.491         	9.59           	5.678
MS.492         	9.57           	5.509
MS.493         	9.55           	5.4
MS.494         	9.532          	5.583
MS.495         	9.512          	5.676
MS.496         	9.495          	5.557
MS.497         	9.475          	5.348
MS.498         	9.455          	5.483
MS.499         	9.438          	5.428
MS.500         	9.417          	5.344
MS.501         	9.4            	5.38
