File:              	C:\Qtrac\Data\Daniel M Sørensen\MScan multicentre study\Data from centres\Aarhus\Processed data\DMSB91202A.QZD
Name:              	DK.AAR.NC.5.1
Protocol:          	MSCAN-R2
Date:              	2/12/19
Start time:        	11:05:06
Age:               	57
Sex:               	f
Temperature:       	34,2
S/R sites:         	APB
NC/disease:        	Controle
Operator:          	DS
Comments:          	Maybe too ulnar rec
M-SCAN DATA (10.2-4.1m)
Scanpts: 190, 197, 636, 658
Stim. (mA)     	Amp. (mV)
MS.1           	25             	8.699
MS.2           	25             	8.695
MS.3           	25             	8.689
MS.4           	25             	8.679
MS.5           	25             	8.677
MS.6           	25             	8.657
MS.7           	25             	8.671
MS.8           	25             	8.679
MS.9           	25             	8.681
MS.10          	25             	8.675
MS.11          	25             	8.673
MS.12          	25             	8.655
MS.13          	25             	8.673
MS.14          	25             	8.661
MS.15          	25             	8.675
MS.16          	25             	8.659
MS.17          	25             	8.651
MS.18          	25             	8.643
MS.19          	25             	8.661
MS.20          	25             	8.663
MS.21          	25             	8.645
MS.22          	25             	8.623
MS.23          	25             	8.635
MS.24          	24.9           	8.645
MS.25          	24.85          	8.649
MS.26          	24.8           	8.641
MS.27          	24.75          	8.655
MS.28          	24.702         	8.647
MS.29          	24.653         	8.659
MS.30          	24.602         	8.665
MS.31          	24.555         	8.653
MS.32          	24.505         	8.659
MS.33          	24.455         	8.671
MS.34          	24.407         	8.655
MS.35          	24.358         	8.665
MS.36          	24.31          	8.653
MS.37          	24.26          	8.635
MS.38          	24.212         	8.649
MS.39          	24.165         	8.645
MS.40          	24.115         	8.647
MS.41          	24.067         	8.643
MS.42          	24.02          	8.657
MS.43          	23.972         	8.655
MS.44          	23.925         	8.661
MS.45          	23.875         	8.653
MS.46          	23.827         	8.655
MS.47          	23.78          	8.655
MS.48          	23.733         	8.659
MS.49          	23.685         	8.655
MS.50          	23.637         	8.669
MS.51          	23.59          	8.657
MS.52          	23.545         	8.657
MS.53          	23.497         	8.673
MS.54          	23.45          	8.651
MS.55          	23.403         	8.653
MS.56          	23.358         	8.653
MS.57          	23.31          	8.667
MS.58          	23.262         	8.671
MS.59          	23.217         	8.673
MS.60          	23.17          	8.671
MS.61          	23.125         	8.669
MS.62          	23.077         	8.667
MS.63          	23.032         	8.675
MS.64          	22.985         	8.671
MS.65          	22.94          	8.685
MS.66          	22.895         	8.677
MS.67          	22.847         	8.669
MS.68          	22.802         	8.677
MS.69          	22.757         	8.679
MS.70          	22.712         	8.679
MS.71          	22.665         	8.675
MS.72          	22.62          	8.685
MS.73          	22.575         	8.683
MS.74          	22.53          	8.689
MS.75          	22.485         	8.685
MS.76          	22.44          	8.695
MS.77          	22.395         	8.693
MS.78          	22.35          	8.699
MS.79          	22.307         	8.689
MS.80          	22.262         	8.695
MS.81          	22.217         	8.687
MS.82          	22.172         	8.685
MS.83          	22.127         	8.687
MS.84          	22.085         	8.705
MS.85          	22.04          	8.689
MS.86          	21.995         	8.685
MS.87          	21.952         	8.689
MS.88          	21.907         	8.691
MS.89          	21.865         	8.695
MS.90          	21.82          	8.695
MS.91          	21.778         	8.695
MS.92          	21.735         	8.707
MS.93          	21.69          	8.707
MS.94          	21.647         	8.705
MS.95          	21.605         	8.709
MS.96          	21.56          	8.705
MS.97          	21.517         	8.703
MS.98          	21.475         	8.695
MS.99          	21.432         	8.711
MS.100         	21.39          	8.707
MS.101         	21.345         	8.697
MS.102         	21.302         	8.699
MS.103         	21.26          	8.701
MS.104         	21.217         	8.693
MS.105         	21.175         	8.699
MS.106         	21.135         	8.695
MS.107         	21.092         	8.693
MS.108         	21.05          	8.695
MS.109         	21.007         	8.705
MS.110         	20.965         	8.707
MS.111         	20.922         	8.707
MS.112         	20.882         	8.703
MS.113         	20.84          	8.707
MS.114         	20.797         	8.721
MS.115         	20.757         	8.731
MS.116         	20.715         	8.727
MS.117         	20.675         	8.725
MS.118         	20.632         	8.711
MS.119         	20.592         	8.707
MS.120         	20.55          	8.703
MS.121         	20.51          	8.709
MS.122         	20.467         	8.717
MS.123         	20.427         	8.707
MS.124         	20.387         	8.707
MS.125         	20.345         	8.693
MS.126         	20.305         	8.711
MS.127         	20.265         	8.713
MS.128         	20.225         	8.705
MS.129         	20.182         	8.711
MS.130         	20.142         	8.725
MS.131         	20.102         	8.711
MS.132         	20.062         	8.701
MS.133         	20.022         	8.703
MS.134         	19.983         	8.705
MS.135         	19.942         	8.705
MS.136         	19.903         	8.711
MS.137         	19.862         	8.709
MS.138         	19.823         	8.715
MS.139         	19.785         	8.705
MS.140         	19.745         	8.721
MS.141         	19.705         	8.707
MS.142         	19.665         	8.709
MS.143         	19.627         	8.717
MS.144         	19.587         	8.707
MS.145         	19.547         	8.707
MS.146         	19.51          	8.697
MS.147         	19.47          	8.709
MS.148         	19.43          	8.695
MS.149         	19.392         	8.715
MS.150         	19.352         	8.703
MS.151         	19.315         	8.701
MS.152         	19.275         	8.709
MS.153         	19.237         	8.703
MS.154         	19.2           	8.707
MS.155         	19.16          	8.713
MS.156         	19.122         	8.719
MS.157         	19.085         	8.713
MS.158         	19.047         	8.713
MS.159         	19.007         	8.709
MS.160         	18.97          	8.709
MS.161         	18.932         	8.703
MS.162         	18.895         	8.713
MS.163         	18.858         	8.701
MS.164         	18.82          	8.697
MS.165         	18.782         	8.687
MS.166         	18.745         	8.689
MS.167         	18.708         	8.697
MS.168         	18.67          	8.699
MS.169         	18.632         	8.707
MS.170         	18.595         	8.715
MS.171         	18.557         	8.723
MS.172         	18.52          	8.719
MS.173         	18.483         	8.703
MS.174         	18.448         	8.701
MS.175         	18.41          	8.703
MS.176         	18.372         	8.701
MS.177         	18.335         	8.695
MS.178         	18.3           	8.719
MS.179         	18.262         	8.709
MS.180         	18.227         	8.701
MS.181         	18.19          	8.703
MS.182         	18.153         	8.721
MS.183         	18.118         	8.697
MS.184         	18.08          	8.699
MS.185         	18.045         	8.701
MS.186         	18.01          	8.697
MS.187         	17.972         	8.701
MS.188         	17.938         	8.693
MS.189         	17.903         	8.693
MS.190         	17.865         	8.693
MS.191         	17.83          	8.695
MS.192         	17.795         	8.699
MS.193         	17.757         	8.699
MS.194         	17.722         	8.701
MS.195         	17.688         	8.697
MS.196         	17.653         	8.709
MS.197         	17.618         	8.701
MS.198         	17.583         	8.693
MS.199         	17.547         	8.691
MS.200         	17.512         	8.699
MS.201         	17.477         	8.683
MS.202         	17.442         	8.685
MS.203         	17.407         	8.685
MS.204         	17.372         	8.685
MS.205         	17.337         	8.679
MS.206         	17.302         	8.677
MS.207         	17.267         	8.675
MS.208         	17.235         	8.677
MS.209         	17.2           	8.671
MS.210         	17.165         	8.679
MS.211         	17.13          	8.669
MS.212         	17.097         	8.669
MS.213         	17.062         	8.665
MS.214         	17.028         	8.675
MS.215         	16.995         	8.671
MS.216         	16.96          	8.677
MS.217         	16.927         	8.667
MS.218         	16.892         	8.675
MS.219         	16.86          	8.671
MS.220         	16.825         	8.665
MS.221         	16.792         	8.661
MS.222         	16.757         	8.651
MS.223         	16.725         	8.663
MS.224         	16.69          	8.659
MS.225         	16.657         	8.661
MS.226         	16.625         	8.659
MS.227         	16.59          	8.665
MS.228         	16.557         	8.651
MS.229         	16.525         	8.663
MS.230         	16.493         	8.651
MS.231         	16.46          	8.657
MS.232         	16.425         	8.657
MS.233         	16.392         	8.661
MS.234         	16.36          	8.663
MS.235         	16.327         	8.663
MS.236         	16.295         	8.655
MS.237         	16.262         	8.655
MS.238         	16.23          	8.659
MS.239         	16.198         	8.657
MS.240         	16.165         	8.659
MS.241         	16.132         	8.645
MS.242         	16.1           	8.643
MS.243         	16.067         	8.651
MS.244         	16.038         	8.645
MS.245         	16.005         	8.649
MS.246         	15.972         	8.645
MS.247         	15.94          	8.641
MS.248         	15.91          	8.645
MS.249         	15.877         	8.645
MS.250         	15.845         	8.643
MS.251         	15.812         	8.643
MS.252         	15.782         	8.641
MS.253         	15.75          	8.635
MS.254         	15.72          	8.641
MS.255         	15.688         	8.631
MS.256         	15.657         	8.633
MS.257         	15.625         	8.629
MS.258         	15.595         	8.635
MS.259         	15.562         	8.633
MS.260         	15.532         	8.635
MS.261         	15.5           	8.631
MS.262         	15.47          	8.633
MS.263         	15.438         	8.637
MS.264         	15.407         	8.637
MS.265         	15.377         	8.633
MS.266         	15.347         	8.639
MS.267         	15.315         	8.633
MS.268         	15.285         	8.635
MS.269         	15.255         	8.631
MS.270         	15.225         	8.631
MS.271         	15.193         	8.633
MS.272         	15.162         	8.625
MS.273         	15.132         	8.617
MS.274         	15.102         	8.631
MS.275         	15.072         	8.615
MS.276         	15.042         	8.617
MS.277         	15.012         	8.611
MS.278         	14.983         	8.609
MS.279         	14.952         	8.609
MS.280         	14.922         	8.609
MS.281         	14.892         	8.615
MS.282         	14.862         	8.604
MS.283         	14.832         	8.611
MS.284         	14.802         	8.6
MS.285         	14.775         	8.6
MS.286         	14.745         	8.592
MS.287         	14.715         	8.602
MS.288         	14.685         	8.586
MS.289         	14.657         	8.609
MS.290         	14.627         	8.617
MS.291         	14.597         	8.6
MS.292         	14.568         	8.568
MS.293         	14.54          	8.6
MS.294         	14.51          	8.609
MS.295         	14.483         	8.609
MS.296         	14.452         	8.6
MS.297         	14.422         	8.592
MS.298         	14.395         	8.568
MS.299         	14.365         	8.576
MS.300         	14.337         	8.568
MS.301         	14.31          	8.582
MS.302         	14.28          	8.584
MS.303         	14.252         	8.578
MS.304         	14.222         	8.6
MS.305         	14.195         	8.57
MS.306         	14.167         	8.568
MS.307         	14.137         	8.486
MS.308         	14.11          	8.58
MS.309         	14.082         	8.548
MS.310         	14.052         	8.59
MS.311         	14.025         	8.461
MS.312         	13.997         	8.466
MS.313         	13.97          	8.548
MS.314         	13.943         	8.488
MS.315         	13.912         	8.59
MS.316         	13.885         	8.472
MS.317         	13.858         	8.455
MS.318         	13.83          	8.464
MS.319         	13.802         	8.478
MS.320         	13.775         	7.871
MS.321         	13.747         	7.857
MS.322         	13.72          	7.857
MS.323         	13.693         	8.461
MS.324         	13.665         	8.451
MS.325         	13.637         	7.859
MS.326         	13.61          	8.461
MS.327         	13.582         	7.877
MS.328         	13.557         	7.851
MS.329         	13.53          	7.857
MS.330         	13.502         	7.843
MS.331         	13.475         	7.857
MS.332         	13.447         	7.787
MS.333         	13.422         	7.857
MS.334         	13.395         	7.857
MS.335         	13.367         	7.912
MS.336         	13.342         	7.797
MS.337         	13.315         	7.875
MS.338         	13.287         	7.893
MS.339         	13.262         	7.877
MS.340         	13.235         	7.873
MS.341         	13.207         	7.807
MS.342         	13.182         	7.803
MS.343         	13.155         	7.481
MS.344         	13.13          	7.889
MS.345         	13.102         	7.807
MS.346         	13.077         	7.821
MS.347         	13.05          	7.904
MS.348         	13.025         	7.821
MS.349         	13             	7.438
MS.350         	12.972         	7.458
MS.351         	12.947         	7.428
MS.352         	12.92          	7.817
MS.353         	12.895         	7.807
MS.354         	12.87          	7.797
MS.355         	12.845         	7.487
MS.356         	12.818         	7.072
MS.357         	12.792         	7.05
MS.358         	12.767         	7.056
MS.359         	12.742         	7.029
MS.360         	12.715         	7.41
MS.361         	12.69          	6.691
MS.362         	12.665         	6.685
MS.363         	12.64          	6.608
MS.364         	12.615         	6.957
MS.365         	12.59          	6.617
MS.366         	12.565         	6.578
MS.367         	12.54          	6.582
MS.368         	12.515         	6.657
MS.369         	12.49          	6.572
MS.370         	12.465         	6.59
MS.371         	12.44          	6.449
MS.372         	12.415         	6.435
MS.373         	12.39          	6.524
MS.374         	12.365         	6.548
MS.375         	12.34          	6.582
MS.376         	12.315         	6.369
MS.377         	12.29          	6.399
MS.378         	12.267         	6.353
MS.379         	12.242         	6.387
MS.380         	12.217         	6.359
MS.381         	12.193         	6.284
MS.382         	12.17          	6.224
MS.383         	12.145         	6.425
MS.384         	12.12          	6.272
MS.385         	12.095         	5.698
MS.386         	12.072         	5.879
MS.387         	12.047         	6.157
MS.388         	12.023         	5.91
MS.389         	12             	6.179
MS.390         	11.975         	5.773
MS.391         	11.952         	6.032
MS.392         	11.927         	6.188
MS.393         	11.905         	5.754
MS.394         	11.88          	5.243
MS.395         	11.858         	5.738
MS.396         	11.832         	5.636
MS.397         	11.81          	5.493
MS.398         	11.785         	5.203
MS.399         	11.762         	5.313
MS.400         	11.738         	5.172
MS.401         	11.715         	5.037
MS.402         	11.693         	4.943
MS.403         	11.667         	5.076
MS.404         	11.645         	4.834
MS.405         	11.622         	4.88
MS.406         	11.597         	4.876
MS.407         	11.575         	4.588
MS.408         	11.552         	4.812
MS.409         	11.53          	4.556
MS.410         	11.505         	4.703
MS.411         	11.483         	4.675
MS.412         	11.46          	4.578
MS.413         	11.438         	4.429
MS.414         	11.415         	4.447
MS.415         	11.392         	4.288
MS.416         	11.37          	4.441
MS.417         	11.345         	4.504
MS.418         	11.322         	4.191
MS.419         	11.3           	4.236
MS.420         	11.278         	4.306
MS.421         	11.255         	4.103
MS.422         	11.233         	3.907
MS.423         	11.21          	4.087
MS.424         	11.188         	3.865
MS.425         	11.165         	3.992
MS.426         	11.142         	3.744
MS.427         	11.122         	3.609
MS.428         	11.1           	3.684
MS.429         	11.077         	3.539
MS.430         	11.055         	3.652
MS.431         	11.032         	3.38
MS.432         	11.01          	3.581
MS.433         	10.988         	3.239
MS.434         	10.967         	3.144
MS.435         	10.945         	3.422
MS.436         	10.922         	3.041
MS.437         	10.9           	3.275
MS.438         	10.88          	3.281
MS.439         	10.858         	2.852
MS.440         	10.835         	2.838
MS.441         	10.815         	2.763
MS.442         	10.792         	2.786
MS.443         	10.77          	2.733
MS.444         	10.75          	2.49
MS.445         	10.727         	2.514
MS.446         	10.707         	2.5
MS.447         	10.685         	2.437
MS.448         	10.665         	2.534
MS.449         	10.642         	2.266
MS.450         	10.622         	2.206
MS.451         	10.6           	2.32
MS.452         	10.58          	2.353
MS.453         	10.557         	1.974
MS.454         	10.537         	2.065
MS.455         	10.515         	2.137
MS.456         	10.495         	1.952
MS.457         	10.472         	2.107
MS.458         	10.452         	1.93
MS.459         	10.432         	1.944
MS.460         	10.41          	1.905
MS.461         	10.39          	1.738
MS.462         	10.37          	1.686
MS.463         	10.35          	1.712
MS.464         	10.327         	1.821
MS.465         	10.307         	1.813
MS.466         	10.287         	1.714
MS.467         	10.267         	1.633
MS.468         	10.245         	1.293
MS.469         	10.225         	1.148
MS.470         	10.205         	1.499
MS.471         	10.185         	1.652
MS.472         	10.165         	1.126
MS.473         	10.145         	1.221
MS.474         	10.122         	1.174
MS.475         	10.102         	1.078
MS.476         	10.082         	1.156
MS.477         	10.062         	1.45
MS.478         	10.042         	0.761
MS.479         	10.023         	0.826
MS.480         	10.002         	0.92
MS.481         	9.983          	0.667
MS.482         	9.962          	0.536
MS.483         	9.943          	0.504
MS.484         	9.922          	0.288
MS.485         	9.903          	0.409
MS.486         	9.882          	0.413
MS.487         	9.865          	0.749
MS.488         	9.845          	0.435
MS.489         	9.825          	0.365
MS.490         	9.805          	0.528
MS.491         	9.785          	0.312
MS.492         	9.765          	0.383
MS.493         	9.745          	0.228
MS.494         	9.727          	0.397
MS.495         	9.707          	0.195
MS.496         	9.688          	0.252
MS.497         	9.667          	0.205
MS.498         	9.65           	0.232
MS.499         	9.63           	0.199
