File:              	C:\Qtrac\Data\Daniel M Sørensen\MScan multicentre study\Data from centres\Aarhus\Processed data\DMSB91202B.QZD
Name:              	DK.AAR.NC.5.1
Protocol:          	MSCAN-R2
Date:              	2/12/19
Start time:        	11:22:06
Age:               	57
Sex:               	f
Temperature:       	34,0
S/R sites:         	ADM
NC/disease:        	Controle
Operator:          	DS
Comments:
M-SCAN DATA (9.8-1.8m)
Scanpts: 60, 77, 576, 624
Stim. (mA)     	Amp. (mV)
MS.1           	31             	9.142
MS.2           	31             	9.158
MS.3           	31             	9.168
MS.4           	31             	9.172
MS.5           	31             	9.174
MS.6           	31             	9.237
MS.7           	31             	9.227
MS.8           	31             	9.257
MS.9           	31             	9.195
MS.10          	31             	9.219
MS.11          	31             	9.211
MS.12          	31             	9.215
MS.13          	31             	9.179
MS.14          	31             	9.295
MS.15          	31             	9.318
MS.16          	31             	9.336
MS.17          	31             	9.33
MS.18          	31             	9.303
MS.19          	31             	9.277
MS.20          	31             	9.293
MS.21          	31             	9.378
MS.22          	31             	9.289
MS.23          	31             	9.328
MS.24          	30.875         	9.275
MS.25          	30.752         	9.338
MS.26          	30.692         	9.324
MS.27          	30.63          	9.301
MS.28          	30.57          	9.362
MS.29          	30.507         	9.334
MS.30          	30.448         	9.299
MS.31          	30.385         	9.311
MS.32          	30.325         	9.311
MS.33          	30.265         	9.307
MS.34          	30.205         	9.322
MS.35          	30.145         	9.326
MS.36          	30.082         	9.33
MS.37          	30.022         	9.34
MS.38          	29.962         	9.344
MS.39          	29.903         	9.384
MS.40          	29.845         	9.354
MS.41          	29.785         	9.336
MS.42          	29.725         	9.328
MS.43          	29.665         	9.338
MS.44          	29.605         	9.336
MS.45          	29.547         	9.358
MS.46          	29.487         	9.326
MS.47          	29.43          	9.352
MS.48          	29.37          	9.326
MS.49          	29.312         	9.313
MS.50          	29.252         	9.352
MS.51          	29.195         	9.356
MS.52          	29.137         	9.346
MS.53          	29.077         	9.358
MS.54          	29.02          	9.326
MS.55          	28.962         	9.324
MS.56          	28.905         	9.33
MS.57          	28.847         	9.374
MS.58          	28.787         	9.33
MS.59          	28.73          	9.35
MS.60          	28.675         	9.315
MS.61          	28.618         	9.336
MS.62          	28.56          	9.328
MS.63          	28.502         	9.352
MS.64          	28.445         	9.342
MS.65          	28.387         	9.362
MS.66          	28.332         	9.348
MS.67          	28.275         	9.35
MS.68          	28.217         	9.352
MS.69          	28.162         	9.356
MS.70          	28.105         	9.358
MS.71          	28.05          	9.338
MS.72          	27.995         	9.35
MS.73          	27.938         	9.338
MS.74          	27.882         	9.334
MS.75          	27.827         	9.33
MS.76          	27.77          	9.35
MS.77          	27.715         	9.356
MS.78          	27.66          	9.368
MS.79          	27.605         	9.364
MS.80          	27.55          	9.354
MS.81          	27.495         	9.36
MS.82          	27.44          	9.346
MS.83          	27.385         	9.328
MS.84          	27.33          	9.366
MS.85          	27.275         	9.342
MS.86          	27.22          	9.32
MS.87          	27.167         	9.309
MS.88          	27.112         	9.34
MS.89          	27.057         	9.32
MS.90          	27.005         	9.342
MS.91          	26.95          	9.328
MS.92          	26.895         	9.37
MS.93          	26.842         	9.309
MS.94          	26.79          	9.36
MS.95          	26.735         	9.336
MS.96          	26.682         	9.338
MS.97          	26.627         	9.35
MS.98          	26.575         	9.309
MS.99          	26.522         	9.342
MS.100         	26.47          	9.313
MS.101         	26.417         	9.33
MS.102         	26.362         	9.305
MS.103         	26.31          	9.36
MS.104         	26.257         	9.313
MS.105         	26.205         	9.338
MS.106         	26.153         	9.295
MS.107         	26.1           	9.32
MS.108         	26.05          	9.299
MS.109         	25.997         	9.338
MS.110         	25.945         	9.309
MS.111         	25.892         	9.267
MS.112         	25.842         	9.279
MS.113         	25.79          	9.305
MS.114         	25.737         	9.275
MS.115         	25.688         	9.293
MS.116         	25.635         	9.283
MS.117         	25.585         	9.33
MS.118         	25.532         	9.291
MS.119         	25.483         	9.269
MS.120         	25.432         	9.269
MS.121         	25.38          	9.259
MS.122         	25.33          	9.263
MS.123         	25.28          	9.259
MS.124         	25.227         	9.279
MS.125         	25.177         	9.259
MS.126         	25.127         	9.221
MS.127         	25.077         	9.235
MS.128         	25.028         	9.267
MS.129         	24.977         	9.249
MS.130         	24.927         	9.301
MS.131         	24.877         	9.271
MS.132         	24.827         	9.251
MS.133         	24.778         	9.277
MS.134         	24.73          	9.271
MS.135         	24.68          	9.249
MS.136         	24.63          	9.253
MS.137         	24.58          	9.267
MS.138         	24.532         	9.295
MS.139         	24.483         	9.245
MS.140         	24.435         	9.225
MS.141         	24.385         	9.233
MS.142         	24.337         	9.257
MS.143         	24.288         	9.251
MS.144         	24.24          	9.261
MS.145         	24.19          	9.197
MS.146         	24.142         	9.249
MS.147         	24.095         	9.174
MS.148         	24.047         	9.078
MS.149         	23.997         	9.066
MS.150         	23.95          	9.193
MS.151         	23.903         	9.118
MS.152         	23.855         	9.211
MS.153         	23.807         	9.13
MS.154         	23.76          	9.104
MS.155         	23.712         	9.068
MS.156         	23.665         	8.999
MS.157         	23.618         	9.078
MS.158         	23.57          	9.114
MS.159         	23.522         	9.054
MS.160         	23.475         	9.098
MS.161         	23.43          	8.919
MS.162         	23.382         	8.973
MS.163         	23.335         	8.88
MS.164         	23.29          	8.969
MS.165         	23.243         	8.882
MS.166         	23.195         	8.903
MS.167         	23.15          	8.788
MS.168         	23.102         	9.09
MS.169         	23.057         	8.81
MS.170         	23.01          	8.844
MS.171         	22.965         	8.619
MS.172         	22.92          	8.691
MS.173         	22.872         	8.83
MS.174         	22.827         	8.854
MS.175         	22.782         	8.786
MS.176         	22.737         	8.625
MS.177         	22.692         	8.586
MS.178         	22.645         	8.864
MS.179         	22.6           	8.57
MS.180         	22.555         	8.77
MS.181         	22.51          	8.834
MS.182         	22.465         	8.619
MS.183         	22.42          	8.649
MS.184         	22.375         	8.655
MS.185         	22.33          	8.705
MS.186         	22.288         	8.6
MS.187         	22.243         	8.526
MS.188         	22.198         	8.554
MS.189         	22.153         	8.52
MS.190         	22.11          	8.488
MS.191         	22.065         	8.488
MS.192         	22.02          	8.538
MS.193         	21.977         	8.544
MS.194         	21.932         	8.506
MS.195         	21.89          	8.496
MS.196         	21.845         	8.425
MS.197         	21.802         	8.468
MS.198         	21.757         	8.437
MS.199         	21.715         	8.435
MS.200         	21.67          	8.353
MS.201         	21.627         	8.373
MS.202         	21.585         	8.266
MS.203         	21.542         	8.506
MS.204         	21.497         	8.367
MS.205         	21.455         	8.28
MS.206         	21.413         	7.998
MS.207         	21.37          	8.349
MS.208         	21.327         	8.256
MS.209         	21.285         	8.115
MS.210         	21.243         	8.202
MS.211         	21.2           	8.248
MS.212         	21.157         	7.982
MS.213         	21.115         	8.091
MS.214         	21.073         	8.117
MS.215         	21.03          	8.302
MS.216         	20.987         	8.218
MS.217         	20.948         	8.012
MS.218         	20.905         	8.151
MS.219         	20.862         	8.105
MS.220         	20.823         	8.155
MS.221         	20.78          	8
MS.222         	20.737         	7.936
MS.223         	20.698         	8.129
MS.224         	20.655         	7.658
MS.225         	20.615         	8.051
MS.226         	20.573         	7.851
MS.227         	20.532         	7.938
MS.228         	20.49          	7.912
MS.229         	20.45          	7.918
MS.230         	20.41          	7.765
MS.231         	20.368         	7.811
MS.232         	20.327         	7.626
MS.233         	20.288         	7.75
MS.234         	20.247         	7.599
MS.235         	20.205         	7.597
MS.236         	20.165         	7.106
MS.237         	20.125         	7.557
MS.238         	20.085         	7.003
MS.239         	20.045         	7.525
MS.240         	20.005         	7.396
MS.241         	19.965         	7.044
MS.242         	19.925         	7.056
MS.243         	19.885         	7.422
MS.244         	19.845         	6.993
MS.245         	19.805         	7.525
MS.246         	19.767         	6.768
MS.247         	19.727         	7.299
MS.248         	19.688         	6.77
MS.249         	19.647         	7.35
MS.250         	19.61          	6.655
MS.251         	19.57          	7.34
MS.252         	19.53          	6.939
MS.253         	19.493         	6.733
MS.254         	19.452         	6.556
MS.255         	19.415         	6.894
MS.256         	19.375         	6.353
MS.257         	19.337         	6.482
MS.258         	19.297         	6.639
MS.259         	19.26          	6.52
MS.260         	19.22          	6.032
MS.261         	19.182         	6.488
MS.262         	19.145         	6.133
MS.263         	19.105         	5.841
MS.264         	19.067         	5.763
MS.265         	19.03          	5.914
MS.266         	18.993         	5.62
MS.267         	18.952         	6.087
MS.268         	18.915         	5.863
MS.269         	18.877         	5.877
MS.270         	18.84          	5.833
MS.271         	18.802         	5.845
MS.272         	18.765         	5.716
MS.273         	18.727         	5.497
MS.274         	18.69          	5.4
MS.275         	18.653         	5.134
MS.276         	18.615         	5.44
MS.277         	18.577         	5.394
MS.278         	18.54          	5.47
MS.279         	18.505         	5.259
MS.280         	18.467         	5.229
MS.281         	18.43          	4.888
MS.282         	18.392         	5.406
MS.283         	18.358         	5.249
MS.284         	18.32          	5.128
MS.285         	18.282         	4.755
MS.286         	18.247         	4.87
MS.287         	18.21          	4.83
MS.288         	18.175         	4.925
MS.289         	18.137         	4.641
MS.290         	18.102         	5.221
MS.291         	18.065         	4.473
MS.292         	18.03          	4.832
MS.293         	17.993         	4.365
MS.294         	17.958         	4.709
MS.295         	17.92          	3.946
MS.296         	17.885         	4.51
MS.297         	17.85          	4.151
MS.298         	17.815         	4.341
MS.299         	17.778         	3.92
MS.300         	17.743         	3.982
MS.301         	17.708         	4.059
MS.302         	17.672         	3.611
MS.303         	17.637         	3.642
MS.304         	17.602         	3.698
MS.305         	17.567         	3.883
MS.306         	17.53          	3.654
MS.307         	17.495         	3.662
MS.308         	17.46          	3.474
MS.309         	17.427         	3.634
MS.310         	17.392         	3.257
MS.311         	17.358         	3.406
MS.312         	17.323         	3.364
MS.313         	17.288         	3.241
MS.314         	17.253         	3.146
MS.315         	17.217         	3.265
MS.316         	17.185         	3.162
MS.317         	17.15          	3.174
MS.318         	17.115         	3.182
MS.319         	17.083         	3.283
MS.320         	17.047         	3.096
MS.321         	17.012         	3.128
MS.322         	16.98          	2.9
MS.323         	16.945         	2.921
MS.324         	16.913         	2.832
MS.325         	16.878         	2.846
MS.326         	16.845         	2.908
MS.327         	16.81          	3.019
MS.328         	16.778         	2.864
MS.329         	16.743         	2.84
MS.330         	16.71          	2.691
MS.331         	16.675         	2.832
MS.332         	16.642         	2.669
MS.333         	16.61          	2.87
MS.334         	16.577         	2.56
MS.335         	16.542         	2.614
MS.336         	16.51          	2.838
MS.337         	16.477         	2.548
MS.338         	16.445         	2.624
MS.339         	16.413         	2.453
MS.340         	16.378         	2.439
MS.341         	16.345         	2.268
MS.342         	16.312         	2.465
MS.343         	16.28          	2.161
MS.344         	16.247         	1.968
MS.345         	16.215         	1.861
MS.346         	16.182         	2.28
MS.347         	16.15          	2.028
MS.348         	16.118         	2.143
MS.349         	16.087         	1.97
MS.350         	16.055         	2.224
MS.351         	16.022         	1.843
MS.352         	15.99          	1.954
MS.353         	15.957         	1.917
MS.354         	15.927         	1.855
MS.355         	15.895         	1.791
MS.356         	15.862         	1.793
MS.357         	15.83          	1.785
MS.358         	15.8           	1.785
MS.359         	15.767         	1.549
MS.360         	15.737         	1.859
MS.361         	15.705         	1.718
MS.362         	15.672         	1.875
MS.363         	15.642         	1.642
MS.364         	15.61          	1.629
MS.365         	15.58          	1.521
MS.366         	15.55          	1.488
MS.367         	15.517         	1.303
MS.368         	15.487         	1.434
MS.369         	15.455         	1.235
MS.370         	15.425         	1.43
MS.371         	15.395         	1.259
MS.372         	15.362         	1.48
MS.373         	15.332         	1.335
MS.374         	15.302         	1.301
MS.375         	15.273         	1.251
MS.376         	15.24          	1.438
MS.377         	15.21          	1.138
MS.378         	15.18          	1.499
MS.379         	15.15          	1.053
MS.380         	15.12          	1.301
MS.381         	15.09          	1.049
MS.382         	15.06          	1.118
MS.383         	15.03          	1.055
MS.384         	15             	1.037
MS.385         	14.97          	1.017
MS.386         	14.94          	0.983
MS.387         	14.91          	0.971
MS.388         	14.88          	1.021
MS.389         	14.85          	1.039
MS.390         	14.82          	0.912
MS.391         	14.79          	0.866
MS.392         	14.76          	0.904
MS.393         	14.733         	0.832
MS.394         	14.702         	0.816
MS.395         	14.672         	0.846
MS.396         	14.642         	0.87
MS.397         	14.615         	0.792
MS.398         	14.585         	0.87
MS.399         	14.555         	0.806
MS.400         	14.527         	0.828
MS.401         	14.497         	0.769
MS.402         	14.467         	0.798
MS.403         	14.44          	0.806
MS.404         	14.41          	0.779
MS.405         	14.382         	0.802
MS.406         	14.352         	0.876
MS.407         	14.325         	0.775
MS.408         	14.295         	0.721
MS.409         	14.267         	0.781
MS.410         	14.24          	0.769
MS.411         	14.21          	0.747
MS.412         	14.182         	0.739
MS.413         	14.155         	0.769
MS.414         	14.125         	0.769
MS.415         	14.097         	0.743
MS.416         	14.07          	0.665
MS.417         	14.04          	0.669
MS.418         	14.012         	0.572
MS.419         	13.985         	0.636
MS.420         	13.957         	0.419
MS.421         	13.93          	0.649
MS.422         	13.903         	0.487
MS.423         	13.872         	0.487
MS.424         	13.845         	0.411
MS.425         	13.818         	0.56
MS.426         	13.79          	0.393
MS.427         	13.762         	0.512
MS.428         	13.735         	0.403
MS.429         	13.707         	0.451
MS.430         	13.68          	0.365
MS.431         	13.653         	0.427
MS.432         	13.625         	0.433
MS.433         	13.6           	0.352
MS.434         	13.572         	0.318
MS.435         	13.545         	0.461
MS.436         	13.517         	0.387
MS.437         	13.49          	0.304
MS.438         	13.462         	0.399
MS.439         	13.438         	0.413
MS.440         	13.41          	0.437
MS.441         	13.382         	0.278
MS.442         	13.355         	0.254
MS.443         	13.33          	0.296
MS.444         	13.302         	0.209
MS.445         	13.278         	0.262
MS.446         	13.25          	0.244
MS.447         	13.222         	0.33
MS.448         	13.197         	0.228
MS.449         	13.17          	0.266
MS.450         	13.145         	0.248
MS.451         	13.117         	0.306
MS.452         	13.092         	0.226
MS.453         	13.065         	0.264
MS.454         	13.04          	0.224
MS.455         	13.012         	0.193
MS.456         	12.987         	0.209
MS.457         	12.962         	0.187
MS.458         	12.935         	0.207
MS.459         	12.91          	0.262
MS.460         	12.885         	0.189
MS.461         	12.858         	0.205
MS.462         	12.832         	0.187
MS.463         	12.807         	0.203
MS.464         	12.782         	0.165
MS.465         	12.755         	0.199
MS.466         	12.73          	0.157
MS.467         	12.705         	0.173
MS.468         	12.68          	0.214
MS.469         	12.655         	0.22
MS.470         	12.63          	0.151
MS.471         	12.602         	0.179
MS.472         	12.577         	0.115
MS.473         	12.552         	0.151
MS.474         	12.528         	0.147
MS.475         	12.502         	0.131
MS.476         	12.477         	0.113
MS.477         	12.452         	0.167
MS.478         	12.427         	0.113
MS.479         	12.403         	0.185
MS.480         	12.38          	0.135
MS.481         	12.355         	0.097
MS.482         	12.33          	0.137
MS.483         	12.305         	0.109
MS.484         	12.28          	0.101
MS.485         	12.255         	0.127
MS.486         	12.23          	0.105
MS.487         	12.207         	0.113
MS.488         	12.182         	0.117
MS.489         	12.157         	0.113
MS.490         	12.132         	0.101
MS.491         	12.11          	0.119
MS.492         	12.085         	0.115
MS.493         	12.06          	0.121
MS.494         	12.037         	0.141
MS.495         	12.012         	0.107
MS.496         	11.99          	0.083
MS.497         	11.965         	0.111
MS.498         	11.94          	0.105
MS.499         	11.917         	0.091
MS.500         	11.892         	0.089
MS.501         	11.87          	0.091
