File:              	C:\Qtrac\Data\Daniel M Sørensen\MScan multicentre study\Data from centres\Aarhus\Processed data\DMSB91202C.QZD
Name:              	DK.AAR.NC.5.1
Protocol:          	MSCAN-R2
Date:              	2/12/19
Start time:        	11:38:45
Age:               	57
Sex:               	f
Temperature:       	33,8
S/R sites:         	TA
NC/disease:        	Controle
Operator:          	DS
Comments:
M-SCAN DATA (11.1-3.9m)
Scanpts: 164, 175, 738, 759
Stim. (mA)     	Amp. (mV)
MS.1           	26             	7.996
MS.2           	26             	8.014
MS.3           	26             	8.039
MS.4           	26             	7.966
MS.5           	26             	7.974
MS.6           	26             	7.966
MS.7           	26             	7.978
MS.8           	26             	7.928
MS.9           	26             	7.954
MS.10          	26             	7.942
MS.11          	26             	7.954
MS.12          	26             	7.95
MS.13          	26             	7.958
MS.14          	26             	7.93
MS.15          	26             	7.94
MS.16          	26             	7.912
MS.17          	26             	7.944
MS.18          	26             	7.938
MS.19          	26             	7.938
MS.20          	26             	7.95
MS.21          	26             	7.938
MS.22          	26             	7.926
MS.23          	26             	7.954
MS.24          	25.845         	7.928
MS.25          	25.792         	7.916
MS.26          	25.74          	7.932
MS.27          	25.69          	7.928
MS.28          	25.637         	7.912
MS.29          	25.587         	7.926
MS.30          	25.535         	7.922
MS.31          	25.485         	7.91
MS.32          	25.435         	7.942
MS.33          	25.382         	7.93
MS.34          	25.332         	7.934
MS.35          	25.282         	7.918
MS.36          	25.233         	7.918
MS.37          	25.18          	7.92
MS.38          	25.13          	7.944
MS.39          	25.08          	7.942
MS.40          	25.03          	7.916
MS.41          	24.98          	7.938
MS.42          	24.93          	7.948
MS.43          	24.88          	7.932
MS.44          	24.83          	7.94
MS.45          	24.782         	7.938
MS.46          	24.733         	7.966
MS.47          	24.682         	7.962
MS.48          	24.632         	7.968
MS.49          	24.585         	7.972
MS.50          	24.535         	7.952
MS.51          	24.485         	7.978
MS.52          	24.438         	7.97
MS.53          	24.387         	7.972
MS.54          	24.34          	7.966
MS.55          	24.29          	7.97
MS.56          	24.243         	7.982
MS.57          	24.192         	7.994
MS.58          	24.145         	7.998
MS.59          	24.097         	7.974
MS.60          	24.05          	8
MS.61          	24             	7.982
MS.62          	23.952         	7.988
MS.63          	23.905         	8.006
MS.64          	23.858         	7.992
MS.65          	23.81          	7.99
MS.66          	23.762         	7.988
MS.67          	23.715         	7.986
MS.68          	23.667         	8.004
MS.69          	23.62          	8.012
MS.70          	23.573         	7.99
MS.71          	23.525         	8.004
MS.72          	23.477         	8.002
MS.73          	23.432         	8.016
MS.74          	23.385         	8.014
MS.75          	23.337         	8
MS.76          	23.292         	8.02
MS.77          	23.245         	8.008
MS.78          	23.198         	8.018
MS.79          	23.153         	8.004
MS.80          	23.105         	8.016
MS.81          	23.06          	8.014
MS.82          	23.015         	8.03
MS.83          	22.967         	8.036
MS.84          	22.922         	8.006
MS.85          	22.875         	8.026
MS.86          	22.83          	8.02
MS.87          	22.785         	8.024
MS.88          	22.74          	8.028
MS.89          	22.695         	8.036
MS.90          	22.647         	8.006
MS.91          	22.602         	8.008
MS.92          	22.557         	8.014
MS.93          	22.512         	8.02
MS.94          	22.467         	8.03
MS.95          	22.422         	8.02
MS.96          	22.377         	8.014
MS.97          	22.332         	8.032
MS.98          	22.29          	8.059
MS.99          	22.245         	8.02
MS.100         	22.2           	8.032
MS.101         	22.155         	8.024
MS.102         	22.112         	8.039
MS.103         	22.067         	8.045
MS.104         	22.022         	8.045
MS.105         	21.98          	8.049
MS.106         	21.935         	8.036
MS.107         	21.892         	8.036
MS.108         	21.847         	8.051
MS.109         	21.805         	8.065
MS.110         	21.76          	8.039
MS.111         	21.717         	8.051
MS.112         	21.672         	8.041
MS.113         	21.63          	8.053
MS.114         	21.587         	8.063
MS.115         	21.545         	8.053
MS.116         	21.5           	8.067
MS.117         	21.458         	8.039
MS.118         	21.415         	8.051
MS.119         	21.372         	8.055
MS.120         	21.33          	8.03
MS.121         	21.288         	8.047
MS.122         	21.245         	8.032
MS.123         	21.202         	8.034
MS.124         	21.16          	8.057
MS.125         	21.118         	8.028
MS.126         	21.075         	8.057
MS.127         	21.032         	8.045
MS.128         	20.99          	8.032
MS.129         	20.95          	8.036
MS.130         	20.907         	8.057
MS.131         	20.865         	8.049
MS.132         	20.823         	8.065
MS.133         	20.782         	8.055
MS.134         	20.74          	8.067
MS.135         	20.7           	8.039
MS.136         	20.657         	8.041
MS.137         	20.618         	8.049
MS.138         	20.575         	8.045
MS.139         	20.535         	8.047
MS.140         	20.493         	8.071
MS.141         	20.452         	8.067
MS.142         	20.413         	8.077
MS.143         	20.37          	8.028
MS.144         	20.33          	8.063
MS.145         	20.29          	8.065
MS.146         	20.247         	8.039
MS.147         	20.208         	8.079
MS.148         	20.167         	8.059
MS.149         	20.127         	8.043
MS.150         	20.087         	8.083
MS.151         	20.047         	8.073
MS.152         	20.007         	8.071
MS.153         	19.967         	8.079
MS.154         	19.927         	8.071
MS.155         	19.887         	8.063
MS.156         	19.847         	8.045
MS.157         	19.807         	8.063
MS.158         	19.767         	8.073
MS.159         	19.73          	8.073
MS.160         	19.69          	8.071
MS.161         	19.65          	8.077
MS.162         	19.61          	8.075
MS.163         	19.573         	8.075
MS.164         	19.532         	8.083
MS.165         	19.493         	8.069
MS.166         	19.455         	8.057
MS.167         	19.415         	8.075
MS.168         	19.377         	8.097
MS.169         	19.337         	8.089
MS.170         	19.3           	8.081
MS.171         	19.26          	8.101
MS.172         	19.222         	8.093
MS.173         	19.185         	8.097
MS.174         	19.145         	8.065
MS.175         	19.108         	8.105
MS.176         	19.07          	8.083
MS.177         	19.032         	8.079
MS.178         	18.993         	8.085
MS.179         	18.955         	8.093
MS.180         	18.917         	8.087
MS.181         	18.88          	8.097
MS.182         	18.842         	8.083
MS.183         	18.805         	8.095
MS.184         	18.767         	8.057
MS.185         	18.73          	8.063
MS.186         	18.692         	8.091
MS.187         	18.655         	8.061
MS.188         	18.618         	8.075
MS.189         	18.58          	8.073
MS.190         	18.542         	8.026
MS.191         	18.505         	8.045
MS.192         	18.47          	8.006
MS.193         	18.432         	8.03
MS.194         	18.395         	8.03
MS.195         	18.358         	8.034
MS.196         	18.323         	8.039
MS.197         	18.285         	8.043
MS.198         	18.247         	8.069
MS.199         	18.212         	8.047
MS.200         	18.175         	8.002
MS.201         	18.14          	8.03
MS.202         	18.102         	8.026
MS.203         	18.067         	8.016
MS.204         	18.03          	8.008
MS.205         	17.995         	8.01
MS.206         	17.96          	8.004
MS.207         	17.922         	8.045
MS.208         	17.887         	8.008
MS.209         	17.852         	8.039
MS.210         	17.815         	8.002
MS.211         	17.78          	7.992
MS.212         	17.745         	8.004
MS.213         	17.71          	7.996
MS.214         	17.675         	7.976
MS.215         	17.637         	7.98
MS.216         	17.602         	8.008
MS.217         	17.567         	7.996
MS.218         	17.532         	7.982
MS.219         	17.497         	7.968
MS.220         	17.462         	7.99
MS.221         	17.427         	7.962
MS.222         	17.392         	7.92
MS.223         	17.358         	7.94
MS.224         	17.325         	7.904
MS.225         	17.29          	7.906
MS.226         	17.255         	7.891
MS.227         	17.22          	7.891
MS.228         	17.185         	7.869
MS.229         	17.153         	7.849
MS.230         	17.118         	7.799
MS.231         	17.083         	7.819
MS.232         	17.05          	7.837
MS.233         	17.015         	7.823
MS.234         	16.98          	7.75
MS.235         	16.948         	7.801
MS.236         	16.913         	7.761
MS.237         	16.88          	7.744
MS.238         	16.845         	7.753
MS.239         	16.812         	7.718
MS.240         	16.778         	7.74
MS.241         	16.745         	7.692
MS.242         	16.712         	7.696
MS.243         	16.677         	7.678
MS.244         	16.645         	7.775
MS.245         	16.612         	7.708
MS.246         	16.577         	7.694
MS.247         	16.545         	7.664
MS.248         	16.512         	7.68
MS.249         	16.48          	7.678
MS.250         	16.445         	7.628
MS.251         	16.413         	7.636
MS.252         	16.38          	7.589
MS.253         	16.347         	7.618
MS.254         	16.315         	7.618
MS.255         	16.282         	7.555
MS.256         	16.25          	7.585
MS.257         	16.217         	7.66
MS.258         	16.185         	7.593
MS.259         	16.153         	7.356
MS.260         	16.12          	7.583
MS.261         	16.087         	7.539
MS.262         	16.055         	7.485
MS.263         	16.025         	7.438
MS.264         	15.992         	7.479
MS.265         	15.96          	7.591
MS.266         	15.927         	7.42
MS.267         	15.898         	7.4
MS.268         	15.865         	7.388
MS.269         	15.832         	7.432
MS.270         	15.802         	7.426
MS.271         	15.77          	7.412
MS.272         	15.737         	7.444
MS.273         	15.707         	7.382
MS.274         	15.675         	7.396
MS.275         	15.645         	7.416
MS.276         	15.612         	7.326
MS.277         	15.582         	7.332
MS.278         	15.55          	7.313
MS.279         	15.52          	7.334
MS.280         	15.487         	7.311
MS.281         	15.457         	7.338
MS.282         	15.427         	7.348
MS.283         	15.395         	7.265
MS.284         	15.365         	7.297
MS.285         	15.335         	7.267
MS.286         	15.302         	7.273
MS.287         	15.273         	7.319
MS.288         	15.242         	7.255
MS.289         	15.212         	7.297
MS.290         	15.182         	7.287
MS.291         	15.152         	7.295
MS.292         	15.12          	7.303
MS.293         	15.09          	7.354
MS.294         	15.06          	7.243
MS.295         	15.03          	7.301
MS.296         	15             	7.34
MS.297         	14.97          	7.303
MS.298         	14.94          	7.291
MS.299         	14.91          	7.313
MS.300         	14.88          	7.303
MS.301         	14.852         	7.311
MS.302         	14.822         	7.311
MS.303         	14.792         	7.277
MS.304         	14.762         	7.301
MS.305         	14.733         	7.315
MS.306         	14.702         	7.128
MS.307         	14.675         	7.239
MS.308         	14.645         	7.235
MS.309         	14.615         	7.273
MS.310         	14.587         	7.172
MS.311         	14.557         	7.257
MS.312         	14.527         	7.154
MS.313         	14.5           	7.195
MS.314         	14.47          	7.082
MS.315         	14.443         	7.118
MS.316         	14.412         	7.126
MS.317         	14.382         	7.124
MS.318         	14.355         	7.082
MS.319         	14.325         	7.096
MS.320         	14.297         	6.979
MS.321         	14.27          	7.066
MS.322         	14.24          	7.027
MS.323         	14.212         	7.068
MS.324         	14.182         	6.961
MS.325         	14.155         	6.995
MS.326         	14.127         	6.955
MS.327         	14.1           	6.907
MS.328         	14.07          	6.967
MS.329         	14.042         	6.945
MS.330         	14.015         	6.905
MS.331         	13.987         	7.029
MS.332         	13.957         	6.987
MS.333         	13.93          	7.001
MS.334         	13.903         	6.933
MS.335         	13.875         	6.919
MS.336         	13.847         	6.945
MS.337         	13.82          	6.969
MS.338         	13.792         	6.985
MS.339         	13.765         	6.963
MS.340         	13.737         	6.973
MS.341         	13.71          	6.85
MS.342         	13.682         	6.917
MS.343         	13.655         	6.921
MS.344         	13.627         	6.858
MS.345         	13.6           	6.81
MS.346         	13.572         	6.866
MS.347         	13.545         	6.796
MS.348         	13.52          	6.832
MS.349         	13.492         	6.826
MS.350         	13.465         	6.766
MS.351         	13.438         	6.751
MS.352         	13.41          	6.715
MS.353         	13.385         	6.755
MS.354         	13.358         	6.681
MS.355         	13.33          	6.731
MS.356         	13.305         	6.598
MS.357         	13.278         	6.645
MS.358         	13.252         	6.669
MS.359         	13.225         	6.665
MS.360         	13.197         	6.562
MS.361         	13.172         	6.564
MS.362         	13.145         	6.57
MS.363         	13.12          	6.576
MS.364         	13.092         	6.51
MS.365         	13.068         	6.445
MS.366         	13.04          	6.463
MS.367         	13.015         	6.449
MS.368         	12.99          	6.401
MS.369         	12.962         	6.395
MS.370         	12.938         	6.441
MS.371         	12.91          	6.244
MS.372         	12.885         	6.373
MS.373         	12.86          	6.393
MS.374         	12.835         	6.357
MS.375         	12.807         	6.27
MS.376         	12.782         	6.306
MS.377         	12.757         	6.22
MS.378         	12.733         	6.151
MS.379         	12.705         	6.014
MS.380         	12.68          	6.163
MS.381         	12.655         	6.018
MS.382         	12.63          	6.111
MS.383         	12.605         	6.02
MS.384         	12.58          	5.954
MS.385         	12.555         	5.861
MS.386         	12.53          	5.815
MS.387         	12.505         	5.928
MS.388         	12.48          	5.791
MS.389         	12.455         	5.738
MS.390         	12.43          	5.829
MS.391         	12.405         	5.521
MS.392         	12.38          	5.652
MS.393         	12.355         	5.632
MS.394         	12.33          	5.605
MS.395         	12.305         	5.684
MS.396         	12.282         	5.511
MS.397         	12.257         	5.585
MS.398         	12.233         	5.352
MS.399         	12.207         	5.325
MS.400         	12.182         	5.277
MS.401         	12.16          	5.325
MS.402         	12.135         	5.263
MS.403         	12.11          	5.287
MS.404         	12.087         	5.168
MS.405         	12.062         	5.182
MS.406         	12.037         	5.019
MS.407         	12.015         	5.08
MS.408         	11.99          	5.164
MS.409         	11.967         	4.971
MS.410         	11.943         	4.919
MS.411         	11.917         	4.961
MS.412         	11.895         	4.852
MS.413         	11.87          	4.975
MS.414         	11.847         	4.83
MS.415         	11.822         	4.876
MS.416         	11.8           	4.814
MS.417         	11.778         	4.657
MS.418         	11.752         	4.882
MS.419         	11.73          	4.731
MS.420         	11.705         	4.643
MS.421         	11.682         	4.5
MS.422         	11.66          	4.359
MS.423         	11.635         	4.667
MS.424         	11.613         	4.514
MS.425         	11.59          	4.449
MS.426         	11.568         	4.496
MS.427         	11.542         	4.367
MS.428         	11.52          	4.395
MS.429         	11.497         	4.395
MS.430         	11.475         	4.31
MS.431         	11.45          	4.111
MS.432         	11.427         	4.101
MS.433         	11.405         	4.238
MS.434         	11.382         	4.087
MS.435         	11.36          	4.057
MS.436         	11.337         	4.059
MS.437         	11.315         	3.954
MS.438         	11.292         	3.887
MS.439         	11.27          	4.008
MS.440         	11.247         	3.94
MS.441         	11.225         	3.938
MS.442         	11.202         	3.889
MS.443         	11.18          	3.811
MS.444         	11.157         	3.728
MS.445         	11.135         	3.724
MS.446         	11.113         	3.724
MS.447         	11.09          	3.831
MS.448         	11.068         	3.752
MS.449         	11.047         	3.674
MS.450         	11.025         	3.595
MS.451         	11.002         	3.621
MS.452         	10.98          	3.573
MS.453         	10.957         	3.579
MS.454         	10.938         	3.575
MS.455         	10.915         	3.527
MS.456         	10.892         	3.531
MS.457         	10.87          	3.493
MS.458         	10.85          	3.4
MS.459         	10.827         	3.35
MS.460         	10.805         	3.47
MS.461         	10.785         	3.319
MS.462         	10.762         	3.301
MS.463         	10.742         	3.339
MS.464         	10.72          	3.273
MS.465         	10.698         	3.325
MS.466         	10.677         	3.35
MS.467         	10.655         	3.146
MS.468         	10.635         	3.182
MS.469         	10.613         	3.166
MS.470         	10.592         	3.152
MS.471         	10.57          	3.043
MS.472         	10.55          	3.158
MS.473         	10.528         	3.086
MS.474         	10.507         	3.009
MS.475         	10.488         	3.007
MS.476         	10.465         	2.975
MS.477         	10.445         	2.953
MS.478         	10.425         	2.961
MS.479         	10.403         	2.784
MS.480         	10.382         	2.842
MS.481         	10.363         	2.794
MS.482         	10.34          	2.786
MS.483         	10.32          	2.693
MS.484         	10.3           	2.78
MS.485         	10.28          	2.806
MS.486         	10.257         	2.731
MS.487         	10.238         	2.683
MS.488         	10.217         	2.637
MS.489         	10.198         	2.729
MS.490         	10.177         	2.671
MS.491         	10.157         	2.695
MS.492         	10.135         	2.667
MS.493         	10.115         	2.564
MS.494         	10.095         	2.496
MS.495         	10.075         	2.487
MS.496         	10.055         	2.431
MS.497         	10.035         	2.443
MS.498         	10.015         	2.346
MS.499         	9.995          	2.502
MS.500         	9.975          	2.383
MS.501         	9.955          	2.481
