File:              	C:\Qtrac\Data\Daniel M Sørensen\MScan multicentre study\Data from centres\Aarhus\Processed data\DMSB91205A (2).QZD
Name:              	DK.AAR.NC.8.1
Protocol:          	MSCAN-R2
Date:              	5/12/19
Start time:        	15:27:45
Age:               	75
Sex:               	m
Temperature:       	35,5
S/R sites:         	ADM
NC/disease:        	Control
Operator:          	DS
Comments:
M-SCAN DATA (10.2-2.3m)
Scanpts: 64, 75, 810, 831
Stim. (mA)     	Amp. (mV)
MS.1           	32             	7.932
MS.2           	32             	7.934
MS.3           	32             	7.924
MS.4           	32             	7.896
MS.5           	32             	7.914
MS.6           	32             	7.92
MS.7           	32             	7.928
MS.8           	32             	7.91
MS.9           	32             	7.891
MS.10          	32             	7.885
MS.11          	32             	7.896
MS.12          	32             	7.883
MS.13          	32             	7.877
MS.14          	32             	7.885
MS.15          	32             	7.891
MS.16          	32             	7.891
MS.17          	32             	7.881
MS.18          	32             	7.893
MS.19          	32             	7.881
MS.20          	32             	7.883
MS.21          	32             	7.885
MS.22          	32             	7.912
MS.23          	32             	7.946
MS.24          	31.872         	7.918
MS.25          	31.745         	7.912
MS.26          	31.682         	7.914
MS.27          	31.617         	7.904
MS.28          	31.555         	7.92
MS.29          	31.492         	7.902
MS.30          	31.43          	7.904
MS.31          	31.365         	7.887
MS.32          	31.302         	7.924
MS.33          	31.24          	7.926
MS.34          	31.177         	7.914
MS.35          	31.117         	7.952
MS.36          	31.055         	7.938
MS.37          	30.992         	7.942
MS.38          	30.93          	7.952
MS.39          	30.867         	7.932
MS.40          	30.807         	7.934
MS.41          	30.745         	7.952
MS.42          	30.682         	7.946
MS.43          	30.622         	7.954
MS.44          	30.56          	7.972
MS.45          	30.5           	7.974
MS.46          	30.44          	7.962
MS.47          	30.377         	7.974
MS.48          	30.317         	7.97
MS.49          	30.257         	7.994
MS.50          	30.198         	7.97
MS.51          	30.137         	7.96
MS.52          	30.075         	7.982
MS.53          	30.015         	7.938
MS.54          	29.955         	7.992
MS.55          	29.895         	7.946
MS.56          	29.837         	7.99
MS.57          	29.778         	7.986
MS.58          	29.717         	7.998
MS.59          	29.657         	7.952
MS.60          	29.597         	7.986
MS.61          	29.54          	8.012
MS.62          	29.48          	8.022
MS.63          	29.422         	8.043
MS.64          	29.362         	8.012
MS.65          	29.305         	8.004
MS.66          	29.245         	7.98
MS.67          	29.188         	7.996
MS.68          	29.13          	8.006
MS.69          	29.07          	7.984
MS.70          	29.012         	8.002
MS.71          	28.955         	7.996
MS.72          	28.897         	7.986
MS.73          	28.84          	7.998
MS.74          	28.782         	8.049
MS.75          	28.725         	7.98
MS.76          	28.667         	7.988
MS.77          	28.61          	8.012
MS.78          	28.552         	8.047
MS.79          	28.495         	8.047
MS.80          	28.438         	8.01
MS.81          	28.382         	8.024
MS.82          	28.325         	8.002
MS.83          	28.267         	8.026
MS.84          	28.212         	8.004
MS.85          	28.155         	8.022
MS.86          	28.1           	8.02
MS.87          	28.042         	8.039
MS.88          	27.987         	8.081
MS.89          	27.93          	8.047
MS.90          	27.875         	8.022
MS.91          	27.82          	8.028
MS.92          	27.765         	7.932
MS.93          	27.707         	7.98
MS.94          	27.653         	7.946
MS.95          	27.597         	7.942
MS.96          	27.542         	7.92
MS.97          	27.487         	7.928
MS.98          	27.432         	7.893
MS.99          	27.377         	7.966
MS.100         	27.323         	7.946
MS.101         	27.267         	7.908
MS.102         	27.215         	7.922
MS.103         	27.16          	7.93
MS.104         	27.105         	7.857
MS.105         	27.05          	7.811
MS.106         	26.997         	7.755
MS.107         	26.942         	7.817
MS.108         	26.89          	7.797
MS.109         	26.835         	7.75
MS.110         	26.782         	7.738
MS.111         	26.727         	7.706
MS.112         	26.675         	7.718
MS.113         	26.622         	7.696
MS.114         	26.567         	7.722
MS.115         	26.515         	7.755
MS.116         	26.462         	7.75
MS.117         	26.41          	7.757
MS.118         	26.358         	7.761
MS.119         	26.305         	7.771
MS.120         	26.252         	7.799
MS.121         	26.2           	7.66
MS.122         	26.147         	7.688
MS.123         	26.095         	7.626
MS.124         	26.042         	7.789
MS.125         	25.99          	7.539
MS.126         	25.938         	7.69
MS.127         	25.887         	7.517
MS.128         	25.835         	7.529
MS.129         	25.782         	7.62
MS.130         	25.733         	7.509
MS.131         	25.68          	7.634
MS.132         	25.63          	7.543
MS.133         	25.577         	7.511
MS.134         	25.528         	7.561
MS.135         	25.475         	7.545
MS.136         	25.425         	7.521
MS.137         	25.375         	7.579
MS.138         	25.323         	7.706
MS.139         	25.272         	7.595
MS.140         	25.222         	7.521
MS.141         	25.172         	7.591
MS.142         	25.122         	7.575
MS.143         	25.073         	7.577
MS.144         	25.022         	7.567
MS.145         	24.972         	7.583
MS.146         	24.922         	7.581
MS.147         	24.872         	7.539
MS.148         	24.823         	7.567
MS.149         	24.772         	7.585
MS.150         	24.722         	7.555
MS.151         	24.672         	7.587
MS.152         	24.625         	7.593
MS.153         	24.575         	7.573
MS.154         	24.525         	7.567
MS.155         	24.477         	7.471
MS.156         	24.427         	7.448
MS.157         	24.38          	7.462
MS.158         	24.33          	7.448
MS.159         	24.282         	7.412
MS.160         	24.233         	7.434
MS.161         	24.185         	7.38
MS.162         	24.137         	7.434
MS.163         	24.087         	7.382
MS.164         	24.04          	7.299
MS.165         	23.993         	7.255
MS.166         	23.945         	7.257
MS.167         	23.897         	7.118
MS.168         	23.85          	7.243
MS.169         	23.8           	7.174
MS.170         	23.752         	7.108
MS.171         	23.705         	7.217
MS.172         	23.657         	7.223
MS.173         	23.612         	6.927
MS.174         	23.565         	6.943
MS.175         	23.517         	6.939
MS.176         	23.47          	6.975
MS.177         	23.422         	6.947
MS.178         	23.377         	6.931
MS.179         	23.33          	7.001
MS.180         	23.282         	6.973
MS.181         	23.237         	6.798
MS.182         	23.19          	6.774
MS.183         	23.145         	6.838
MS.184         	23.097         	6.631
MS.185         	23.052         	6.659
MS.186         	23.005         	6.615
MS.187         	22.96          	6.53
MS.188         	22.913         	6.427
MS.189         	22.868         	6.308
MS.190         	22.823         	6.453
MS.191         	22.778         	6.359
MS.192         	22.73          	6.538
MS.193         	22.685         	6.643
MS.194         	22.64          	6.58
MS.195         	22.595         	6.449
MS.196         	22.55          	6.635
MS.197         	22.505         	6.556
MS.198         	22.46          	6.403
MS.199         	22.415         	6.353
MS.200         	22.37          	6.455
MS.201         	22.325         	6.268
MS.202         	22.28          	6.28
MS.203         	22.237         	6.258
MS.204         	22.192         	6.117
MS.205         	22.147         	6.272
MS.206         	22.102         	5.996
MS.207         	22.06          	6.173
MS.208         	22.015         	6.141
MS.209         	21.97          	6.262
MS.210         	21.927         	6.032
MS.211         	21.882         	6.25
MS.212         	21.84          	6.169
MS.213         	21.795         	6.083
MS.214         	21.752         	6.367
MS.215         	21.71          	6.049
MS.216         	21.665         	6.109
MS.217         	21.622         	5.932
MS.218         	21.58          	6.032
MS.219         	21.535         	6.018
MS.220         	21.493         	6.059
MS.221         	21.45          	5.994
MS.222         	21.407         	5.95
MS.223         	21.365         	5.863
MS.224         	21.323         	5.829
MS.225         	21.28          	5.684
MS.226         	21.237         	5.547
MS.227         	21.195         	5.607
MS.228         	21.153         	5.539
MS.229         	21.11          	5.474
MS.230         	21.067         	5.374
MS.231         	21.025         	5.418
MS.232         	20.983         	5.422
MS.233         	20.942         	5.287
MS.234         	20.9           	5.402
MS.235         	20.858         	5.245
MS.236         	20.815         	5.362
MS.237         	20.775         	5.247
MS.238         	20.733         	5.243
MS.239         	20.692         	5.108
MS.240         	20.65          	5.182
MS.241         	20.61          	5.096
MS.242         	20.567         	5.027
MS.243         	20.528         	5.136
MS.244         	20.485         	4.959
MS.245         	20.445         	5.096
MS.246         	20.405         	4.957
MS.247         	20.362         	4.931
MS.248         	20.323         	4.979
MS.249         	20.282         	4.721
MS.250         	20.243         	4.755
MS.251         	20.2           	4.86
MS.252         	20.16          	5.001
MS.253         	20.12          	5.114
MS.254         	20.08          	5.309
MS.255         	20.04          	5.027
MS.256         	20             	4.884
MS.257         	19.96          	4.766
MS.258         	19.92          	4.86
MS.259         	19.88          	4.655
MS.260         	19.84          	4.637
MS.261         	19.8           	4.345
MS.262         	19.762         	4.931
MS.263         	19.722         	5.182
MS.264         	19.682         	3.007
MS.265         	19.642         	3.088
MS.266         	19.605         	2.675
MS.267         	19.565         	4.32
MS.268         	19.525         	3.019
MS.269         	19.487         	3.259
MS.270         	19.448         	2.995
MS.271         	19.41          	3.041
MS.272         	19.37          	2.991
MS.273         	19.333         	2.981
MS.274         	19.292         	2.975
MS.275         	19.255         	2.969
MS.276         	19.215         	2.943
MS.277         	19.177         	2.961
MS.278         	19.14          	3.021
MS.279         	19.1           	2.981
MS.280         	19.062         	2.923
MS.281         	19.025         	2.933
MS.282         	18.987         	2.85
MS.283         	18.948         	2.89
MS.284         	18.91          	2.886
MS.285         	18.872         	2.637
MS.286         	18.835         	2.614
MS.287         	18.797         	2.647
MS.288         	18.76          	2.659
MS.289         	18.722         	2.659
MS.290         	18.685         	2.437
MS.291         	18.647         	2.689
MS.292         	18.61          	2.546
MS.293         	18.573         	2.616
MS.294         	18.538         	2.463
MS.295         	18.5           	2.316
MS.296         	18.462         	2.687
MS.297         	18.425         	2.34
MS.298         	18.387         	2.115
MS.299         	18.352         	2.109
MS.300         	18.315         	2.312
MS.301         	18.278         	2.081
MS.302         	18.243         	2.093
MS.303         	18.205         	2.075
MS.304         	18.17          	2.05
MS.305         	18.132         	2.099
MS.306         	18.097         	2.117
MS.307         	18.06          	2.034
MS.308         	18.025         	2.04
MS.309         	17.987         	2.012
MS.310         	17.952         	2.085
MS.311         	17.917         	1.934
MS.312         	17.88          	1.946
MS.313         	17.845         	1.865
MS.314         	17.81          	1.885
MS.315         	17.775         	1.726
MS.316         	17.737         	1.742
MS.317         	17.702         	1.752
MS.318         	17.667         	1.789
MS.319         	17.632         	1.764
MS.320         	17.597         	1.635
MS.321         	17.562         	1.742
MS.322         	17.528         	1.74
MS.323         	17.493         	1.633
MS.324         	17.458         	1.555
MS.325         	17.422         	1.561
MS.326         	17.387         	1.505
MS.327         	17.352         	1.581
MS.328         	17.317         	1.555
MS.329         	17.282         	1.563
MS.330         	17.247         	1.565
MS.331         	17.215         	1.474
MS.332         	17.18          	1.547
MS.333         	17.145         	1.49
MS.334         	17.11          	1.515
MS.335         	17.077         	1.458
MS.336         	17.042         	1.4
MS.337         	17.01          	1.36
MS.338         	16.975         	1.394
MS.339         	16.94          	1.376
MS.340         	16.907         	1.229
MS.341         	16.872         	1.412
MS.342         	16.84          	1.275
MS.343         	16.805         	1.208
MS.344         	16.772         	1.329
MS.345         	16.74          	1.279
MS.346         	16.705         	1.217
MS.347         	16.672         	1.255
MS.348         	16.637         	1.219
MS.349         	16.605         	1.217
MS.350         	16.573         	1.114
MS.351         	16.54          	1.202
MS.352         	16.505         	1.116
MS.353         	16.472         	1.15
MS.354         	16.44          	1.078
MS.355         	16.407         	1.094
MS.356         	16.375         	1.096
MS.357         	16.342         	1.088
MS.358         	16.31          	1.065
MS.359         	16.278         	1.146
MS.360         	16.245         	1.076
MS.361         	16.212         	0.967
MS.362         	16.18          	1.021
MS.363         	16.147         	0.922
MS.364         	16.115         	0.898
MS.365         	16.083         	0.876
MS.366         	16.05          	0.949
MS.367         	16.017         	0.896
MS.368         	15.987         	0.939
MS.369         	15.955         	0.83
MS.370         	15.922         	0.945
MS.371         	15.89          	0.868
MS.372         	15.86          	0.852
MS.373         	15.827         	0.89
MS.374         	15.795         	0.953
MS.375         	15.765         	0.731
MS.376         	15.733         	0.848
MS.377         	15.7           	0.715
MS.378         	15.67          	0.796
MS.379         	15.637         	0.723
MS.380         	15.608         	0.788
MS.381         	15.575         	0.671
MS.382         	15.545         	0.715
MS.383         	15.515         	0.479
MS.384         	15.483         	0.568
MS.385         	15.452         	0.51
MS.386         	15.42          	0.463
MS.387         	15.39          	0.582
MS.388         	15.36          	0.473
MS.389         	15.33          	0.459
MS.390         	15.297         	0.369
MS.391         	15.267         	0.55
MS.392         	15.237         	0.441
MS.393         	15.207         	0.497
MS.394         	15.177         	0.357
MS.395         	15.145         	0.348
MS.396         	15.115         	0.357
MS.397         	15.085         	0.459
MS.398         	15.055         	0.371
MS.399         	15.025         	0.367
MS.400         	14.995         	0.352
MS.401         	14.965         	0.359
MS.402         	14.935         	0.348
MS.403         	14.905         	0.344
MS.404         	14.875         	0.375
MS.405         	14.845         	0.328
MS.406         	14.818         	0.377
MS.407         	14.787         	0.306
MS.408         	14.757         	0.306
MS.409         	14.727         	0.304
MS.410         	14.697         	0.328
MS.411         	14.67          	0.328
MS.412         	14.64          	0.282
MS.413         	14.61          	0.34
MS.414         	14.58          	0.336
MS.415         	14.552         	0.359
MS.416         	14.523         	0.316
MS.417         	14.495         	0.284
MS.418         	14.465         	0.302
MS.419         	14.435         	0.282
MS.420         	14.407         	0.322
MS.421         	14.377         	0.316
MS.422         	14.35          	0.284
MS.423         	14.32          	0.326
MS.424         	14.292         	0.304
MS.425         	14.265         	0.274
MS.426         	14.235         	0.252
MS.427         	14.207         	0.31
MS.428         	14.177         	0.264
MS.429         	14.15          	0.264
MS.430         	14.122         	0.266
MS.431         	14.095         	0.278
MS.432         	14.065         	0.236
MS.433         	14.037         	0.266
MS.434         	14.01          	0.27
MS.435         	13.983         	0.262
MS.436         	13.952         	0.232
MS.437         	13.925         	0.214
MS.438         	13.898         	0.171
MS.439         	13.87          	0.207
MS.440         	13.842         	0.236
MS.441         	13.815         	0.244
MS.442         	13.787         	0.246
MS.443         	13.76          	0.23
MS.444         	13.733         	0.226
MS.445         	13.705         	0.254
MS.446         	13.677         	0.274
MS.447         	13.65          	0.228
MS.448         	13.622         	0.254
MS.449         	13.595         	0.262
MS.450         	13.568         	0.222
MS.451         	13.54          	0.218
MS.452         	13.515         	0.23
MS.453         	13.487         	0.226
MS.454         	13.46          	0.224
MS.455         	13.432         	0.226
MS.456         	13.407         	0.228
MS.457         	13.38          	0.25
MS.458         	13.352         	0.169
MS.459         	13.325         	0.224
MS.460         	13.3           	0.167
MS.461         	13.273         	0.222
MS.462         	13.247         	0.165
MS.463         	13.22          	0.183
MS.464         	13.193         	0.226
MS.465         	13.167         	0.167
MS.466         	13.14          	0.214
MS.467         	13.115         	0.175
MS.468         	13.087         	0.169
MS.469         	13.062         	0.179
MS.470         	13.035         	0.167
MS.471         	13.01          	0.165
MS.472         	12.985         	0.165
MS.473         	12.957         	0.177
MS.474         	12.932         	0.169
MS.475         	12.907         	0.181
MS.476         	12.88          	0.127
MS.477         	12.855         	0.175
MS.478         	12.83          	0.155
MS.479         	12.802         	0.179
MS.480         	12.778         	0.145
MS.481         	12.752         	0.133
MS.482         	12.727         	0.179
MS.483         	12.702         	0.153
MS.484         	12.677         	0.143
MS.485         	12.65          	0.093
MS.486         	12.625         	0.091
MS.487         	12.6           	0.085
MS.488         	12.575         	0.091
MS.489         	12.55          	0.081
MS.490         	12.525         	0.125
MS.491         	12.5           	0.087
MS.492         	12.475         	0.085
MS.493         	12.45          	0.083
MS.494         	12.425         	0.143
MS.495         	12.4           	0.133
MS.496         	12.375         	0.089
MS.497         	12.35          	0.089
MS.498         	12.327         	0.085
MS.499         	12.302         	0.093
MS.500         	12.278         	0.081
MS.501         	12.252         	0.095
