File:              	C:\Qtrac\Data\Daniel M Sørensen\MScan multicentre study\Data from centres\Aarhus\Processed data\DMSB91126B.QZD
Name:              	DK.AAR.NC.6.1
Protocol:          	MSCAN-R2
Date:              	26/11/19
Start time:        	15:17:56
Age:               	66
Sex:               	f
Temperature:       	34,5
S/R sites:         	ADM
NC/disease:        	Control
Operator:          	DS
Comments:
M-SCAN DATA (13.6-5.8m)
Scanpts: 50, 61, 811, 833
Stim. (mA)     	Amp. (mV)
MS.1           	34.5           	9.12
MS.2           	34.5           	9.108
MS.3           	34.5           	9.114
MS.4           	34.5           	9.114
MS.5           	34.5           	9.132
MS.6           	34.5           	9.134
MS.7           	34.5           	9.134
MS.8           	34.5           	9.14
MS.9           	34.5           	9.134
MS.10          	34.5           	9.152
MS.11          	34.5           	9.156
MS.12          	34.5           	9.148
MS.13          	34.5           	9.158
MS.14          	34.5           	9.152
MS.15          	34.5           	9.15
MS.16          	34.5           	9.148
MS.17          	34.5           	9.158
MS.18          	34.5           	9.172
MS.19          	34.5           	9.164
MS.20          	34.5           	9.179
MS.21          	34.5           	9.166
MS.22          	34.5           	9.17
MS.23          	34.5           	9.181
MS.24          	34.362         	9.189
MS.25          	34.292         	9.187
MS.26          	34.225         	9.185
MS.27          	34.157         	9.211
MS.28          	34.087         	9.189
MS.29          	34.02          	9.168
MS.30          	33.952         	9.193
MS.31          	33.885         	9.179
MS.32          	33.818         	9.211
MS.33          	33.75          	9.203
MS.34          	33.682         	9.229
MS.35          	33.615         	9.213
MS.36          	33.548         	9.189
MS.37          	33.48          	9.205
MS.38          	33.412         	9.207
MS.39          	33.347         	9.209
MS.40          	33.28          	9.199
MS.41          	33.212         	9.183
MS.42          	33.147         	9.195
MS.43          	33.08          	9.197
MS.44          	33.015         	9.205
MS.45          	32.95          	9.203
MS.46          	32.882         	9.187
MS.47          	32.818         	9.193
MS.48          	32.752         	9.197
MS.49          	32.688         	9.203
MS.50          	32.62          	9.195
MS.51          	32.555         	9.191
MS.52          	32.49          	9.201
MS.53          	32.425         	9.187
MS.54          	32.36          	9.209
MS.55          	32.298         	9.195
MS.56          	32.232         	9.197
MS.57          	32.167         	9.213
MS.58          	32.103         	9.205
MS.59          	32.04          	9.177
MS.60          	31.975         	9.205
MS.61          	31.91          	9.181
MS.62          	31.847         	9.207
MS.63          	31.782         	9.197
MS.64          	31.72          	9.191
MS.65          	31.657         	9.205
MS.66          	31.592         	9.179
MS.67          	31.53          	9.193
MS.68          	31.467         	9.185
MS.69          	31.405         	9.181
MS.70          	31.342         	9.179
MS.71          	31.28          	9.189
MS.72          	31.217         	9.189
MS.73          	31.155         	9.164
MS.74          	31.092         	9.185
MS.75          	31.03          	9.181
MS.76          	30.967         	9.166
MS.77          	30.905         	9.174
MS.78          	30.845         	9.179
MS.79          	30.782         	9.166
MS.80          	30.722         	9.189
MS.81          	30.66          	9.174
MS.82          	30.597         	9.172
MS.83          	30.537         	9.15
MS.84          	30.477         	9.17
MS.85          	30.415         	9.168
MS.86          	30.355         	9.183
MS.87          	30.295         	9.17
MS.88          	30.233         	9.172
MS.89          	30.172         	9.185
MS.90          	30.112         	9.17
MS.91          	30.052         	9.16
MS.92          	29.992         	9.17
MS.93          	29.932         	9.158
MS.94          	29.872         	9.172
MS.95          	29.812         	9.189
MS.96          	29.755         	9.17
MS.97          	29.695         	9.172
MS.98          	29.635         	9.174
MS.99          	29.575         	9.162
MS.100         	29.517         	9.162
MS.101         	29.457         	9.164
MS.102         	29.4           	9.162
MS.103         	29.34          	9.156
MS.104         	29.282         	9.166
MS.105         	29.222         	9.168
MS.106         	29.165         	9.148
MS.107         	29.108         	9.15
MS.108         	29.047         	9.158
MS.109         	28.99          	9.162
MS.110         	28.932         	9.148
MS.111         	28.875         	9.142
MS.112         	28.817         	9.162
MS.113         	28.76          	9.142
MS.114         	28.702         	9.138
MS.115         	28.645         	9.152
MS.116         	28.587         	9.16
MS.117         	28.53          	9.156
MS.118         	28.472         	9.16
MS.119         	28.415         	9.162
MS.120         	28.36          	9.118
MS.121         	28.302         	9.15
MS.122         	28.245         	9.118
MS.123         	28.19          	9.116
MS.124         	28.132         	9.108
MS.125         	28.077         	9.146
MS.126         	28.02          	9.142
MS.127         	27.965         	9.098
MS.128         	27.91          	9.132
MS.129         	27.852         	9.112
MS.130         	27.797         	9.066
MS.131         	27.743         	9.112
MS.132         	27.688         	9.104
MS.133         	27.632         	9.082
MS.134         	27.577         	9.116
MS.135         	27.52          	9.108
MS.136         	27.465         	9.021
MS.137         	27.412         	9.092
MS.138         	27.358         	9.08
MS.139         	27.302         	9.042
MS.140         	27.247         	9.096
MS.141         	27.192         	9.06
MS.142         	27.137         	9.062
MS.143         	27.085         	9.05
MS.144         	27.03          	9.029
MS.145         	26.975         	9.042
MS.146         	26.922         	9.064
MS.147         	26.868         	8.953
MS.148         	26.815         	9.017
MS.149         	26.762         	9.021
MS.150         	26.707         	8.945
MS.151         	26.655         	8.987
MS.152         	26.6           	8.844
MS.153         	26.547         	8.933
MS.154         	26.495         	8.977
MS.155         	26.442         	8.901
MS.156         	26.39          	8.975
MS.157         	26.337         	8.983
MS.158         	26.285         	8.901
MS.159         	26.233         	8.842
MS.160         	26.18          	8.886
MS.161         	26.127         	8.935
MS.162         	26.075         	8.905
MS.163         	26.022         	8.75
MS.164         	25.97          	8.8
MS.165         	25.917         	8.75
MS.166         	25.868         	8.681
MS.167         	25.815         	8.816
MS.168         	25.762         	8.768
MS.169         	25.712         	8.828
MS.170         	25.66          	8.79
MS.171         	25.61          	8.657
MS.172         	25.557         	8.729
MS.173         	25.507         	8.697
MS.174         	25.455         	8.671
MS.175         	25.405         	8.782
MS.176         	25.355         	8.689
MS.177         	25.305         	8.609
MS.178         	25.252         	8.687
MS.179         	25.202         	8.671
MS.180         	25.153         	8.623
MS.181         	25.102         	8.683
MS.182         	25.052         	8.613
MS.183         	25.002         	8.657
MS.184         	24.952         	8.602
MS.185         	24.903         	8.611
MS.186         	24.852         	8.639
MS.187         	24.802         	8.594
MS.188         	24.752         	8.506
MS.189         	24.705         	8.548
MS.190         	24.655         	8.55
MS.191         	24.605         	8.522
MS.192         	24.555         	8.584
MS.193         	24.507         	8.496
MS.194         	24.457         	8.512
MS.195         	24.41          	8.496
MS.196         	24.36          	8.486
MS.197         	24.312         	8.453
MS.198         	24.262         	8.478
MS.199         	24.215         	8.383
MS.200         	24.165         	8.403
MS.201         	24.118         	8.375
MS.202         	24.07          	8.393
MS.203         	24.022         	8.335
MS.204         	23.972         	8.371
MS.205         	23.925         	8.32
MS.206         	23.877         	8.302
MS.207         	23.83          	8.395
MS.208         	23.782         	8.252
MS.209         	23.735         	8.266
MS.210         	23.688         	8.24
MS.211         	23.64          	8.246
MS.212         	23.592         	8.226
MS.213         	23.545         	8.099
MS.214         	23.5           	8.139
MS.215         	23.452         	8.103
MS.216         	23.405         	8.075
MS.217         	23.358         	8.121
MS.218         	23.312         	8.045
MS.219         	23.265         	8.024
MS.220         	23.217         	8.032
MS.221         	23.172         	8.01
MS.222         	23.125         	7.954
MS.223         	23.08          	8.097
MS.224         	23.032         	8.024
MS.225         	22.987         	7.922
MS.226         	22.942         	7.982
MS.227         	22.895         	7.904
MS.228         	22.85          	7.896
MS.229         	22.805         	7.851
MS.230         	22.76          	7.918
MS.231         	22.712         	7.839
MS.232         	22.667         	7.809
MS.233         	22.622         	7.775
MS.234         	22.577         	7.738
MS.235         	22.532         	7.706
MS.236         	22.487         	7.732
MS.237         	22.442         	7.74
MS.238         	22.397         	7.769
MS.239         	22.352         	7.73
MS.240         	22.307         	7.696
MS.241         	22.262         	7.664
MS.242         	22.22          	7.583
MS.243         	22.175         	7.672
MS.244         	22.13          	7.595
MS.245         	22.085         	7.593
MS.246         	22.042         	7.567
MS.247         	21.997         	7.561
MS.248         	21.955         	7.517
MS.249         	21.91          	7.442
MS.250         	21.868         	7.479
MS.251         	21.823         	7.597
MS.252         	21.78          	7.444
MS.253         	21.735         	7.448
MS.254         	21.692         	7.448
MS.255         	21.65          	7.38
MS.256         	21.605         	7.464
MS.257         	21.562         	7.267
MS.258         	21.52          	7.251
MS.259         	21.477         	7.301
MS.260         	21.432         	7.182
MS.261         	21.39          	7.195
MS.262         	21.347         	7.321
MS.263         	21.305         	7.305
MS.264         	21.262         	7.326
MS.265         	21.22          	7.033
MS.266         	21.177         	6.955
MS.267         	21.135         	7.039
MS.268         	21.092         	7.102
MS.269         	21.05          	7.156
MS.270         	21.01          	7.12
MS.271         	20.967         	7.05
MS.272         	20.925         	6.903
MS.273         	20.882         	6.862
MS.274         	20.842         	6.502
MS.275         	20.8           	6.715
MS.276         	20.757         	6.896
MS.277         	20.717         	6.612
MS.278         	20.675         	6.713
MS.279         	20.635         	6.574
MS.280         	20.592         	6.304
MS.281         	20.552         	6.498
MS.282         	20.51          	6.449
MS.283         	20.47          	6.443
MS.284         	20.43          	6.469
MS.285         	20.387         	6.397
MS.286         	20.347         	6.588
MS.287         	20.307         	6.633
MS.288         	20.265         	6.415
MS.289         	20.225         	6.357
MS.290         	20.185         	6.425
MS.291         	20.145         	6.206
MS.292         	20.105         	6.441
MS.293         	20.065         	6.548
MS.294         	20.025         	6.461
MS.295         	19.985         	6.427
MS.296         	19.945         	6.242
MS.297         	19.905         	6.183
MS.298         	19.865         	6.071
MS.299         	19.825         	6
MS.300         	19.785         	6.047
MS.301         	19.745         	6.083
MS.302         	19.708         	6.016
MS.303         	19.667         	6.151
MS.304         	19.627         	5.928
MS.305         	19.587         	5.96
MS.306         	19.55          	5.972
MS.307         	19.51          	6.018
MS.308         	19.472         	6.081
MS.309         	19.432         	5.96
MS.310         	19.395         	5.682
MS.311         	19.355         	5.942
MS.312         	19.317         	5.783
MS.313         	19.278         	5.722
MS.314         	19.24          	5.912
MS.315         	19.2           	5.871
MS.316         	19.163         	5.823
MS.317         	19.125         	5.857
MS.318         	19.085         	5.535
MS.319         	19.047         	5.74
MS.320         	19.01          	5.746
MS.321         	18.972         	5.66
MS.322         	18.935         	5.668
MS.323         	18.895         	5.674
MS.324         	18.858         	5.65
MS.325         	18.82          	5.338
MS.326         	18.782         	5.446
MS.327         	18.745         	5.372
MS.328         	18.708         	5.261
MS.329         	18.67          	5.561
MS.330         	18.632         	5.283
MS.331         	18.595         	5.319
MS.332         	18.56          	5.221
MS.333         	18.522         	5.269
MS.334         	18.485         	5.066
MS.335         	18.448         	4.675
MS.336         	18.41          	4.927
MS.337         	18.375         	5.056
MS.338         	18.337         	4.655
MS.339         	18.3           	5.054
MS.340         	18.265         	4.975
MS.341         	18.227         	4.532
MS.342         	18.192         	4.917
MS.343         	18.155         	4.959
MS.344         	18.12          	4.806
MS.345         	18.083         	4.834
MS.346         	18.047         	4.755
MS.347         	18.01          	4.441
MS.348         	17.975         	4.741
MS.349         	17.938         	4.449
MS.350         	17.903         	4.475
MS.351         	17.868         	4.461
MS.352         	17.833         	4.306
MS.353         	17.795         	4.691
MS.354         	17.76          	4.117
MS.355         	17.725         	4.582
MS.356         	17.69          	4.618
MS.357         	17.655         	4.292
MS.358         	17.618         	3.926
MS.359         	17.583         	3.952
MS.360         	17.547         	3.688
MS.361         	17.512         	4.441
MS.362         	17.477         	3.93
MS.363         	17.442         	4.03
MS.364         	17.407         	4.099
MS.365         	17.372         	3.682
MS.366         	17.34          	4.095
MS.367         	17.305         	3.875
MS.368         	17.27          	3.809
MS.369         	17.235         	3.732
MS.370         	17.2           	3.65
MS.371         	17.167         	3.825
MS.372         	17.132         	3.625
MS.373         	17.097         	3.69
MS.374         	17.062         	3.748
MS.375         	17.03          	3.533
MS.376         	16.995         	3.543
MS.377         	16.962         	3.583
MS.378         	16.927         	3.489
MS.379         	16.895         	3.611
MS.380         	16.86          	3.446
MS.381         	16.827         	3.491
MS.382         	16.792         	3.356
MS.383         	16.76          	3.348
MS.384         	16.725         	3.44
MS.385         	16.692         	3.178
MS.386         	16.66          	3.182
MS.387         	16.625         	2.864
MS.388         	16.592         	2.624
MS.389         	16.56          	2.806
MS.390         	16.528         	2.661
MS.391         	16.493         	2.921
MS.392         	16.46          	3.076
MS.393         	16.427         	2.8
MS.394         	16.395         	2.852
MS.395         	16.362         	2.465
MS.396         	16.33          	2.437
MS.397         	16.297         	2.765
MS.398         	16.265         	2.518
MS.399         	16.233         	2.679
MS.400         	16.2           	2.669
MS.401         	16.167         	2.34
MS.402         	16.135         	2.346
MS.403         	16.102         	2.332
MS.404         	16.07          	2.276
MS.405         	16.038         	2.344
MS.406         	16.005         	2.264
MS.407         	15.975         	2.308
MS.408         	15.943         	2.272
MS.409         	15.91          	2.206
MS.410         	15.877         	2.328
MS.411         	15.847         	2.266
MS.412         	15.815         	2.256
MS.413         	15.782         	2.143
MS.414         	15.752         	2.093
MS.415         	15.72          	2.314
MS.416         	15.69          	2.296
MS.417         	15.657         	1.976
MS.418         	15.627         	2.046
MS.419         	15.595         	2.065
MS.420         	15.565         	2.083
MS.421         	15.532         	2.109
MS.422         	15.502         	2.117
MS.423         	15.47          	1.903
MS.424         	15.44          	1.972
MS.425         	15.41          	2.153
MS.426         	15.377         	2.149
MS.427         	15.347         	1.95
MS.428         	15.318         	1.728
MS.429         	15.287         	1.839
MS.430         	15.255         	1.66
MS.431         	15.225         	1.756
MS.432         	15.195         	1.827
MS.433         	15.165         	1.708
MS.434         	15.135         	1.682
MS.435         	15.105         	1.563
MS.436         	15.075         	1.402
MS.437         	15.042         	1.47
MS.438         	15.012         	1.426
MS.439         	14.983         	1.368
MS.440         	14.952         	1.521
MS.441         	14.925         	1.362
MS.442         	14.895         	1.382
MS.443         	14.865         	1.313
MS.444         	14.835         	1.408
MS.445         	14.805         	1.305
MS.446         	14.775         	1.309
MS.447         	14.745         	1.267
MS.448         	14.717         	1.398
MS.449         	14.688         	1.134
MS.450         	14.657         	1.235
MS.451         	14.627         	1.202
MS.452         	14.6           	1.08
MS.453         	14.57          	0.918
MS.454         	14.54          	0.9
MS.455         	14.512         	0.856
MS.456         	14.483         	1.07
MS.457         	14.455         	0.796
MS.458         	14.425         	0.886
MS.459         	14.395         	0.679
MS.460         	14.367         	0.713
MS.461         	14.337         	0.842
MS.462         	14.31          	0.727
MS.463         	14.282         	0.715
MS.464         	14.252         	0.84
MS.465         	14.225         	0.679
MS.466         	14.195         	0.695
MS.467         	14.167         	0.699
MS.468         	14.14          	0.695
MS.469         	14.11          	0.679
MS.470         	14.082         	0.632
MS.471         	14.055         	0.628
MS.472         	14.028         	0.592
MS.473         	13.997         	0.554
MS.474         	13.97          	0.574
MS.475         	13.943         	0.57
MS.476         	13.915         	0.602
MS.477         	13.887         	0.626
MS.478         	13.86          	0.61
MS.479         	13.832         	0.546
MS.480         	13.805         	0.469
MS.481         	13.778         	0.455
MS.482         	13.75          	0.53
MS.483         	13.722         	0.473
MS.484         	13.695         	0.477
MS.485         	13.667         	0.471
MS.486         	13.64          	0.475
MS.487         	13.612         	0.447
MS.488         	13.585         	0.449
MS.489         	13.557         	0.461
MS.490         	13.53          	0.459
MS.491         	13.502         	0.435
MS.492         	13.477         	0.423
MS.493         	13.45          	0.516
MS.494         	13.422         	0.463
MS.495         	13.395         	0.437
MS.496         	13.37          	0.423
MS.497         	13.342         	0.437
MS.498         	13.315         	0.471
MS.499         	13.29          	0.459
MS.500         	13.262         	0.439
MS.501         	13.235         	0.407
