File:              	C:\Qtrac\Data\Daniel M Sørensen\MScan multicentre study\Data from centres\Aarhus\Processed data\DMSC00225C.QZD
Name:              	DK.AAR.NC.3.1
Protocol:          	MSCAN-R2
Date:              	25/2/20
Start time:        	14:27:09
Age:               	48
Sex:               	m
Temperature:       	34,2
S/R sites:         	ADM
NC/disease:        	Control
Operator:          	DS
Comments:
M-SCAN DATA (4.3-0.0m)
Scanpts: 55, 64, 531, 547
Stim. (mA)     	Amp. (mV)
MS.1           	22.5           	9.517
MS.2           	22.5           	9.523
MS.3           	22.41          	9.565
MS.4           	22.365         	9.509
MS.5           	22.32          	9.497
MS.6           	22.275         	9.587
MS.7           	22.233         	9.573
MS.8           	22.188         	9.589
MS.9           	22.142         	9.573
MS.10          	22.097         	9.589
MS.11          	22.055         	9.593
MS.12          	22.01          	9.64
MS.13          	21.967         	9.642
MS.14          	21.922         	9.642
MS.15          	21.877         	9.527
MS.16          	21.835         	9.658
MS.17          	21.792         	9.676
MS.18          	21.747         	9.682
MS.19          	21.705         	9.575
MS.20          	21.66          	9.555
MS.21          	21.618         	9.602
MS.22          	21.575         	9.581
MS.23          	21.532         	9.702
MS.24          	21.487         	9.581
MS.25          	21.445         	9.618
MS.26          	21.403         	9.626
MS.27          	21.36          	9.563
MS.28          	21.317         	9.529
MS.29          	21.275         	9.583
MS.30          	21.233         	9.622
MS.31          	21.19          	9.628
MS.32          	21.147         	9.648
MS.33          	21.105         	9.61
MS.34          	21.062         	9.481
MS.35          	21.02          	9.539
MS.36          	20.98          	9.505
MS.37          	20.938         	9.517
MS.38          	20.895         	9.545
MS.39          	20.852         	9.626
MS.40          	20.812         	9.573
MS.41          	20.77          	9.593
MS.42          	20.727         	9.62
MS.43          	20.688         	9.602
MS.44          	20.645         	9.706
MS.45          	20.605         	9.71
MS.46          	20.562         	9.718
MS.47          	20.522         	9.745
MS.48          	20.483         	9.801
MS.49          	20.44          	9.668
MS.50          	20.4           	9.757
MS.51          	20.36          	9.799
MS.52          	20.317         	9.861
MS.53          	20.278         	9.718
MS.54          	20.237         	9.742
MS.55          	20.198         	9.777
MS.56          	20.155         	9.819
MS.57          	20.115         	9.694
MS.58          	20.075         	9.833
MS.59          	20.035         	9.771
MS.60          	19.995         	9.612
MS.61          	19.955         	9.722
MS.62          	19.915         	9.708
MS.63          	19.875         	9.763
MS.64          	19.837         	9.855
MS.65          	19.797         	9.799
MS.66          	19.757         	9.823
MS.67          	19.717         	9.753
MS.68          	19.677         	9.696
MS.69          	19.64          	9.714
MS.70          	19.6           	9.597
MS.71          	19.56          	9.708
MS.72          	19.522         	9.839
MS.73          	19.483         	9.688
MS.74          	19.442         	9.682
MS.75          	19.405         	9.622
MS.76          	19.365         	9.628
MS.77          	19.327         	9.783
MS.78          	19.288         	9.644
MS.79          	19.25          	9.676
MS.80          	19.212         	9.68
MS.81          	19.172         	9.769
MS.82          	19.135         	9.648
MS.83          	19.097         	9.658
MS.84          	19.057         	9.716
MS.85          	19.02          	9.648
MS.86          	18.983         	9.714
MS.87          	18.945         	9.638
MS.88          	18.907         	9.718
MS.89          	18.87          	9.7
MS.90          	18.83          	9.593
MS.91          	18.792         	9.749
MS.92          	18.755         	9.507
MS.93          	18.717         	9.755
MS.94          	18.68          	9.591
MS.95          	18.645         	9.44
MS.96          	18.608         	9.575
MS.97          	18.57          	9.511
MS.98          	18.532         	9.622
MS.99          	18.495         	9.517
MS.100         	18.458         	9.551
MS.101         	18.422         	9.638
MS.102         	18.385         	9.583
MS.103         	18.347         	9.505
MS.104         	18.31          	9.497
MS.105         	18.275         	9.424
MS.106         	18.237         	9.436
MS.107         	18.202         	9.44
MS.108         	18.165         	9.505
MS.109         	18.13          	9.471
MS.110         	18.092         	9.591
MS.111         	18.057         	9.406
MS.112         	18.02          	9.221
MS.113         	17.985         	9.309
MS.114         	17.948         	9.326
MS.115         	17.913         	9.328
MS.116         	17.878         	9.17
MS.117         	17.84          	9.11
MS.118         	17.805         	9.247
MS.119         	17.77          	9.434
MS.120         	17.735         	9.414
MS.121         	17.7           	9.287
MS.122         	17.663         	9.463
MS.123         	17.628         	9.263
MS.124         	17.592         	9.235
MS.125         	17.557         	9.154
MS.126         	17.522         	9.07
MS.127         	17.487         	9.185
MS.128         	17.452         	9.09
MS.129         	17.417         	8.939
MS.130         	17.382         	9.239
MS.131         	17.347         	8.747
MS.132         	17.315         	9.042
MS.133         	17.28          	9.025
MS.134         	17.245         	8.961
MS.135         	17.21          	8.973
MS.136         	17.175         	8.727
MS.137         	17.142         	8.87
MS.138         	17.108         	8.838
MS.139         	17.073         	8.699
MS.140         	17.04          	8.574
MS.141         	17.005         	8.433
MS.142         	16.97          	8.703
MS.143         	16.938         	8.47
MS.144         	16.903         	8.401
MS.145         	16.87          	8.49
MS.146         	16.835         	8.318
MS.147         	16.802         	8.345
MS.148         	16.767         	8.447
MS.149         	16.735         	8.443
MS.150         	16.702         	8.314
MS.151         	16.667         	8.554
MS.152         	16.635         	8.27
MS.153         	16.602         	8.304
MS.154         	16.567         	8.32
MS.155         	16.535         	8.25
MS.156         	16.503         	7.793
MS.157         	16.47          	7.734
MS.158         	16.438         	7.942
MS.159         	16.405         	7.928
MS.160         	16.37          	7.823
MS.161         	16.337         	7.942
MS.162         	16.305         	7.849
MS.163         	16.272         	7.68
MS.164         	16.24          	7.95
MS.165         	16.208         	7.346
MS.166         	16.175         	8.083
MS.167         	16.142         	7.547
MS.168         	16.11          	7.342
MS.169         	16.08          	7.253
MS.170         	16.047         	7.352
MS.171         	16.015         	6.925
MS.172         	15.983         	7.313
MS.173         	15.95          	7.037
MS.174         	15.92          	7.579
MS.175         	15.887         	7.464
MS.176         	15.855         	6.85
MS.177         	15.822         	6.824
MS.178         	15.792         	6.943
MS.179         	15.76          	6.844
MS.180         	15.73          	6.842
MS.181         	15.697         	6.687
MS.182         	15.667         	6.784
MS.183         	15.635         	6.669
MS.184         	15.602         	6.79
MS.185         	15.572         	7.009
MS.186         	15.542         	6.762
MS.187         	15.51          	6.506
MS.188         	15.48          	6.57
MS.189         	15.447         	6.455
MS.190         	15.417         	6.405
MS.191         	15.387         	6.264
MS.192         	15.355         	6.55
MS.193         	15.325         	6.343
MS.194         	15.295         	6.3
MS.195         	15.265         	6.169
MS.196         	15.233         	6.252
MS.197         	15.202         	6.351
MS.198         	15.172         	6.129
MS.199         	15.142         	6.143
MS.200         	15.112         	5.996
MS.201         	15.082         	6.139
MS.202         	15.052         	6.139
MS.203         	15.023         	6.087
MS.204         	14.992         	6.155
MS.205         	14.962         	6.051
MS.206         	14.932         	6.135
MS.207         	14.902         	6.042
MS.208         	14.872         	5.904
MS.209         	14.842         	6.151
MS.210         	14.812         	6.047
MS.211         	14.782         	5.835
MS.212         	14.755         	5.972
MS.213         	14.725         	5.954
MS.214         	14.695         	5.952
MS.215         	14.665         	5.807
MS.216         	14.637         	5.934
MS.217         	14.608         	5.678
MS.218         	14.577         	5.726
MS.219         	14.55          	5.845
MS.220         	14.52          	5.797
MS.221         	14.49          	5.678
MS.222         	14.462         	5.71
MS.223         	14.432         	5.622
MS.224         	14.405         	5.563
MS.225         	14.375         	5.537
MS.226         	14.347         	5.583
MS.227         	14.318         	5.493
MS.228         	14.29          	5.479
MS.229         	14.26          	5.497
MS.230         	14.233         	5.323
MS.231         	14.205         	5.541
MS.232         	14.175         	5.374
MS.233         	14.148         	5.372
MS.234         	14.12          	5.412
MS.235         	14.09          	5.352
MS.236         	14.062         	5.452
MS.237         	14.035         	5.41
MS.238         	14.007         	5.225
MS.239         	13.977         	5.382
MS.240         	13.95          	5.211
MS.241         	13.922         	5.078
MS.242         	13.895         	5.14
MS.243         	13.867         	5.219
MS.244         	13.84          	5.16
MS.245         	13.812         	4.989
MS.246         	13.785         	5.255
MS.247         	13.757         	5.142
MS.248         	13.73          	5.108
MS.249         	13.702         	5.106
MS.250         	13.675         	5.195
MS.251         	13.648         	5.164
MS.252         	13.62          	4.917
MS.253         	13.592         	4.965
MS.254         	13.565         	4.977
MS.255         	13.537         	4.848
MS.256         	13.51          	4.83
MS.257         	13.485         	4.786
MS.258         	13.457         	4.913
MS.259         	13.43          	4.51
MS.260         	13.403         	4.721
MS.261         	13.377         	4.657
MS.262         	13.35          	4.862
MS.263         	13.322         	4.518
MS.264         	13.297         	4.383
MS.265         	13.27          	4.586
MS.266         	13.242         	4.578
MS.267         	13.217         	3.841
MS.268         	13.19          	4.308
MS.269         	13.165         	4.431
MS.270         	13.137         	4.123
MS.271         	13.112         	3.972
MS.272         	13.085         	4.691
MS.273         	13.06          	4.312
MS.274         	13.032         	4.282
MS.275         	13.007         	3.845
MS.276         	12.983         	3.811
MS.277         	12.955         	4.351
MS.278         	12.93          	3.873
MS.279         	12.903         	3.829
MS.280         	12.877         	3.873
MS.281         	12.852         	4.278
MS.282         	12.827         	3.855
MS.283         	12.8           	4.256
MS.284         	12.775         	3.819
MS.285         	12.75          	3.811
MS.286         	12.725         	3.887
MS.287         	12.7           	3.813
MS.288         	12.672         	3.805
MS.289         	12.648         	3.76
MS.290         	12.622         	3.857
MS.291         	12.597         	3.605
MS.292         	12.572         	3.696
MS.293         	12.547         	3.777
MS.294         	12.523         	3.68
MS.295         	12.497         	3.698
MS.296         	12.472         	3.718
MS.297         	12.447         	3.779
MS.298         	12.422         	3.525
MS.299         	12.398         	3.799
MS.300         	12.372         	3.327
MS.301         	12.347         	3.66
MS.302         	12.322         	3.728
MS.303         	12.3           	3.144
MS.304         	12.275         	3.325
MS.305         	12.25          	3.172
MS.306         	12.225         	2.898
MS.307         	12.2           	3.398
MS.308         	12.177         	3.462
MS.309         	12.153         	3.64
MS.310         	12.127         	3.515
MS.311         	12.102         	3.632
MS.312         	12.08          	3.225
MS.313         	12.055         	3.601
MS.314         	12.032         	3.333
MS.315         	12.007         	2.802
MS.316         	11.983         	3.146
MS.317         	11.96          	2.747
MS.318         	11.935         	3.074
MS.319         	11.912         	2.616
MS.320         	11.887         	2.937
MS.321         	11.865         	2.62
MS.322         	11.84          	3.136
MS.323         	11.818         	2.792
MS.324         	11.792         	2.252
MS.325         	11.77          	2.23
MS.326         	11.745         	2.365
MS.327         	11.722         	2.167
MS.328         	11.7           	2.212
MS.329         	11.675         	2.075
MS.330         	11.653         	2.264
MS.331         	11.63          	2.51
MS.332         	11.605         	2.508
MS.333         	11.582         	2.514
MS.334         	11.56          	2.326
MS.335         	11.537         	2.06
MS.336         	11.512         	2.123
MS.337         	11.49          	2.01
MS.338         	11.467         	2.083
MS.339         	11.445         	2.083
MS.340         	11.422         	1.97
MS.341         	11.4           	2.075
MS.342         	11.375         	1.954
MS.343         	11.352         	1.964
MS.344         	11.33          	1.889
MS.345         	11.307         	1.895
MS.346         	11.285         	1.934
MS.347         	11.262         	1.823
MS.348         	11.24          	1.845
MS.349         	11.217         	1.829
MS.350         	11.195         	1.859
MS.351         	11.172         	1.75
MS.352         	11.15          	1.978
MS.353         	11.127         	1.73
MS.354         	11.108         	1.75
MS.355         	11.085         	1.752
MS.356         	11.062         	1.823
MS.357         	11.04          	1.398
MS.358         	11.017         	1.646
MS.359         	10.995         	1.704
MS.360         	10.975         	1.817
MS.361         	10.952         	1.66
MS.362         	10.93          	1.706
MS.363         	10.907         	1.664
MS.364         	10.887         	1.686
MS.365         	10.865         	1.241
MS.366         	10.842         	1.339
MS.367         	10.82          	1.426
MS.368         	10.8           	1.495
MS.369         	10.778         	1.591
MS.370         	10.757         	1.354
MS.371         	10.735         	1.144
MS.372         	10.712         	1.577
MS.373         	10.693         	1.38
MS.374         	10.67          	1.225
MS.375         	10.65          	1.317
MS.376         	10.627         	1.17
MS.377         	10.608         	1.12
MS.378         	10.585         	1.219
MS.379         	10.565         	1.442
MS.380         	10.542         	1.192
MS.381         	10.523         	1.122
MS.382         	10.502         	1.068
MS.383         	10.48          	1.196
MS.384         	10.46          	0.794
MS.385         	10.438         	1.098
MS.386         	10.417         	1.086
MS.387         	10.398         	1.084
MS.388         	10.375         	0.695
MS.389         	10.355         	0.691
MS.390         	10.335         	0.439
MS.391         	10.315         	0.572
MS.392         	10.292         	0.763
MS.393         	10.273         	0.963
MS.394         	10.252         	1.049
MS.395         	10.233         	0.548
MS.396         	10.212         	0.798
MS.397         	10.19          	1.051
MS.398         	10.17          	0.387
MS.399         	10.15          	0.58
MS.400         	10.13          	0.578
MS.401         	10.11          	0.479
MS.402         	10.09          	0.695
MS.403         	10.07          	0.278
MS.404         	10.05          	0.697
MS.405         	10.03          	0.55
MS.406         	10.01          	0.437
MS.407         	9.99           	0.238
MS.408         	9.97           	0.348
MS.409         	9.95           	0.238
MS.410         	9.93           	0.324
MS.411         	9.91           	0.24
MS.412         	9.89           	0.445
MS.413         	9.87           	0.236
MS.414         	9.85           	0.435
MS.415         	9.83           	0.24
MS.416         	9.81           	0.542
MS.417         	9.792          	0.216
MS.418         	9.773          	0.385
MS.419         	9.752          	0.236
MS.420         	9.733          	0.209
MS.421         	9.712          	0.209
MS.422         	9.695          	0.409
MS.423         	9.675          	0.216
MS.424         	9.655          	0.167
MS.425         	9.635          	0.185
MS.426         	9.617          	0.411
MS.427         	9.597          	0.211
MS.428         	9.577          	0.209
MS.429         	9.56           	0.407
MS.430         	9.54           	0.183
MS.431         	9.52           	0.189
MS.432         	9.502          	0.167
MS.433         	9.483          	0.185
MS.434         	9.465          	0.185
MS.435         	9.445          	0.167
MS.436         	9.427          	0.187
MS.437         	9.407          	0.187
MS.438         	9.387          	0.181
MS.439         	9.37           	0.163
MS.440         	9.352          	0.187
MS.441         	9.332          	0.187
MS.442         	9.315          	0.163
MS.443         	9.295          	0.163
MS.444         	9.278          	0.157
MS.445         	9.257          	0.193
MS.446         	9.24           	0.167
MS.447         	9.222          	0.185
MS.448         	9.202          	0.189
MS.449         	9.185          	0.165
MS.450         	9.165          	0.143
MS.451         	9.148          	0.161
MS.452         	9.13           	0.149
MS.453         	9.113          	0.163
MS.454         	9.092          	0.167
MS.455         	9.075          	0.145
MS.456         	9.057          	0.153
MS.457         	9.037          	0.147
MS.458         	9.02           	0.145
MS.459         	9.002          	0.151
MS.460         	8.985          	0.145
MS.461         	8.967          	0.147
MS.462         	8.948          	0.153
MS.463         	8.93           	0.147
MS.464         	8.912          	0.153
MS.465         	8.895          	0.153
MS.466         	8.877          	0.147
MS.467         	8.86           	0.151
MS.468         	8.842          	0.155
MS.469         	8.825          	0.153
MS.470         	8.807          	0.151
MS.471         	8.79           	0.149
MS.472         	8.773          	0.149
MS.473         	8.755          	0.151
MS.474         	8.738          	0.151
MS.475         	8.72           	0.147
MS.476         	8.702          	0.149
MS.477         	8.685          	0.149
MS.478         	8.667          	0.151
MS.479         	8.65           	0.149
MS.480         	8.632          	0.147
MS.481         	8.615          	0.149
MS.482         	8.597          	0.149
MS.483         	8.58           	0.151
MS.484         	8.562          	0.147
MS.485         	8.547          	0.153
MS.486         	8.53           	0.149
MS.487         	8.512          	0.153
MS.488         	8.495          	0.149
MS.489         	8.477          	0.147
MS.490         	8.462          	0.151
MS.491         	8.445          	0.153
MS.492         	8.427          	0.147
MS.493         	8.41           	0.153
MS.494         	8.395          	0.153
MS.495         	8.377          	0.149
MS.496         	8.36           	0.145
MS.497         	8.342          	0.145
MS.498         	8.327          	0.153
MS.499         	8.31           	0.153
MS.500         	8.295          	0.093
MS.501         	8.278          	0.097
