File:              	C:\Qtrac\Data\Daniel M Sørensen\MScan multicentre study\Data from centres\Aarhus\Processed data\DMSC00911B.QZD
Name:              	DK.AAR.NC.7.2
Protocol:          	MSCAN-R2
Date:              	11/9/20
Start time:        	13:30:51
Age:               	65
Sex:               	m
Temperature:       	34,9
S/R sites:         	ADM
NC/disease:        	NC
Operator:          	DS
Comments:
M-SCAN DATA (5.9-1.5m)
Scanpts: 10, 18, 531, 531
Stim. (mA)     	Amp. (mV)
MS.1           	33.5           	7.867
MS.2           	33.5           	7.891
MS.3           	33.5           	7.873
MS.4           	33.5           	7.873
MS.5           	33.5           	7.896
MS.6           	33.5           	7.898
MS.7           	33.5           	7.896
MS.8           	33.5           	7.891
MS.9           	33.5           	7.891
MS.10          	33.5           	7.887
MS.11          	33.5           	7.891
MS.12          	33.5           	7.881
MS.13          	33.5           	7.885
MS.14          	33.5           	7.879
MS.15          	33.5           	7.891
MS.16          	33.5           	7.881
MS.17          	33.5           	7.883
MS.18          	33.5           	7.883
MS.19          	33.5           	7.889
MS.20          	33.5           	7.893
MS.21          	33.5           	7.889
MS.22          	33.5           	7.887
MS.23          	33.365         	7.845
MS.24          	33.3           	7.869
MS.25          	33.232         	7.863
MS.26          	33.167         	7.869
MS.27          	33.1           	7.875
MS.28          	33.035         	7.869
MS.29          	32.967         	7.881
MS.30          	32.903         	7.871
MS.31          	32.837         	7.881
MS.32          	32.77          	7.863
MS.33          	32.705         	7.853
MS.34          	32.64          	7.861
MS.35          	32.575         	7.857
MS.36          	32.51          	7.873
MS.37          	32.445         	7.851
MS.38          	32.38          	7.857
MS.39          	32.315         	7.847
MS.40          	32.25          	7.881
MS.41          	32.188         	7.831
MS.42          	32.122         	7.841
MS.43          	32.057         	7.881
MS.44          	31.995         	7.896
MS.45          	31.93          	7.902
MS.46          	31.865         	7.859
MS.47          	31.802         	7.849
MS.48          	31.74          	7.845
MS.49          	31.675         	7.865
MS.50          	31.612         	7.865
MS.51          	31.55          	7.837
MS.52          	31.485         	7.865
MS.53          	31.422         	7.853
MS.54          	31.36          	7.839
MS.55          	31.297         	7.829
MS.56          	31.235         	7.827
MS.57          	31.172         	7.833
MS.58          	31.11          	7.835
MS.59          	31.047         	7.805
MS.60          	30.985         	7.853
MS.61          	30.925         	7.871
MS.62          	30.862         	7.871
MS.63          	30.8           	7.853
MS.64          	30.74          	7.857
MS.65          	30.677         	7.863
MS.66          	30.617         	7.851
MS.67          	30.555         	7.871
MS.68          	30.495         	7.855
MS.69          	30.432         	7.835
MS.70          	30.372         	7.841
MS.71          	30.312         	7.825
MS.72          	30.252         	7.847
MS.73          	30.19          	7.817
MS.74          	30.13          	7.825
MS.75          	30.07          	7.825
MS.76          	30.01          	7.823
MS.77          	29.95          	7.827
MS.78          	29.89          	7.787
MS.79          	29.83          	7.809
MS.80          	29.77          	7.799
MS.81          	29.712         	7.799
MS.82          	29.653         	7.795
MS.83          	29.592         	7.793
MS.84          	29.535         	7.795
MS.85          	29.475         	7.795
MS.86          	29.415         	7.775
MS.87          	29.358         	7.799
MS.88          	29.297         	7.779
MS.89          	29.24          	7.769
MS.90          	29.182         	7.773
MS.91          	29.122         	7.777
MS.92          	29.065         	7.791
MS.93          	29.007         	7.759
MS.94          	28.95          	7.767
MS.95          	28.892         	7.783
MS.96          	28.832         	7.767
MS.97          	28.775         	7.777
MS.98          	28.717         	7.734
MS.99          	28.66          	7.75
MS.100         	28.605         	7.759
MS.101         	28.547         	7.73
MS.102         	28.49          	7.714
MS.103         	28.432         	7.724
MS.104         	28.375         	7.732
MS.105         	28.32          	7.692
MS.106         	28.262         	7.692
MS.107         	28.205         	7.736
MS.108         	28.15          	7.674
MS.109         	28.092         	7.632
MS.110         	28.037         	7.66
MS.111         	27.983         	7.656
MS.112         	27.925         	7.664
MS.113         	27.87          	7.64
MS.114         	27.815         	7.644
MS.115         	27.757         	7.63
MS.116         	27.702         	7.63
MS.117         	27.647         	7.614
MS.118         	27.592         	7.636
MS.119         	27.537         	7.644
MS.120         	27.483         	7.63
MS.121         	27.427         	7.601
MS.122         	27.372         	7.632
MS.123         	27.317         	7.605
MS.124         	27.262         	7.601
MS.125         	27.21          	7.601
MS.126         	27.155         	7.569
MS.127         	27.1           	7.581
MS.128         	27.045         	7.577
MS.129         	26.993         	7.597
MS.130         	26.938         	7.585
MS.131         	26.885         	7.567
MS.132         	26.83          	7.612
MS.133         	26.778         	7.595
MS.134         	26.722         	7.533
MS.135         	26.67          	7.583
MS.136         	26.618         	7.601
MS.137         	26.562         	7.555
MS.138         	26.51          	7.541
MS.139         	26.457         	7.543
MS.140         	26.405         	7.517
MS.141         	26.352         	7.525
MS.142         	26.3           	7.469
MS.143         	26.247         	7.555
MS.144         	26.195         	7.563
MS.145         	26.142         	7.513
MS.146         	26.09          	7.428
MS.147         	26.037         	7.376
MS.148         	25.985         	7.491
MS.149         	25.932         	7.299
MS.150         	25.882         	7.338
MS.151         	25.83          	7.259
MS.152         	25.778         	7.342
MS.153         	25.727         	7.444
MS.154         	25.675         	7.307
MS.155         	25.625         	7.293
MS.156         	25.573         	7.229
MS.157         	25.522         	7.219
MS.158         	25.47          	7.249
MS.159         	25.42          	7.114
MS.160         	25.37          	7.197
MS.161         	25.317         	7.106
MS.162         	25.267         	7.114
MS.163         	25.217         	7.185
MS.164         	25.167         	7.136
MS.165         	25.118         	7.058
MS.166         	25.067         	7.046
MS.167         	25.017         	7.068
MS.168         	24.967         	7.122
MS.169         	24.917         	7.05
MS.170         	24.868         	7.013
MS.171         	24.817         	6.995
MS.172         	24.767         	7.031
MS.173         	24.717         	7.005
MS.174         	24.67          	6.89
MS.175         	24.62          	6.907
MS.176         	24.57          	6.886
MS.177         	24.522         	6.85
MS.178         	24.472         	6.882
MS.179         	24.422         	6.872
MS.180         	24.375         	6.927
MS.181         	24.325         	6.824
MS.182         	24.278         	6.739
MS.183         	24.23          	6.838
MS.184         	24.18          	6.834
MS.185         	24.132         	6.788
MS.186         	24.085         	6.627
MS.187         	24.035         	6.762
MS.188         	23.987         	6.747
MS.189         	23.94          	6.701
MS.190         	23.892         	6.679
MS.191         	23.845         	6.723
MS.192         	23.797         	6.715
MS.193         	23.75          	6.711
MS.194         	23.702         	6.657
MS.195         	23.655         	6.649
MS.196         	23.608         	6.606
MS.197         	23.56          	6.633
MS.198         	23.512         	6.633
MS.199         	23.465         	6.582
MS.200         	23.42          	6.633
MS.201         	23.372         	6.572
MS.202         	23.325         	6.641
MS.203         	23.28          	6.604
MS.204         	23.233         	6.49
MS.205         	23.185         	6.653
MS.206         	23.14          	6.502
MS.207         	23.092         	6.562
MS.208         	23.047         	6.447
MS.209         	23             	6.471
MS.210         	22.955         	6.433
MS.211         	22.91          	6.423
MS.212         	22.862         	6.471
MS.213         	22.817         	6.526
MS.214         	22.772         	6.504
MS.215         	22.727         	6.411
MS.216         	22.682         	6.455
MS.217         	22.635         	6.306
MS.218         	22.59          	6.345
MS.219         	22.545         	6.183
MS.220         	22.5           	6.308
MS.221         	22.455         	6.272
MS.222         	22.41          	6.149
MS.223         	22.365         	6.093
MS.224         	22.323         	6.153
MS.225         	22.278         	6.123
MS.226         	22.233         	6.022
MS.227         	22.188         	6.055
MS.228         	22.142         	6.061
MS.229         	22.1           	5.992
MS.230         	22.055         	6.042
MS.231         	22.01          	5.976
MS.232         	21.967         	5.811
MS.233         	21.922         	6.038
MS.234         	21.88          	5.855
MS.235         	21.835         	5.901
MS.236         	21.792         	5.813
MS.237         	21.747         	5.71
MS.238         	21.705         	5.799
MS.239         	21.663         	5.716
MS.240         	21.618         	5.726
MS.241         	21.575         	5.694
MS.242         	21.532         	5.533
MS.243         	21.49          	5.551
MS.244         	21.445         	5.668
MS.245         	21.403         	5.412
MS.246         	21.36          	5.454
MS.247         	21.317         	5.545
MS.248         	21.275         	5.342
MS.249         	21.233         	5.235
MS.250         	21.19          	5.299
MS.251         	21.147         	5.342
MS.252         	21.105         	5.241
MS.253         	21.062         	5.132
MS.254         	21.022         	5.223
MS.255         	20.98          	5.102
MS.256         	20.938         	5.205
MS.257         	20.895         	5.064
MS.258         	20.855         	4.979
MS.259         	20.812         	5.047
MS.260         	20.77          	5.11
MS.261         	20.73          	4.939
MS.262         	20.688         	4.989
MS.263         	20.647         	5.062
MS.264         	20.605         	4.844
MS.265         	20.565         	4.826
MS.266         	20.522         	4.963
MS.267         	20.483         	4.963
MS.268         	20.44          	4.878
MS.269         	20.4           	4.826
MS.270         	20.36          	4.826
MS.271         	20.317         	4.713
MS.272         	20.278         	4.721
MS.273         	20.237         	4.53
MS.274         	20.198         	4.697
MS.275         	20.157         	4.757
MS.276         	20.118         	4.461
MS.277         	20.077         	4.518
MS.278         	20.035         	4.504
MS.279         	19.995         	4.484
MS.280         	19.955         	4.647
MS.281         	19.917         	4.707
MS.282         	19.877         	4.433
MS.283         	19.837         	4.33
MS.284         	19.797         	4.332
MS.285         	19.757         	4.24
MS.286         	19.717         	4.161
MS.287         	19.68          	4.187
MS.288         	19.64          	4.21
MS.289         	19.6           	4.067
MS.290         	19.56          	4.21
MS.291         	19.522         	4.038
MS.292         	19.483         	3.857
MS.293         	19.445         	3.966
MS.294         	19.405         	3.99
MS.295         	19.368         	4.048
MS.296         	19.327         	3.905
MS.297         	19.29          	3.911
MS.298         	19.25          	3.944
MS.299         	19.212         	3.909
MS.300         	19.172         	3.827
MS.301         	19.135         	3.873
MS.302         	19.097         	3.646
MS.303         	19.06          	3.775
MS.304         	19.02          	3.746
MS.305         	18.983         	3.658
MS.306         	18.945         	3.801
MS.307         	18.907         	3.65
MS.308         	18.87          	3.644
MS.309         	18.833         	3.523
MS.310         	18.795         	3.527
MS.311         	18.757         	3.503
MS.312         	18.72          	3.462
MS.313         	18.682         	3.529
MS.314         	18.645         	3.539
MS.315         	18.608         	3.541
MS.316         	18.57          	3.388
MS.317         	18.532         	3.438
MS.318         	18.495         	3.527
MS.319         	18.46          	3.482
MS.320         	18.422         	3.299
MS.321         	18.385         	3.388
MS.322         	18.347         	3.237
MS.323         	18.312         	3.275
MS.324         	18.275         	3.42
MS.325         	18.237         	3.07
MS.326         	18.202         	3.217
MS.327         	18.165         	3.136
MS.328         	18.13          	3.174
MS.329         	18.092         	2.872
MS.330         	18.057         	2.981
MS.331         	18.02          	3.269
MS.332         	17.985         	3.118
MS.333         	17.95          	3.055
MS.334         	17.913         	3.182
MS.335         	17.878         	2.814
MS.336         	17.842         	2.975
MS.337         	17.805         	3.053
MS.338         	17.77          	3.019
MS.339         	17.735         	3.029
MS.340         	17.7           	2.699
MS.341         	17.665         	2.767
MS.342         	17.63          	2.417
MS.343         	17.592         	2.58
MS.344         	17.557         	2.763
MS.345         	17.522         	2.232
MS.346         	17.487         	2.242
MS.347         	17.452         	2.318
MS.348         	17.417         	2.099
MS.349         	17.385         	1.831
MS.350         	17.35          	2.417
MS.351         	17.315         	1.809
MS.352         	17.28          	2.026
MS.353         	17.245         	1.998
MS.354         	17.21          	1.732
MS.355         	17.177         	2.145
MS.356         	17.142         	2.016
MS.357         	17.108         	2.284
MS.358         	17.073         	2.101
MS.359         	17.04          	2.024
MS.360         	17.005         	1.642
MS.361         	16.972         	1.764
MS.362         	16.938         	2.026
MS.363         	16.905         	1.789
MS.364         	16.87          	1.629
MS.365         	16.837         	1.65
MS.366         	16.802         	1.728
MS.367         	16.77          	1.64
MS.368         	16.735         	1.587
MS.369         	16.702         	1.698
MS.370         	16.67          	1.352
MS.371         	16.635         	1.599
MS.372         	16.602         	1.752
MS.373         	16.57          	1.307
MS.374         	16.535         	1.442
MS.375         	16.503         	1.484
MS.376         	16.47          	1.347
MS.377         	16.438         	1.416
MS.378         	16.405         	1.337
MS.379         	16.372         	1.168
MS.380         	16.34          	1.333
MS.381         	16.305         	1.198
MS.382         	16.272         	1.307
MS.383         	16.24          	1.243
MS.384         	16.208         	1.072
MS.385         	16.175         	1.299
MS.386         	16.145         	1.213
MS.387         	16.112         	1.098
MS.388         	16.08          	1.13
MS.389         	16.047         	1.096
MS.390         	16.015         	1.138
MS.391         	15.983         	0.935
MS.392         	15.952         	0.947
MS.393         	15.92          	0.997
MS.394         	15.887         	1.029
MS.395         	15.855         	0.973
MS.396         	15.825         	0.773
MS.397         	15.792         	0.866
MS.398         	15.76          	0.721
MS.399         	15.73          	0.806
MS.400         	15.697         	0.651
MS.401         	15.667         	0.54
MS.402         	15.635         	0.739
MS.403         	15.605         	0.675
MS.404         	15.572         	0.826
MS.405         	15.542         	0.659
MS.406         	15.51          	0.608
MS.407         	15.48          	0.556
MS.408         	15.45          	0.324
MS.409         	15.417         	0.272
MS.410         	15.387         	0.489
MS.411         	15.358         	0.423
MS.412         	15.325         	0.465
MS.413         	15.295         	0.375
MS.414         	15.265         	0.354
MS.415         	15.235         	0.322
MS.416         	15.202         	0.461
MS.417         	15.172         	0.338
MS.418         	15.142         	0.332
MS.419         	15.112         	0.304
MS.420         	15.082         	0.23
MS.421         	15.052         	0.262
MS.422         	15.023         	0.224
MS.423         	14.992         	0.258
MS.424         	14.962         	0.209
MS.425         	14.932         	0.161
MS.426         	14.902         	0.207
MS.427         	14.872         	0.167
MS.428         	14.842         	0.195
MS.429         	14.812         	0.207
MS.430         	14.785         	0.169
MS.431         	14.755         	0.165
MS.432         	14.725         	0.165
MS.433         	14.695         	0.175
MS.434         	14.665         	0.175
MS.435         	14.637         	0.173
MS.436         	14.608         	0.157
MS.437         	14.577         	0.175
MS.438         	14.55          	0.167
MS.439         	14.52          	0.159
MS.440         	14.49          	0.157
MS.441         	14.462         	0.173
MS.442         	14.432         	0.145
MS.443         	14.405         	0.159
MS.444         	14.375         	0.155
MS.445         	14.347         	0.163
MS.446         	14.318         	0.155
MS.447         	14.29          	0.169
MS.448         	14.26          	0.177
MS.449         	14.233         	0.161
MS.450         	14.205         	0.143
MS.451         	14.175         	0.165
MS.452         	14.148         	0.165
MS.453         	14.12          	0.163
MS.454         	14.09          	0.161
MS.455         	14.062         	0.153
MS.456         	14.035         	0.161
MS.457         	14.007         	0.163
MS.458         	13.98          	0.099
MS.459         	13.95          	0.167
MS.460         	13.922         	0.097
MS.461         	13.895         	0.159
MS.462         	13.867         	0.083
MS.463         	13.84          	0.149
MS.464         	13.812         	0.087
MS.465         	13.785         	0.087
MS.466         	13.757         	0.093
MS.467         	13.73          	0.085
MS.468         	13.702         	0.077
MS.469         	13.675         	0.081
MS.470         	13.648         	0.087
MS.471         	13.62          	0.083
MS.472         	13.592         	0.083
MS.473         	13.565         	0.081
MS.474         	13.537         	0.087
MS.475         	13.512         	0.083
MS.476         	13.485         	0.02
MS.477         	13.457         	0.083
MS.478         	13.43          	0.087
MS.479         	13.405         	0.02
MS.480         	13.377         	0.026
MS.481         	13.35          	0.024
MS.482         	13.322         	0.087
MS.483         	13.297         	0.083
MS.484         	13.27          	0.02
MS.485         	13.245         	0.024
MS.486         	13.217         	0.02
MS.487         	13.19          	0.028
MS.488         	13.165         	0.02
MS.489         	13.137         	0.018
MS.490         	13.112         	0.012
MS.491         	13.085         	0.016
MS.492         	13.06          	0.02
MS.493         	13.032         	0.02
MS.494         	13.007         	0.028
MS.495         	12.983         	0.026
MS.496         	12.955         	0.024
MS.497         	12.93          	0.024
MS.498         	12.905         	0.018
MS.499         	12.877         	0.018
MS.500         	12.852         	0.022
MS.501         	12.827         	0.018
