File:              	C:\Qtrac\Data\Daniel M Sørensen\MScan multicentre study\Data from centres\Aarhus\Processed data\DMSC00303A.QZD
Name:              	DK.AAR.NC.3.2
Protocol:          	MSCAN-R2
Date:              	3/3/20
Start time:        	14:10:53
Age:               	48
Sex:               	m
Temperature:       	35,2
S/R sites:         	APB
NC/disease:        	NC
Operator:          	DS
Comments:
M-SCAN DATA (8.4-4m)
Scanpts: 54, 64, 458, 480
Stim. (mA)     	Amp. (mV)
MS.1           	17.5           	9.827
MS.2           	17.5           	9.898
MS.3           	17.5           	9.902
MS.4           	17.5           	9.845
MS.5           	17.5           	9.851
MS.6           	17.5           	9.843
MS.7           	17.5           	9.883
MS.8           	17.5           	9.906
MS.9           	17.5           	9.863
MS.10          	17.5           	9.857
MS.11          	17.5           	9.924
MS.12          	17.5           	9.847
MS.13          	17.5           	9.904
MS.14          	17.5           	9.857
MS.15          	17.5           	9.837
MS.16          	17.5           	9.896
MS.17          	17.5           	9.898
MS.18          	17.5           	9.841
MS.19          	17.5           	9.849
MS.20          	17.5           	9.898
MS.21          	17.5           	9.839
MS.22          	17.5           	9.914
MS.23          	17.5           	9.875
MS.24          	17.43          	9.859
MS.25          	17.395         	9.863
MS.26          	17.36          	9.861
MS.27          	17.325         	9.867
MS.28          	17.29          	9.898
MS.29          	17.257         	9.914
MS.30          	17.222         	9.958
MS.31          	17.188         	9.902
MS.32          	17.153         	9.896
MS.33          	17.12          	9.896
MS.34          	17.085         	9.906
MS.35          	17.05          	9.914
MS.36          	17.017         	9.91
MS.37          	16.983         	9.916
MS.38          	16.95          	9.912
MS.39          	16.915         	9.91
MS.40          	16.88          	9.906
MS.41          	16.847         	9.91
MS.42          	16.812         	9.918
MS.43          	16.78          	9.926
MS.44          	16.747         	9.926
MS.45          	16.712         	9.934
MS.46          	16.68          	9.922
MS.47          	16.647         	9.932
MS.48          	16.612         	9.93
MS.49          	16.58          	9.932
MS.50          	16.547         	9.934
MS.51          	16.515         	9.938
MS.52          	16.48          	9.962
MS.53          	16.448         	9.944
MS.54          	16.415         	9.962
MS.55          	16.382         	9.958
MS.56          	16.35          	9.946
MS.57          	16.317         	9.946
MS.58          	16.285         	9.95
MS.59          	16.253         	9.978
MS.60          	16.22          	9.964
MS.61          	16.188         	9.966
MS.62          	16.155         	9.96
MS.63          	16.122         	9.972
MS.64          	16.09          	9.968
MS.65          	16.057         	9.968
MS.66          	16.025         	9.974
MS.67          	15.992         	9.936
MS.68          	15.962         	9.984
MS.69          	15.93          	9.982
MS.70          	15.898         	9.98
MS.71          	15.867         	9.926
MS.72          	15.835         	9.978
MS.73          	15.802         	9.996
MS.74          	15.773         	9.815
MS.75          	15.74          	9.958
MS.76          	15.707         	9.879
MS.77          	15.677         	9.845
MS.78          	15.645         	9.976
MS.79          	15.615         	9.875
MS.80          	15.582         	9.974
MS.81          	15.552         	9.974
MS.82          	15.52          	9.684
MS.83          	15.49          	9.855
MS.84          	15.46          	9.906
MS.85          	15.427         	9.749
MS.86          	15.398         	9.89
MS.87          	15.367         	9.753
MS.88          	15.335         	9.515
MS.89          	15.305         	9.589
MS.90          	15.275         	9.597
MS.91          	15.245         	9.704
MS.92          	15.212         	9.698
MS.93          	15.182         	9.571
MS.94          	15.152         	9.571
MS.95          	15.122         	9.493
MS.96          	15.092         	9.503
MS.97          	15.062         	9.477
MS.98          	15.032         	9.636
MS.99          	15.002         	9.517
MS.100         	14.972         	9.551
MS.101         	14.943         	9.513
MS.102         	14.912         	9.531
MS.103         	14.882         	9.527
MS.104         	14.852         	9.499
MS.105         	14.822         	9.505
MS.106         	14.792         	9.602
MS.107         	14.765         	9.503
MS.108         	14.735         	9.491
MS.109         	14.705         	9.497
MS.110         	14.675         	9.45
MS.111         	14.648         	9.499
MS.112         	14.617         	9.493
MS.113         	14.587         	9.481
MS.114         	14.56          	9.493
MS.115         	14.53          	9.485
MS.116         	14.5           	9.495
MS.117         	14.472         	9.446
MS.118         	14.443         	8.778
MS.119         	14.415         	9.336
MS.120         	14.385         	8.989
MS.121         	14.358         	9.442
MS.122         	14.327         	9.43
MS.123         	14.3           	9.45
MS.124         	14.27          	8.876
MS.125         	14.242         	9.489
MS.126         	14.212         	9.04
MS.127         	14.185         	9.422
MS.128         	14.157         	8.768
MS.129         	14.127         	9.005
MS.130         	14.1           	9.273
MS.131         	14.072         	8.911
MS.132         	14.045         	8.484
MS.133         	14.015         	8.866
MS.134         	13.987         	8.343
MS.135         	13.96          	8.653
MS.136         	13.932         	8.528
MS.137         	13.905         	8.49
MS.138         	13.877         	8.482
MS.139         	13.85          	8.355
MS.140         	13.82          	8.292
MS.141         	13.792         	8.333
MS.142         	13.765         	8.186
MS.143         	13.737         	8.464
MS.144         	13.71          	8.401
MS.145         	13.682         	8.482
MS.146         	13.655         	8.198
MS.147         	13.63          	8.232
MS.148         	13.602         	8.429
MS.149         	13.575         	8.327
MS.150         	13.547         	8.244
MS.151         	13.52          	8.415
MS.152         	13.492         	8.204
MS.153         	13.467         	8.347
MS.154         	13.44          	8.163
MS.155         	13.412         	8.292
MS.156         	13.385         	8.175
MS.157         	13.36          	8.19
MS.158         	13.332         	8.159
MS.159         	13.305         	8.21
MS.160         	13.28          	8.117
MS.161         	13.252         	8.085
MS.162         	13.225         	8.103
MS.163         	13.2           	7.918
MS.164         	13.172         	7.918
MS.165         	13.148         	7.873
MS.166         	13.12          	7.853
MS.167         	13.095         	7.924
MS.168         	13.068         	7.849
MS.169         	13.042         	7.843
MS.170         	13.015         	7.779
MS.171         	12.99          	8.075
MS.172         	12.965         	8.03
MS.173         	12.938         	7.851
MS.174         	12.912         	7.936
MS.175         	12.887         	8.141
MS.176         	12.86          	7.938
MS.177         	12.835         	7.873
MS.178         	12.81          	7.674
MS.179         	12.785         	7.807
MS.180         	12.757         	7.666
MS.181         	12.733         	7.738
MS.182         	12.707         	7.664
MS.183         	12.682         	7.724
MS.184         	12.657         	7.624
MS.185         	12.632         	7.404
MS.186         	12.608         	7.555
MS.187         	12.58          	7.456
MS.188         	12.555         	7.654
MS.189         	12.53          	7.487
MS.190         	12.505         	7.589
MS.191         	12.48          	7.412
MS.192         	12.455         	7.39
MS.193         	12.43          	7.481
MS.194         	12.405         	7.281
MS.195         	12.382         	7.332
MS.196         	12.358         	7.537
MS.197         	12.332         	7.4
MS.198         	12.307         	7.313
MS.199         	12.282         	6.933
MS.200         	12.257         	7.309
MS.201         	12.233         	7.219
MS.202         	12.21          	7.285
MS.203         	12.185         	7.062
MS.204         	12.16          	6.955
MS.205         	12.135         	7.221
MS.206         	12.113         	7.064
MS.207         	12.087         	7.283
MS.208         	12.062         	7.11
MS.209         	12.04          	6.848
MS.210         	12.015         	6.703
MS.211         	11.992         	6.894
MS.212         	11.967         	6.697
MS.213         	11.943         	6.735
MS.214         	11.92          	6.836
MS.215         	11.895         	6.324
MS.216         	11.872         	6.643
MS.217         	11.847         	6.502
MS.218         	11.825         	6.617
MS.219         	11.8           	6.617
MS.220         	11.778         	6.598
MS.221         	11.755         	6.596
MS.222         	11.73          	6.367
MS.223         	11.707         	6.471
MS.224         	11.682         	6.361
MS.225         	11.66          	5.883
MS.226         	11.637         	6.268
MS.227         	11.615         	6.232
MS.228         	11.59          	6.135
MS.229         	11.568         	6.188
MS.230         	11.545         	6.099
MS.231         	11.523         	5.672
MS.232         	11.497         	5.994
MS.233         	11.475         	6.308
MS.234         	11.452         	6
MS.235         	11.43          	5.428
MS.236         	11.407         	5.771
MS.237         	11.385         	5.666
MS.238         	11.36          	5.424
MS.239         	11.337         	5.617
MS.240         	11.315         	5.041
MS.241         	11.292         	5.035
MS.242         	11.27          	5.056
MS.243         	11.247         	4.898
MS.244         	11.225         	4.774
MS.245         	11.202         	5.186
MS.246         	11.18          	5.17
MS.247         	11.157         	4.923
MS.248         	11.135         	4.842
MS.249         	11.115         	4.641
MS.250         	11.092         	4.389
MS.251         	11.07          	4.635
MS.252         	11.047         	4.5
MS.253         	11.025         	4.564
MS.254         	11.002         	4.741
MS.255         	10.983         	4.407
MS.256         	10.96          	4.349
MS.257         	10.938         	4.473
MS.258         	10.915         	4.244
MS.259         	10.895         	4.135
MS.260         	10.872         	4.365
MS.261         	10.85          	4.3
MS.262         	10.827         	4.254
MS.263         	10.807         	3.787
MS.264         	10.785         	3.986
MS.265         	10.765         	3.807
MS.266         	10.742         	3.728
MS.267         	10.72          	3.674
MS.268         	10.7           	3.895
MS.269         	10.677         	3.644
MS.270         	10.657         	3.889
MS.271         	10.635         	3.396
MS.272         	10.615         	3.201
MS.273         	10.592         	3.585
MS.274         	10.573         	3.295
MS.275         	10.55          	3.509
MS.276         	10.53          	3.376
MS.277         	10.507         	3.237
MS.278         	10.488         	3.194
MS.279         	10.467         	3.13
MS.280         	10.445         	3.088
MS.281         	10.425         	3.321
MS.282         	10.405         	2.981
MS.283         	10.382         	3.416
MS.284         	10.363         	3.203
MS.285         	10.342         	3.35
MS.286         	10.32          	2.723
MS.287         	10.3           	2.669
MS.288         	10.28          	2.854
MS.289         	10.26          	2.655
MS.290         	10.24          	2.6
MS.291         	10.217         	2.939
MS.292         	10.198         	2.342
MS.293         	10.177         	2.206
MS.294         	10.157         	2.612
MS.295         	10.137         	2.751
MS.296         	10.117         	2.004
MS.297         	10.097         	2.463
MS.298         	10.077         	2.298
MS.299         	10.057         	2.266
MS.300         	10.035         	2.236
MS.301         	10.015         	2.197
MS.302         	9.995          	2.028
MS.303         	9.975          	2.302
MS.304         	9.955          	1.754
MS.305         	9.938          	1.98
MS.306         	9.917          	1.75
MS.307         	9.898          	1.623
MS.308         	9.877          	1.893
MS.309         	9.858          	1.736
MS.310         	9.837          	1.781
MS.311         	9.818          	1.476
MS.312         	9.797          	1.501
MS.313         	9.778          	1.756
MS.314         	9.76           	1.678
MS.315         	9.74           	1.587
MS.316         	9.72           	1.354
MS.317         	9.7            	1.539
MS.318         	9.682          	1.45
MS.319         	9.662          	1.47
MS.320         	9.642          	1.345
MS.321         	9.622          	1.118
MS.322         	9.605          	1.134
MS.323         	9.585          	1.134
MS.324         	9.565          	1.402
MS.325         	9.547          	1.188
MS.326         	9.528          	1.327
MS.327         	9.507          	1.158
MS.328         	9.49           	1.057
MS.329         	9.47           	1.057
MS.330         	9.452          	0.904
MS.331         	9.432          	0.995
MS.332         	9.415          	1.001
MS.333         	9.395          	1.18
MS.334         	9.377          	1.011
MS.335         	9.358          	0.975
MS.336         	9.34           	0.804
MS.337         	9.32           	0.816
MS.338         	9.302          	0.824
MS.339         	9.283          	0.985
MS.340         	9.265          	0.786
MS.341         	9.245          	0.852
MS.342         	9.227          	0.773
MS.343         	9.21           	0.693
MS.344         	9.19           	0.733
MS.345         	9.172          	0.731
MS.346         	9.155          	0.681
MS.347         	9.135          	0.733
MS.348         	9.117          	0.592
MS.349         	9.1            	0.665
MS.350         	9.08           	0.683
MS.351         	9.062          	0.632
MS.352         	9.045          	0.643
MS.353         	9.028          	0.628
MS.354         	9.01           	0.636
MS.355         	8.99           	0.685
MS.356         	8.972          	0.556
MS.357         	8.955          	0.701
MS.358         	8.938          	0.534
MS.359         	8.92           	0.592
MS.360         	8.903          	0.588
MS.361         	8.882          	0.554
MS.362         	8.865          	0.59
MS.363         	8.847          	0.473
MS.364         	8.83           	0.528
MS.365         	8.812          	0.518
MS.366         	8.795          	0.524
MS.367         	8.778          	0.548
MS.368         	8.76           	0.449
MS.369         	8.742          	0.483
MS.370         	8.725          	0.56
MS.371         	8.707          	0.502
MS.372         	8.69           	0.441
MS.373         	8.672          	0.516
MS.374         	8.655          	0.375
MS.375         	8.637          	0.465
MS.376         	8.62           	0.415
MS.377         	8.602          	0.405
MS.378         	8.587          	0.306
MS.379         	8.57           	0.423
MS.380         	8.552          	0.3
MS.381         	8.535          	0.421
MS.382         	8.517          	0.232
MS.383         	8.5            	0.302
MS.384         	8.485          	0.3
MS.385         	8.467          	0.292
MS.386         	8.45           	0.211
MS.387         	8.432          	0.359
MS.388         	8.417          	0.23
MS.389         	8.4            	0.195
MS.390         	8.382          	0.23
MS.391         	8.365          	0.165
MS.392         	8.35           	0.334
MS.393         	8.332          	0.357
MS.394         	8.315          	0.278
MS.395         	8.3            	0.145
MS.396         	8.283          	0.342
MS.397         	8.267          	0.167
MS.398         	8.25           	0.163
MS.399         	8.233          	0.139
MS.400         	8.217          	0.167
MS.401         	8.2            	0.371
MS.402         	8.185          	0.197
MS.403         	8.167          	0.199
MS.404         	8.153          	0.193
MS.405         	8.135          	0.187
MS.406         	8.12           	0.137
MS.407         	8.102          	0.155
MS.408         	8.087          	0.139
MS.409         	8.07           	0.199
MS.410         	8.055          	0.149
MS.411         	8.037          	0.145
MS.412         	8.023          	0.143
MS.413         	8.005          	0.145
MS.414         	7.99           	0.149
MS.415         	7.975          	0.153
MS.416         	7.957          	0.149
MS.417         	7.942          	0.004
MS.418         	7.927          	0.147
MS.419         	7.91           	0.151
MS.420         	7.895          	0.201
MS.421         	7.88           	0.151
MS.422         	7.862          	0.004
MS.423         	7.847          	0.149
MS.424         	7.832          	0.149
MS.425         	7.815          	0.004
MS.426         	7.8            	0.151
MS.427         	7.785          	0.002
MS.428         	7.77           	0.004
MS.429         	7.755          	0.006
MS.430         	7.737          	0.002
MS.431         	7.722          	0.151
MS.432         	7.707          	0.004
MS.433         	7.692          	0.149
MS.434         	7.677          	0.004
MS.435         	7.662          	0.151
MS.436         	7.645          	0.002
MS.437         	7.63           	0.002
MS.438         	7.615          	0.002
MS.439         	7.6            	0.004
MS.440         	7.585          	0.002
MS.441         	7.57           	0.002
MS.442         	7.555          	0.002
MS.443         	7.54           	0.004
MS.444         	7.525          	0.002
MS.445         	7.51           	0.004
MS.446         	7.495          	0.004
MS.447         	7.48           	0.004
MS.448         	7.465          	0.002
MS.449         	7.45           	0.002
MS.450         	7.435          	0.002
MS.451         	7.42           	0.004
MS.452         	7.405          	0.002
MS.453         	7.39           	0.004
MS.454         	7.375          	0.002
MS.455         	7.36           	0.002
MS.456         	7.347          	0.004
MS.457         	7.332          	0.004
MS.458         	7.317          	0.004
MS.459         	7.302          	0.004
MS.460         	7.287          	0.004
MS.461         	7.273          	0.004
MS.462         	7.257          	0.002
MS.463         	7.245          	0.002
MS.464         	7.23           	0.004
MS.465         	7.215          	0.004
MS.466         	7.2            	0.004
MS.467         	7.188          	0.004
MS.468         	7.172          	0.002
MS.469         	7.157          	0.002
MS.470         	7.142          	0.002
MS.471         	7.13           	0.002
MS.472         	7.115          	0.004
MS.473         	7.1            	0.004
MS.474         	7.087          	0.002
MS.475         	7.072          	0.002
MS.476         	7.057          	0.002
MS.477         	7.045          	0.004
MS.478         	7.03           	0.004
MS.479         	7.015          	0.004
MS.480         	7.003          	0.004
DERIVED EXCITABILITY VARIABLES
Program = QTracP 9/10/2021
Threshold method = 6 (optimised for CAP, using data for present condition only)
SR method = 1 (using actual data values)
6.                 	0.000               	Peak response\(mV)
9.                 	35                  	Temperature ( C)
17.                	48                  	Age (years)
18.                	1                   	Sex (M=1, F=2)

EXTRA VARIABLES

MScPeak(mV) = 9.87
MScS5(mA) = 8.75
MScS50(mA) = 11.21
MScS95(mA) = 14.28
MScNSteps = 2
MScSteps(%) = 4.8
MScStepMax(%) = 2.4
MScD50 = 48
MScSlope = 5
MScDuration(min) = 4.4
MSFTraces = 427
MSFPeakAmp(mV) = 9.96
MSFNUnits = 91
MSFMeanUnitAmp(uV) = 109.4
MSFHuntTime(m) = 2.91
MSFError(%) = 3.85
MSFNLarge = 26.57
MSFMedianAmp(%) = 0.926
MSFMedianAmp(mV) = 0.0922
