File:              	C:\Qtrac\Data\Daniel M Sørensen\MScan multicentre study\Data from centres\Aarhus\Processed data\DMSC00611B.QZD
Name:              	DK.AAR.NC.1.1
Protocol:          	MSCAN-R2
Date:              	11/6/20
Start time:        	14:00:47
Age:               	21
Sex:               	f
Temperature:       	35,0
S/R sites:         	ADM
NC/disease:        	NC
Operator:          	DS
Comments:
M-SCAN DATA (8-2.7m)
Scanpts: 117, 127, 558, 579
Stim. (mA)     	Amp. (mV)
MS.1           	28             	10.802
MS.2           	28             	10.82
MS.3           	28             	10.826
MS.4           	28             	10.846
MS.5           	28             	10.822
MS.6           	28             	10.862
MS.7           	28             	10.828
MS.8           	28             	10.87
MS.9           	28             	10.885
MS.10          	28             	10.909
MS.11          	28             	10.909
MS.12          	28             	10.929
MS.13          	28             	10.935
MS.14          	28             	10.951
MS.15          	28             	10.941
MS.16          	28             	10.945
MS.17          	28             	10.951
MS.18          	28             	10.955
MS.19          	28             	10.975
MS.20          	28             	10.957
MS.21          	28             	10.961
MS.22          	28             	10.939
MS.23          	28             	10.941
MS.24          	27.887         	10.973
MS.25          	27.832         	11.007
MS.26          	27.778         	11.021
MS.27          	27.722         	11.001
MS.28          	27.665         	11.003
MS.29          	27.61          	11.026
MS.30          	27.555         	11.056
MS.31          	27.5           	11.078
MS.32          	27.445         	11.062
MS.33          	27.39          	11.064
MS.34          	27.335         	11.054
MS.35          	27.282         	11.11
MS.36          	27.227         	11.104
MS.37          	27.172         	11.046
MS.38          	27.118         	11.11
MS.39          	27.065         	11.104
MS.40          	27.01          	11.108
MS.41          	26.955         	11.156
MS.42          	26.903         	11.156
MS.43          	26.847         	11.169
MS.44          	26.795         	11.14
MS.45          	26.74          	11.146
MS.46          	26.688         	11.148
MS.47          	26.635         	11.16
MS.48          	26.58          	11.167
MS.49          	26.528         	11.177
MS.50          	26.475         	11.169
MS.51          	26.422         	11.191
MS.52          	26.37          	11.16
MS.53          	26.317         	11.193
MS.54          	26.265         	11.171
MS.55          	26.212         	11.156
MS.56          	26.16          	11.156
MS.57          	26.108         	11.158
MS.58          	26.055         	11.164
MS.59          	26.002         	11.215
MS.60          	25.95          	11.179
MS.61          	25.9           	11.211
MS.62          	25.847         	11.169
MS.63          	25.795         	11.223
MS.64          	25.745         	11.217
MS.65          	25.692         	11.197
MS.66          	25.64          	11.221
MS.67          	25.59          	11.255
MS.68          	25.54          	11.279
MS.69          	25.487         	11.293
MS.70          	25.438         	11.209
MS.71          	25.385         	11.156
MS.72          	25.335         	11.197
MS.73          	25.285         	11.265
MS.74          	25.235         	11.293
MS.75          	25.185         	11.253
MS.76          	25.132         	11.193
MS.77          	25.082         	11.247
MS.78          	25.032         	11.299
MS.79          	24.983         	11.227
MS.80          	24.932         	11.209
MS.81          	24.882         	11.199
MS.82          	24.832         	11.241
MS.83          	24.785         	11.257
MS.84          	24.735         	11.305
MS.85          	24.685         	11.277
MS.86          	24.635         	11.293
MS.87          	24.587         	11.263
MS.88          	24.538         	11.295
MS.89          	24.487         	11.314
MS.90          	24.44          	11.312
MS.91          	24.39          	11.281
MS.92          	24.342         	11.297
MS.93          	24.292         	11.338
MS.94          	24.245         	11.303
MS.95          	24.198         	11.346
MS.96          	24.147         	11.364
MS.97          	24.1           	11.348
MS.98          	24.052         	11.326
MS.99          	24.002         	11.322
MS.100         	23.955         	11.416
MS.101         	23.907         	11.364
MS.102         	23.86          	11.36
MS.103         	23.812         	11.354
MS.104         	23.765         	11.362
MS.105         	23.717         	11.368
MS.106         	23.67          	11.366
MS.107         	23.622         	11.372
MS.108         	23.575         	11.428
MS.109         	23.528         	11.366
MS.110         	23.48          	11.481
MS.111         	23.435         	11.465
MS.112         	23.387         	11.513
MS.113         	23.34          	11.463
MS.114         	23.295         	11.453
MS.115         	23.247         	11.418
MS.116         	23.2           	11.467
MS.117         	23.155         	11.434
MS.118         	23.108         	11.414
MS.119         	23.062         	11.426
MS.120         	23.017         	11.436
MS.121         	22.97          	11.507
MS.122         	22.925         	11.483
MS.123         	22.877         	11.495
MS.124         	22.832         	11.424
MS.125         	22.788         	11.525
MS.126         	22.743         	11.483
MS.127         	22.698         	11.493
MS.128         	22.65          	11.459
MS.129         	22.605         	11.463
MS.130         	22.56          	11.42
MS.131         	22.515         	11.463
MS.132         	22.47          	11.553
MS.133         	22.425         	11.338
MS.134         	22.38          	11.418
MS.135         	22.335         	11.376
MS.136         	22.292         	11.459
MS.137         	22.247         	11.459
MS.138         	22.202         	11.483
MS.139         	22.157         	11.382
MS.140         	22.115         	11.38
MS.141         	22.07          	11.404
MS.142         	22.025         	11.382
MS.143         	21.983         	11.366
MS.144         	21.938         	11.279
MS.145         	21.892         	11.303
MS.146         	21.85          	11.404
MS.147         	21.807         	11.374
MS.148         	21.762         	11.235
MS.149         	21.72          	11.227
MS.150         	21.675         	11.271
MS.151         	21.632         	11.265
MS.152         	21.59          	11.164
MS.153         	21.545         	11.277
MS.154         	21.502         	11.227
MS.155         	21.46          	11.183
MS.156         	21.417         	11.152
MS.157         	21.375         	11.171
MS.158         	21.333         	11.074
MS.159         	21.29          	11.14
MS.160         	21.247         	11.209
MS.161         	21.205         	11.056
MS.162         	21.163         	11.013
MS.163         	21.12          	10.993
MS.164         	21.077         	10.911
MS.165         	21.035         	10.957
MS.166         	20.993         	10.921
MS.167         	20.952         	10.778
MS.168         	20.91          	10.834
MS.169         	20.868         	10.546
MS.170         	20.825         	10.645
MS.171         	20.785         	10.721
MS.172         	20.743         	10.675
MS.173         	20.702         	10.58
MS.174         	20.66          	10.588
MS.175         	20.62          	10.679
MS.176         	20.577         	10.603
MS.177         	20.538         	10.56
MS.178         	20.495         	10.478
MS.179         	20.455         	10.596
MS.180         	20.413         	10.705
MS.181         	20.372         	10.395
MS.182         	20.333         	10.453
MS.183         	20.292         	10.359
MS.184         	20.25          	10.248
MS.185         	20.21          	10.202
MS.186         	20.17          	10.468
MS.187         	20.13          	10.333
MS.188         	20.09          	10.141
MS.189         	20.05          	10.238
MS.190         	20.01          	10.008
MS.191         	19.97          	9.948
MS.192         	19.93          	10.097
MS.193         	19.89          	9.759
MS.194         	19.85          	10.002
MS.195         	19.81          	9.976
MS.196         	19.77          	9.809
MS.197         	19.73          	9.68
MS.198         	19.692         	9.485
MS.199         	19.653         	9.813
MS.200         	19.612         	9.817
MS.201         	19.575         	9.821
MS.202         	19.535         	9.465
MS.203         	19.495         	9.444
MS.204         	19.458         	9.42
MS.205         	19.417         	9.41
MS.206         	19.38          	9.436
MS.207         	19.34          	9.112
MS.208         	19.302         	9.309
MS.209         	19.262         	9.247
MS.210         	19.225         	9.164
MS.211         	19.188         	9.009
MS.212         	19.147         	9.199
MS.213         	19.11          	8.921
MS.214         	19.073         	8.979
MS.215         	19.032         	8.854
MS.216         	18.995         	9.12
MS.217         	18.958         	8.985
MS.218         	18.92          	8.743
MS.219         	18.882         	8.707
MS.220         	18.845         	8.893
MS.221         	18.807         	8.699
MS.222         	18.77          	8.907
MS.223         	18.733         	8.592
MS.224         	18.695         	8.459
MS.225         	18.657         	8.409
MS.226         	18.62          	8.425
MS.227         	18.583         	8.375
MS.228         	18.545         	8.607
MS.229         	18.507         	8.21
MS.230         	18.47          	8.27
MS.231         	18.435         	8.131
MS.232         	18.397         	8.034
MS.233         	18.36          	8.163
MS.234         	18.325         	8.133
MS.235         	18.288         	8.061
MS.236         	18.25          	8.081
MS.237         	18.215         	7.908
MS.238         	18.177         	8.036
MS.239         	18.142         	8.008
MS.240         	18.105         	7.571
MS.241         	18.07          	7.654
MS.242         	18.032         	7.696
MS.243         	17.997         	7.652
MS.244         	17.96          	7.511
MS.245         	17.925         	7.614
MS.246         	17.89          	7.746
MS.247         	17.852         	7.595
MS.248         	17.817         	7.398
MS.249         	17.782         	7.509
MS.250         	17.747         	7.358
MS.251         	17.712         	7.251
MS.252         	17.675         	7.281
MS.253         	17.64          	7.315
MS.254         	17.605         	7.362
MS.255         	17.57          	7.263
MS.256         	17.535         	7.197
MS.257         	17.5           	7.174
MS.258         	17.465         	6.985
MS.259         	17.43          	6.983
MS.260         	17.395         	7.138
MS.261         	17.36          	7.14
MS.262         	17.325         	6.971
MS.263         	17.292         	7.035
MS.264         	17.257         	6.951
MS.265         	17.222         	6.729
MS.266         	17.188         	6.862
MS.267         	17.153         	6.917
MS.268         	17.12          	6.856
MS.269         	17.085         	6.655
MS.270         	17.05          	6.957
MS.271         	17.017         	6.673
MS.272         	16.983         	6.689
MS.273         	16.95          	6.687
MS.274         	16.915         	6.778
MS.275         	16.88          	6.774
MS.276         	16.847         	6.576
MS.277         	16.815         	6.695
MS.278         	16.78          	6.58
MS.279         	16.747         	6.623
MS.280         	16.712         	6.474
MS.281         	16.68          	6.389
MS.282         	16.647         	6.463
MS.283         	16.612         	6.484
MS.284         	16.58          	6.5
MS.285         	16.547         	6.238
MS.286         	16.515         	6.25
MS.287         	16.48          	6.294
MS.288         	16.448         	6.157
MS.289         	16.415         	6.196
MS.290         	16.382         	6.181
MS.291         	16.35          	6.192
MS.292         	16.317         	6.339
MS.293         	16.285         	6.254
MS.294         	16.253         	6.135
MS.295         	16.22          	6.304
MS.296         	16.188         	6.087
MS.297         	16.155         	6.171
MS.298         	16.122         	6.135
MS.299         	16.09          	6.061
MS.300         	16.057         	6.083
MS.301         	16.025         	6.061
MS.302         	15.995         	6.036
MS.303         	15.962         	5.972
MS.304         	15.93          	5.942
MS.305         	15.898         	6.115
MS.306         	15.867         	5.97
MS.307         	15.835         	6.02
MS.308         	15.802         	5.962
MS.309         	15.773         	6.004
MS.310         	15.74          	5.881
MS.311         	15.707         	5.746
MS.312         	15.677         	5.783
MS.313         	15.645         	5.908
MS.314         	15.615         	5.853
MS.315         	15.582         	5.865
MS.316         	15.552         	5.553
MS.317         	15.52          	5.899
MS.318         	15.49          	5.642
MS.319         	15.46          	5.769
MS.320         	15.427         	5.458
MS.321         	15.398         	5.7
MS.322         	15.367         	5.509
MS.323         	15.335         	5.364
MS.324         	15.305         	5.483
MS.325         	15.275         	5.718
MS.326         	15.245         	5.215
MS.327         	15.215         	5.45
MS.328         	15.182         	5.376
MS.329         	15.152         	5.17
MS.330         	15.122         	5.047
MS.331         	15.092         	5.092
MS.332         	15.062         	5.267
MS.333         	15.032         	5.156
MS.334         	15.002         	5.239
MS.335         	14.972         	5.064
MS.336         	14.943         	5.483
MS.337         	14.912         	4.911
MS.338         	14.882         	4.774
MS.339         	14.852         	4.945
MS.340         	14.822         	4.731
MS.341         	14.792         	4.842
MS.342         	14.765         	4.788
MS.343         	14.735         	4.562
MS.344         	14.705         	4.709
MS.345         	14.675         	4.627
MS.346         	14.648         	4.59
MS.347         	14.617         	4.562
MS.348         	14.587         	4.544
MS.349         	14.56          	4.365
MS.350         	14.53          	4.562
MS.351         	14.5           	4.558
MS.352         	14.472         	4.486
MS.353         	14.443         	4.183
MS.354         	14.415         	4.25
MS.355         	14.385         	4.373
MS.356         	14.358         	4.133
MS.357         	14.327         	4.254
MS.358         	14.3           	4.179
MS.359         	14.27          	4.05
MS.360         	14.242         	4.177
MS.361         	14.212         	3.94
MS.362         	14.185         	3.94
MS.363         	14.157         	4.21
MS.364         	14.127         	3.837
MS.365         	14.1           	3.968
MS.366         	14.072         	3.918
MS.367         	14.045         	3.867
MS.368         	14.015         	3.517
MS.369         	13.987         	3.581
MS.370         	13.96          	3.781
MS.371         	13.932         	3.42
MS.372         	13.905         	3.509
MS.373         	13.877         	3.489
MS.374         	13.85          	3.623
MS.375         	13.82          	3.533
MS.376         	13.792         	3.096
MS.377         	13.765         	3.275
MS.378         	13.737         	3.102
MS.379         	13.71          	3.325
MS.380         	13.682         	3.414
MS.381         	13.657         	3.007
MS.382         	13.63          	2.749
MS.383         	13.602         	3.07
MS.384         	13.575         	2.925
MS.385         	13.547         	3.068
MS.386         	13.52          	2.997
MS.387         	13.492         	2.983
MS.388         	13.467         	2.975
MS.389         	13.44          	2.665
MS.390         	13.412         	2.747
MS.391         	13.385         	2.995
MS.392         	13.36          	2.679
MS.393         	13.332         	2.56
MS.394         	13.305         	2.528
MS.395         	13.28          	2.673
MS.396         	13.252         	2.626
MS.397         	13.225         	2.637
MS.398         	13.2           	2.52
MS.399         	13.172         	2.618
MS.400         	13.148         	2.552
MS.401         	13.12          	2.653
MS.402         	13.095         	2.475
MS.403         	13.068         	2.457
MS.404         	13.042         	2.284
MS.405         	13.017         	2.556
MS.406         	12.99          	2.437
MS.407         	12.965         	2.312
MS.408         	12.938         	2.395
MS.409         	12.912         	2.32
MS.410         	12.887         	2.294
MS.411         	12.86          	2.224
MS.412         	12.835         	2.23
MS.413         	12.81          	2.161
MS.414         	12.785         	2.038
MS.415         	12.757         	2.161
MS.416         	12.733         	2.036
MS.417         	12.707         	1.861
MS.418         	12.682         	1.94
MS.419         	12.657         	2.105
MS.420         	12.632         	1.998
MS.421         	12.608         	2.004
MS.422         	12.58          	2.01
MS.423         	12.555         	1.756
MS.424         	12.53          	2.121
MS.425         	12.505         	1.905
MS.426         	12.48          	1.889
MS.427         	12.455         	1.819
MS.428         	12.43          	1.978
MS.429         	12.405         	2.01
MS.430         	12.382         	1.768
MS.431         	12.358         	1.841
MS.432         	12.332         	1.776
MS.433         	12.307         	1.744
MS.434         	12.282         	1.698
MS.435         	12.257         	1.684
MS.436         	12.235         	1.609
MS.437         	12.21          	1.732
MS.438         	12.185         	1.642
MS.439         	12.16          	1.553
MS.440         	12.137         	1.577
MS.441         	12.113         	1.613
MS.442         	12.087         	1.714
MS.443         	12.062         	1.656
MS.444         	12.04          	1.664
MS.445         	12.015         	1.684
MS.446         	11.992         	1.559
MS.447         	11.967         	1.565
MS.448         	11.943         	1.625
MS.449         	11.92          	1.591
MS.450         	11.895         	1.597
MS.451         	11.872         	1.499
MS.452         	11.847         	1.597
MS.453         	11.825         	1.392
MS.454         	11.8           	1.545
MS.455         	11.778         	1.452
MS.456         	11.755         	1.501
MS.457         	11.73          	1.492
MS.458         	11.707         	1.458
MS.459         	11.685         	1.376
MS.460         	11.66          	1.049
MS.461         	11.637         	1.386
MS.462         	11.615         	1.418
MS.463         	11.59          	1.343
MS.464         	11.568         	1.366
MS.465         	11.545         	1.283
MS.466         	11.523         	1.154
MS.467         	11.497         	1.275
MS.468         	11.475         	1.289
MS.469         	11.452         	1.057
MS.470         	11.43          	1.017
MS.471         	11.407         	0.81
MS.472         	11.385         	0.731
MS.473         	11.36          	0.943
MS.474         	11.337         	0.935
MS.475         	11.315         	0.804
MS.476         	11.292         	0.838
MS.477         	11.27          	0.878
MS.478         	11.247         	0.665
MS.479         	11.225         	0.687
MS.480         	11.202         	0.806
MS.481         	11.18          	0.769
MS.482         	11.157         	0.679
MS.483         	11.135         	0.773
MS.484         	11.115         	0.61
MS.485         	11.092         	0.781
MS.486         	11.07          	0.576
MS.487         	11.047         	0.546
MS.488         	11.025         	0.602
MS.489         	11.002         	0.522
MS.490         	10.983         	0.532
MS.491         	10.96          	0.608
MS.492         	10.938         	0.497
MS.493         	10.915         	0.582
MS.494         	10.895         	0.536
MS.495         	10.872         	0.338
MS.496         	10.85          	0.431
