File:              	C:\Qtrac\Data\Daniel M Sørensen\MScan multicentre study\Data from centres\Aarhus\Processed data\DMSC00128C.QZD
Name:              	DK.AAR.NC.4.1
Protocol:          	MSCAN-R2
Date:              	28/1/20
Start time:        	16:30:21
Age:               	52
Sex:               	f
Temperature:       	35,6
S/R sites:         	TA
NC/disease:        	Control
Operator:          	DS
Comments:
M-SCAN DATA (9.6-2.9m)
Scanpts: 198, 210, 699, 720
Stim. (mA)     	Amp. (mV)
MS.1           	25.5           	6.169
MS.2           	25.5           	6.177
MS.3           	25.5           	6.177
MS.4           	25.5           	6.133
MS.5           	25.5           	6.131
MS.6           	25.5           	6.115
MS.7           	25.5           	6.129
MS.8           	25.5           	6.121
MS.9           	25.5           	6.127
MS.10          	25.5           	6.121
MS.11          	25.5           	6.115
MS.12          	25.5           	6.121
MS.13          	25.5           	6.123
MS.14          	25.5           	6.107
MS.15          	25.5           	6.115
MS.16          	25.5           	6.117
MS.17          	25.5           	6.101
MS.18          	25.5           	6.115
MS.19          	25.5           	6.107
MS.20          	25.5           	6.125
MS.21          	25.5           	6.109
MS.22          	25.5           	6.119
MS.23          	25.5           	6.143
MS.24          	25.397         	6.115
MS.25          	25.347         	6.103
MS.26          	25.297         	6.103
MS.27          	25.245         	6.123
MS.28          	25.195         	6.125
MS.29          	25.145         	6.123
MS.30          	25.095         	6.119
MS.31          	25.045         	6.117
MS.32          	24.995         	6.129
MS.33          	24.945         	6.121
MS.34          	24.895         	6.125
MS.35          	24.845         	6.121
MS.36          	24.795         	6.131
MS.37          	24.747         	6.125
MS.38          	24.698         	6.121
MS.39          	24.647         	6.121
MS.40          	24.597         	6.129
MS.41          	24.55          	6.135
MS.42          	24.5           	6.135
MS.43          	24.45          	6.137
MS.44          	24.403         	6.145
MS.45          	24.352         	6.141
MS.46          	24.305         	6.149
MS.47          	24.257         	6.153
MS.48          	24.207         	6.141
MS.49          	24.16          	6.141
MS.50          	24.11          	6.151
MS.51          	24.062         	6.151
MS.52          	24.015         	6.107
MS.53          	23.967         	6.149
MS.54          	23.92          	6.113
MS.55          	23.87          	6.155
MS.56          	23.823         	6.119
MS.57          	23.775         	6.121
MS.58          	23.727         	6.127
MS.59          	23.68          	6.115
MS.60          	23.632         	6.133
MS.61          	23.587         	6.177
MS.62          	23.54          	6.127
MS.63          	23.493         	6.139
MS.64          	23.445         	6.127
MS.65          	23.397         	6.133
MS.66          	23.352         	6.141
MS.67          	23.305         	6.131
MS.68          	23.257         	6.129
MS.69          	23.212         	6.127
MS.70          	23.165         	6.129
MS.71          	23.12          	6.157
MS.72          	23.073         	6.141
MS.73          	23.028         	6.135
MS.74          	22.98          	6.137
MS.75          	22.935         	6.141
MS.76          	22.89          	6.143
MS.77          	22.842         	6.149
MS.78          	22.797         	6.153
MS.79          	22.752         	6.165
MS.80          	22.707         	6.153
MS.81          	22.663         	6.165
MS.82          	22.618         	6.165
MS.83          	22.57          	6.157
MS.84          	22.525         	6.149
MS.85          	22.48          	6.157
MS.86          	22.435         	6.153
MS.87          	22.392         	6.171
MS.88          	22.347         	6.21
MS.89          	22.302         	6.19
MS.90          	22.257         	6.23
MS.91          	22.212         	6.22
MS.92          	22.167         	6.24
MS.93          	22.125         	6.226
MS.94          	22.08          	6.274
MS.95          	22.035         	6.246
MS.96          	21.993         	6.224
MS.97          	21.948         	6.202
MS.98          	21.905         	6.208
MS.99          	21.86          	6.21
MS.100         	21.817         	6.226
MS.101         	21.772         	6.234
MS.102         	21.73          	6.232
MS.103         	21.685         	6.272
MS.104         	21.642         	6.264
MS.105         	21.6           	6.268
MS.106         	21.557         	6.236
MS.107         	21.512         	6.294
MS.108         	21.47          	6.25
MS.109         	21.427         	6.258
MS.110         	21.385         	6.24
MS.111         	21.342         	6.163
MS.112         	21.3           	6.183
MS.113         	21.257         	6.238
MS.114         	21.215         	6.238
MS.115         	21.172         	6.24
MS.116         	21.13          	6.226
MS.117         	21.087         	6.268
MS.118         	21.045         	6.288
MS.119         	21.002         	6.292
MS.120         	20.96          	6.304
MS.121         	20.92          	6.27
MS.122         	20.877         	6.274
MS.123         	20.835         	6.282
MS.124         	20.795         	6.28
MS.125         	20.752         	6.298
MS.126         	20.71          	6.284
MS.127         	20.67          	6.274
MS.128         	20.627         	6.272
MS.129         	20.587         	6.306
MS.130         	20.545         	6.3
MS.131         	20.505         	6.31
MS.132         	20.465         	6.286
MS.133         	20.422         	6.294
MS.134         	20.382         	6.292
MS.135         	20.342         	6.298
MS.136         	20.3           	6.331
MS.137         	20.26          	6.322
MS.138         	20.22          	6.326
MS.139         	20.18          	6.298
MS.140         	20.14          	6.308
MS.141         	20.1           	6.31
MS.142         	20.06          	6.316
MS.143         	20.02          	6.312
MS.144         	19.98          	6.341
MS.145         	19.94          	6.351
MS.146         	19.9           	6.337
MS.147         	19.86          	6.29
MS.148         	19.82          	6.333
MS.149         	19.78          	6.322
MS.150         	19.74          	6.226
MS.151         	19.7           	6.335
MS.152         	19.663         	6.363
MS.153         	19.622         	6.343
MS.154         	19.583         	6.351
MS.155         	19.545         	6.266
MS.156         	19.505         	6.349
MS.157         	19.465         	6.377
MS.158         	19.427         	6.349
MS.159         	19.387         	6.347
MS.160         	19.35          	6.363
MS.161         	19.31          	6.357
MS.162         	19.272         	6.347
MS.163         	19.235         	6.27
MS.164         	19.195         	6.381
MS.165         	19.157         	6.359
MS.166         	19.12          	6.385
MS.167         	19.08          	6.361
MS.168         	19.042         	6.284
MS.169         	19.005         	6.316
MS.170         	18.967         	6.373
MS.171         	18.927         	6.304
MS.172         	18.89          	6.363
MS.173         	18.852         	6.369
MS.174         	18.815         	6.373
MS.175         	18.778         	6.298
MS.176         	18.74          	6.292
MS.177         	18.702         	6.326
MS.178         	18.665         	6.322
MS.179         	18.628         	6.31
MS.180         	18.59          	6.335
MS.181         	18.555         	6.312
MS.182         	18.517         	6.391
MS.183         	18.48          	6.28
MS.184         	18.442         	6.31
MS.185         	18.405         	6.254
MS.186         	18.37          	6.359
MS.187         	18.333         	6.359
MS.188         	18.295         	6.312
MS.189         	18.26          	6.268
MS.190         	18.222         	6.294
MS.191         	18.188         	6.268
MS.192         	18.15          	6.29
MS.193         	18.115         	6.246
MS.194         	18.077         	6.238
MS.195         	18.042         	6.256
MS.196         	18.005         	6.25
MS.197         	17.97          	6.296
MS.198         	17.932         	6.27
MS.199         	17.897         	6.268
MS.200         	17.862         	6.252
MS.201         	17.827         	6.26
MS.202         	17.79          	6.25
MS.203         	17.755         	6.288
MS.204         	17.72          	6.282
MS.205         	17.685         	6.3
MS.206         	17.65          	6.304
MS.207         	17.612         	6.234
MS.208         	17.577         	6.244
MS.209         	17.542         	6.284
MS.210         	17.507         	6.284
MS.211         	17.472         	6.29
MS.212         	17.438         	6.294
MS.213         	17.403         	6.3
MS.214         	17.37          	6.244
MS.215         	17.335         	6.258
MS.216         	17.3           	6.302
MS.217         	17.265         	6.248
MS.218         	17.23          	6.286
MS.219         	17.195         	6.264
MS.220         	17.163         	6.3
MS.221         	17.128         	6.252
MS.222         	17.092         	6.31
MS.223         	17.06          	6.226
MS.224         	17.025         	6.252
MS.225         	16.99          	6.27
MS.226         	16.958         	6.222
MS.227         	16.922         	6.322
MS.228         	16.89          	6.272
MS.229         	16.855         	6.238
MS.230         	16.823         	6.304
MS.231         	16.788         	6.254
MS.232         	16.755         	6.218
MS.233         	16.72          	6.25
MS.234         	16.688         	6.347
MS.235         	16.655         	6.3
MS.236         	16.62          	6.254
MS.237         	16.587         	6.333
MS.238         	16.555         	6.266
MS.239         	16.522         	6.242
MS.240         	16.487         	6.296
MS.241         	16.455         	6.248
MS.242         	16.422         	6.282
MS.243         	16.39          	6.31
MS.244         	16.358         	6.274
MS.245         	16.325         	6.183
MS.246         	16.292         	6.185
MS.247         	16.26          	6.244
MS.248         	16.227         	6.228
MS.249         	16.195         	6.143
MS.250         	16.163         	6.167
MS.251         	16.13          	6.131
MS.252         	16.097         	6.137
MS.253         	16.065         	6.163
MS.254         	16.032         	6.181
MS.255         	16.003         	6.238
MS.256         	15.97          	6.073
MS.257         	15.938         	6.057
MS.258         	15.905         	6.024
MS.259         	15.875         	6.018
MS.260         	15.842         	6.049
MS.261         	15.81          	6.014
MS.262         	15.78          	5.95
MS.263         	15.747         	6.04
MS.264         	15.715         	6.065
MS.265         	15.685         	5.926
MS.266         	15.652         	5.964
MS.267         	15.622         	6.028
MS.268         	15.59          	6.097
MS.269         	15.56          	5.98
MS.270         	15.527         	5.916
MS.271         	15.497         	5.833
MS.272         	15.467         	5.91
MS.273         	15.435         	5.811
MS.274         	15.405         	5.821
MS.275         	15.375         	5.871
MS.276         	15.342         	5.867
MS.277         	15.312         	5.756
MS.278         	15.282         	5.843
MS.279         	15.252         	5.777
MS.280         	15.22          	5.881
MS.281         	15.19          	5.835
MS.282         	15.16          	5.873
MS.283         	15.13          	5.672
MS.284         	15.1           	5.771
MS.285         	15.07          	5.648
MS.286         	15.04          	5.732
MS.287         	15.01          	5.597
MS.288         	14.98          	5.726
MS.289         	14.95          	5.615
MS.290         	14.92          	5.682
MS.291         	14.89          	5.7
MS.292         	14.86          	5.758
MS.293         	14.83          	5.583
MS.294         	14.8           	5.678
MS.295         	14.77          	5.559
MS.296         	14.742         	5.551
MS.297         	14.712         	5.726
MS.298         	14.682         	5.75
MS.299         	14.652         	5.605
MS.300         	14.625         	5.458
MS.301         	14.595         	5.537
MS.302         	14.565         	5.539
MS.303         	14.537         	5.547
MS.304         	14.507         	5.416
MS.305         	14.477         	5.551
MS.306         	14.45          	5.309
MS.307         	14.42          	5.466
MS.308         	14.392         	5.519
MS.309         	14.362         	5.394
MS.310         	14.335         	5.39
MS.311         	14.305         	5.402
MS.312         	14.278         	5.398
MS.313         	14.25          	5.509
MS.314         	14.22          	5.336
MS.315         	14.193         	5.4
MS.316         	14.162         	5.454
MS.317         	14.135         	5.388
MS.318         	14.108         	5.41
MS.319         	14.08          	5.315
MS.320         	14.05          	5.233
MS.321         	14.023         	5.315
MS.322         	13.995         	5.253
MS.323         	13.967         	5.281
MS.324         	13.94          	5.331
MS.325         	13.91          	5.259
MS.326         	13.882         	5.229
MS.327         	13.855         	5.209
MS.328         	13.827         	5.154
MS.329         	13.8           	5.207
MS.330         	13.773         	5.054
MS.331         	13.745         	5.132
MS.332         	13.717         	5.056
MS.333         	13.69          	5.138
MS.334         	13.662         	4.949
MS.335         	13.635         	5.029
MS.336         	13.608         	5.07
MS.337         	13.58          	5.074
MS.338         	13.555         	5.013
MS.339         	13.528         	5.054
MS.340         	13.5           	4.975
MS.341         	13.472         	5.015
MS.342         	13.445         	5.011
MS.343         	13.42          	5.047
MS.344         	13.392         	4.892
MS.345         	13.365         	4.941
MS.346         	13.34          	4.894
MS.347         	13.312         	4.846
MS.348         	13.285         	4.927
MS.349         	13.26          	4.856
MS.350         	13.233         	4.894
MS.351         	13.205         	4.844
MS.352         	13.18          	4.808
MS.353         	13.153         	4.759
MS.354         	13.127         	4.755
MS.355         	13.1           	4.751
MS.356         	13.075         	4.741
MS.357         	13.047         	4.747
MS.358         	13.023         	4.741
MS.359         	12.997         	4.768
MS.360         	12.97          	4.691
MS.361         	12.945         	4.625
MS.362         	12.917         	4.707
MS.363         	12.892         	4.661
MS.364         	12.867         	4.649
MS.365         	12.842         	4.641
MS.366         	12.815         	4.616
MS.367         	12.79          	4.53
MS.368         	12.765         	4.445
MS.369         	12.74          	4.447
MS.370         	12.712         	4.437
MS.371         	12.688         	4.612
MS.372         	12.662         	4.433
MS.373         	12.637         	4.544
MS.374         	12.613         	4.365
MS.375         	12.587         	4.437
MS.376         	12.562         	4.417
MS.377         	12.537         	4.367
MS.378         	12.512         	4.246
MS.379         	12.488         	4.232
MS.380         	12.462         	4.345
MS.381         	12.438         	4.363
MS.382         	12.412         	4.248
MS.383         	12.387         	4.324
MS.384         	12.363         	4.147
MS.385         	12.337         	4.336
MS.386         	12.312         	4.32
MS.387         	12.287         	4.204
MS.388         	12.265         	4.101
MS.389         	12.24          	4.155
MS.390         	12.215         	4.2
MS.391         	12.19          	4.022
MS.392         	12.167         	4.077
MS.393         	12.142         	4.057
MS.394         	12.117         	4.101
MS.395         	12.092         	4.038
MS.396         	12.07          	4.002
MS.397         	12.045         	4.002
MS.398         	12.02          	3.944
MS.399         	11.997         	3.881
MS.400         	11.972         	3.928
MS.401         	11.95          	3.837
MS.402         	11.925         	3.829
MS.403         	11.903         	3.843
MS.404         	11.877         	3.893
MS.405         	11.855         	3.805
MS.406         	11.83          	3.821
MS.407         	11.807         	3.744
MS.408         	11.782         	3.785
MS.409         	11.76          	3.583
MS.410         	11.735         	3.728
MS.411         	11.712         	3.692
MS.412         	11.69          	3.668
MS.413         	11.665         	3.636
MS.414         	11.642         	3.611
MS.415         	11.62          	3.601
MS.416         	11.595         	3.605
MS.417         	11.572         	3.436
MS.418         	11.55          	3.464
MS.419         	11.528         	3.341
MS.420         	11.505         	3.356
MS.421         	11.48          	3.45
MS.422         	11.457         	3.434
MS.423         	11.435         	3.301
MS.424         	11.412         	3.344
MS.425         	11.39          	3.323
MS.426         	11.367         	3.178
MS.427         	11.345         	3.164
MS.428         	11.32          	3.18
MS.429         	11.297         	3.203
MS.430         	11.275         	3.184
MS.431         	11.252         	3.108
MS.432         	11.23          	3.096
MS.433         	11.207         	3.098
MS.434         	11.185         	3.096
MS.435         	11.165         	3.126
MS.436         	11.142         	3.017
MS.437         	11.12          	2.923
MS.438         	11.097         	3.013
MS.439         	11.075         	2.832
MS.440         	11.052         	2.917
MS.441         	11.03          	2.904
MS.442         	11.007         	2.967
MS.443         	10.988         	2.868
MS.444         	10.965         	2.864
MS.445         	10.943         	2.729
MS.446         	10.92          	2.745
MS.447         	10.9           	2.78
MS.448         	10.877         	2.649
MS.449         	10.855         	2.717
MS.450         	10.835         	2.782
MS.451         	10.812         	2.677
MS.452         	10.79          	2.689
MS.453         	10.77          	2.618
MS.454         	10.747         	2.594
MS.455         	10.725         	2.584
MS.456         	10.705         	2.576
MS.457         	10.682         	2.506
MS.458         	10.662         	2.502
MS.459         	10.64          	2.463
MS.460         	10.62          	2.33
MS.461         	10.597         	2.403
MS.462         	10.577         	2.457
MS.463         	10.555         	2.421
MS.464         	10.535         	2.338
MS.465         	10.512         	2.294
MS.466         	10.492         	2.298
MS.467         	10.472         	2.282
MS.468         	10.45          	2.248
MS.469         	10.43          	2.203
MS.470         	10.41          	2.183
MS.471         	10.387         	2.159
MS.472         	10.367         	2.189
MS.473         	10.347         	2.121
MS.474         	10.325         	2.067
MS.475         	10.305         	2.083
MS.476         	10.285         	1.982
MS.477         	10.265         	2.014
MS.478         	10.245         	2.008
MS.479         	10.222         	1.899
MS.480         	10.202         	1.986
MS.481         	10.182         	1.869
MS.482         	10.162         	1.913
MS.483         	10.142         	1.903
MS.484         	10.122         	1.851
MS.485         	10.102         	1.932
MS.486         	10.08          	1.809
MS.487         	10.06          	1.807
MS.488         	10.04          	1.712
MS.489         	10.02          	1.652
MS.490         	10             	1.652
MS.491         	9.98           	1.692
MS.492         	9.96           	1.68
MS.493         	9.94           	1.625
MS.494         	9.92           	1.593
MS.495         	9.903          	1.563
MS.496         	9.882          	1.503
MS.497         	9.863          	1.537
MS.498         	9.842          	1.515
MS.499         	9.823          	1.509
MS.500         	9.802          	1.41
MS.501         	9.782          	1.533
