File:              	C:\Qtrac\Data\Daniel M Sørensen\MScan multicentre study\Data from centres\Aarhus\Processed data\DMSC10413A.QZD
Name:              	DK.AAR.NC.12.1
Protocol:          	MSCAN-R2
Date:              	13/4/21
Start time:        	14:23:05
Age:               	26
Sex:               	f
Temperature:       	38,3
S/R sites:         	ADM
NC/disease:        	NC
Operator:          	DS
Comments:
M-SCAN DATA (8.8-2.5m)
Scanpts: 27, 46, 655, 674
Stim. (mA)     	Amp. (mV)
MS.1           	18             	10
MS.2           	18             	10.012
MS.3           	18             	9.978
MS.4           	18             	10.085
MS.5           	18             	10.026
MS.6           	18             	10.037
MS.7           	18             	10.057
MS.8           	18             	10.095
MS.9           	18             	10.065
MS.10          	18             	10.091
MS.11          	18             	10.079
MS.12          	18             	10.026
MS.13          	18             	10.071
MS.14          	18             	10.014
MS.15          	18             	10.111
MS.16          	18             	10.035
MS.17          	18             	10.073
MS.18          	18             	10.069
MS.19          	18             	10.089
MS.20          	18             	10.065
MS.21          	18             	10.107
MS.22          	18             	10.101
MS.23          	18             	10.089
MS.24          	17.927         	10.061
MS.25          	17.892         	10.075
MS.26          	17.858         	10.089
MS.27          	17.82          	10.091
MS.28          	17.785         	10.018
MS.29          	17.75          	10.085
MS.30          	17.715         	10.111
MS.31          	17.68          	10.053
MS.32          	17.642         	10.061
MS.33          	17.608         	10.093
MS.34          	17.573         	10.087
MS.35          	17.538         	10.073
MS.36          	17.503         	10.089
MS.37          	17.467         	10.129
MS.38          	17.432         	10.055
MS.39          	17.397         	10.105
MS.40          	17.362         	10.101
MS.41          	17.33          	10.043
MS.42          	17.295         	10.083
MS.43          	17.26          	10.119
MS.44          	17.225         	10.087
MS.45          	17.19          	10.071
MS.46          	17.157         	10.087
MS.47          	17.122         	10.083
MS.48          	17.087         	10.061
MS.49          	17.052         	10.073
MS.50          	17.02          	10.051
MS.51          	16.985         	10.059
MS.52          	16.952         	10.087
MS.53          	16.917         	10.101
MS.54          	16.885         	10.061
MS.55          	16.85          	10.055
MS.56          	16.817         	10.053
MS.57          	16.782         	10.029
MS.58          	16.75          	10.053
MS.59          	16.715         	10.039
MS.60          	16.682         	10.057
MS.61          	16.65          	10.073
MS.62          	16.615         	10.075
MS.63          	16.583         	10.059
MS.64          	16.55          	10.041
MS.65          	16.517         	10.031
MS.66          	16.483         	10.045
MS.67          	16.45          	10.051
MS.68          	16.417         	10.045
MS.69          	16.385         	10.041
MS.70          	16.352         	10.014
MS.71          	16.32          	10.014
MS.72          	16.288         	10.008
MS.73          	16.255         	9.992
MS.74          	16.222         	10.035
MS.75          	16.19          	9.986
MS.76          	16.157         	10.004
MS.77          	16.125         	10.069
MS.78          	16.092         	10.006
MS.79          	16.06          	9.948
MS.80          	16.028         	9.97
MS.81          	15.997         	9.97
MS.82          	15.965         	9.892
MS.83          	15.932         	9.833
MS.84          	15.9           	9.91
MS.85          	15.87          	9.922
MS.86          	15.837         	9.894
MS.87          	15.805         	9.92
MS.88          	15.775         	9.894
MS.89          	15.742         	9.851
MS.90          	15.71          	9.875
MS.91          	15.68          	9.742
MS.92          	15.648         	9.857
MS.93          	15.617         	9.813
MS.94          	15.585         	9.795
MS.95          	15.555         	9.781
MS.96          	15.523         	9.817
MS.97          	15.492         	9.793
MS.98          	15.462         	9.879
MS.99          	15.43          	9.749
MS.100         	15.4           	9.805
MS.101         	15.37          	9.755
MS.102         	15.337         	9.72
MS.103         	15.307         	9.74
MS.104         	15.277         	9.704
MS.105         	15.247         	9.678
MS.106         	15.217         	9.684
MS.107         	15.185         	9.682
MS.108         	15.155         	9.694
MS.109         	15.125         	9.702
MS.110         	15.095         	9.648
MS.111         	15.065         	9.585
MS.112         	15.035         	9.67
MS.113         	15.005         	9.771
MS.114         	14.975         	9.632
MS.115         	14.945         	9.827
MS.116         	14.915         	9.722
MS.117         	14.885         	9.698
MS.118         	14.855         	9.589
MS.119         	14.825         	9.646
MS.120         	14.795         	9.551
MS.121         	14.767         	9.493
MS.122         	14.737         	9.656
MS.123         	14.707         	9.511
MS.124         	14.677         	9.507
MS.125         	14.65          	9.463
MS.126         	14.62          	9.471
MS.127         	14.59          	9.426
MS.128         	14.562         	9.469
MS.129         	14.532         	9.495
MS.130         	14.502         	9.382
MS.131         	14.475         	9.473
MS.132         	14.445         	9.489
MS.133         	14.417         	9.354
MS.134         	14.387         	9.398
MS.135         	14.36          	9.37
MS.136         	14.33          	9.295
MS.137         	14.302         	9.354
MS.138         	14.273         	9.342
MS.139         	14.245         	9.346
MS.140         	14.215         	9.289
MS.141         	14.188         	9.275
MS.142         	14.16          	9.313
MS.143         	14.13          	9.213
MS.144         	14.102         	9.269
MS.145         	14.075         	9.275
MS.146         	14.047         	9.291
MS.147         	14.017         	9.239
MS.148         	13.99          	9.255
MS.149         	13.962         	9.259
MS.150         	13.935         	9.243
MS.151         	13.907         	9.249
MS.152         	13.88          	9.174
MS.153         	13.85          	9.253
MS.154         	13.822         	9.13
MS.155         	13.795         	9.108
MS.156         	13.767         	9.17
MS.157         	13.74          	9.128
MS.158         	13.712         	9.142
MS.159         	13.685         	9.142
MS.160         	13.657         	9.084
MS.161         	13.632         	9.112
MS.162         	13.605         	9.116
MS.163         	13.577         	8.989
MS.164         	13.55          	9.064
MS.165         	13.523         	8.945
MS.166         	13.495         	9.048
MS.167         	13.467         	8.923
MS.168         	13.443         	8.981
MS.169         	13.415         	8.931
MS.170         	13.387         	8.981
MS.171         	13.362         	8.836
MS.172         	13.335         	8.945
MS.173         	13.307         	8.826
MS.174         	13.282         	8.87
MS.175         	13.255         	8.808
MS.176         	13.227         	8.812
MS.177         	13.202         	8.727
MS.178         	13.175         	8.824
MS.179         	13.15          	8.576
MS.180         	13.122         	8.609
MS.181         	13.097         	8.431
MS.182         	13.07          	8.548
MS.183         	13.045         	8.58
MS.184         	13.017         	8.449
MS.185         	12.992         	8.435
MS.186         	12.967         	8.274
MS.187         	12.94          	8.357
MS.188         	12.915         	8.385
MS.189         	12.89          	8.355
MS.190         	12.862         	8.262
MS.191         	12.837         	8.327
MS.192         	12.812         	8.254
MS.193         	12.785         	8.137
MS.194         	12.76          	8.153
MS.195         	12.735         	8.254
MS.196         	12.71          	8.18
MS.197         	12.685         	8.026
MS.198         	12.66          	7.992
MS.199         	12.632         	8.053
MS.200         	12.608         	8.016
MS.201         	12.582         	7.777
MS.202         	12.557         	7.91
MS.203         	12.532         	7.908
MS.204         	12.507         	7.726
MS.205         	12.483         	7.807
MS.206         	12.457         	7.75
MS.207         	12.432         	7.883
MS.208         	12.407         	7.753
MS.209         	12.382         	7.881
MS.210         	12.36          	7.698
MS.211         	12.335         	7.771
MS.212         	12.31          	7.642
MS.213         	12.285         	7.73
MS.214         	12.26          	7.64
MS.215         	12.235         	7.64
MS.216         	12.212         	7.614
MS.217         	12.188         	7.529
MS.218         	12.162         	7.507
MS.219         	12.137         	7.448
MS.220         	12.115         	7.531
MS.221         	12.09          	7.384
MS.222         	12.065         	7.426
MS.223         	12.042         	7.336
MS.224         	12.017         	7.37
MS.225         	11.992         	7.225
MS.226         	11.97          	7.328
MS.227         	11.945         	7.309
MS.228         	11.922         	7.273
MS.229         	11.898         	7.221
MS.230         	11.875         	7.195
MS.231         	11.85          	7.066
MS.232         	11.827         	7.174
MS.233         	11.802         	7.098
MS.234         	11.78          	6.991
MS.235         	11.755         	6.993
MS.236         	11.733         	7.078
MS.237         	11.71          	7.108
MS.238         	11.685         	7.003
MS.239         	11.662         	6.985
MS.240         	11.64          	7.09
MS.241         	11.615         	7.025
MS.242         	11.592         	6.919
MS.243         	11.57          	6.965
MS.244         	11.547         	6.862
MS.245         	11.523         	6.888
MS.246         	11.5           	6.927
MS.247         	11.477         	6.941
MS.248         	11.455         	6.814
MS.249         	11.432         	6.872
MS.250         	11.407         	6.917
MS.251         	11.385         	6.911
MS.252         	11.363         	6.806
MS.253         	11.34          	6.961
MS.254         	11.318         	6.802
MS.255         	11.295         	6.796
MS.256         	11.273         	6.854
MS.257         	11.25          	6.685
MS.258         	11.227         	6.764
MS.259         	11.205         	6.782
MS.260         	11.182         	6.711
MS.261         	11.16          	6.86
MS.262         	11.137         	6.76
MS.263         	11.115         	6.729
MS.264         	11.092         	6.6
MS.265         	11.073         	6.784
MS.266         	11.05          	6.747
MS.267         	11.028         	6.784
MS.268         	11.005         	6.621
MS.269         	10.983         	6.719
MS.270         	10.962         	6.612
MS.271         	10.94          	6.524
MS.272         	10.917         	6.538
MS.273         	10.895         	6.653
MS.274         	10.875         	6.566
MS.275         	10.852         	6.6
MS.276         	10.83          	6.542
MS.277         	10.81          	6.56
MS.278         	10.787         	6.538
MS.279         	10.765         	6.405
MS.280         	10.745         	6.463
MS.281         	10.722         	6.465
MS.282         	10.702         	6.471
MS.283         	10.68          	6.465
MS.284         	10.657         	6.393
MS.285         	10.637         	6.409
MS.286         	10.615         	6.326
MS.287         	10.595         	6.302
MS.288         	10.573         	6.445
MS.289         	10.552         	6.451
MS.290         	10.532         	6.379
MS.291         	10.51          	6.29
MS.292         	10.49          	6.204
MS.293         	10.467         	6.256
MS.294         	10.448         	6.29
MS.295         	10.427         	6.256
MS.296         	10.405         	6.131
MS.297         	10.385         	6.236
MS.298         	10.365         	6.169
MS.299         	10.342         	6.105
MS.300         	10.323         	6.123
MS.301         	10.302         	6.077
MS.302         	10.282         	6.183
MS.303         	10.26          	5.936
MS.304         	10.24          	6.03
MS.305         	10.22          	6.036
MS.306         	10.2           	5.94
MS.307         	10.18          	5.994
MS.308         	10.16          	5.946
MS.309         	10.14          	5.97
MS.310         	10.117         	5.865
MS.311         	10.097         	5.767
MS.312         	10.077         	5.797
MS.313         	10.057         	5.72
MS.314         	10.037         	5.549
MS.315         	10.017         	5.825
MS.316         	9.997          	5.849
MS.317         	9.977          	5.674
MS.318         	9.957          	5.356
MS.319         	9.938          	5.66
MS.320         	9.917          	5.702
MS.321         	9.898          	5.513
MS.322         	9.877          	5.67
MS.323         	9.86           	5.517
MS.324         	9.84           	5.752
MS.325         	9.82           	5.36
MS.326         	9.8            	5.36
MS.327         	9.78           	5.295
MS.328         	9.76           	5.158
MS.329         	9.74           	5.13
MS.330         	9.722          	5.595
MS.331         	9.702          	5.259
MS.332         	9.682          	5.299
MS.333         	9.662          	5.15
MS.334         	9.645          	5.285
MS.335         	9.625          	5.116
MS.336         	9.605          	4.848
MS.337         	9.587          	5.104
MS.338         	9.568          	5.13
MS.339         	9.547          	5.027
MS.340         	9.53           	5.098
MS.341         	9.51           	4.818
MS.342         	9.49           	4.836
MS.343         	9.472          	4.892
MS.344         	9.452          	4.759
MS.345         	9.435          	4.749
MS.346         	9.415          	4.935
MS.347         	9.398          	4.625
MS.348         	9.377          	4.532
MS.349         	9.36           	4.588
MS.350         	9.34           	4.534
MS.351         	9.323          	4.643
MS.352         	9.302          	4.441
MS.353         	9.285          	4.455
MS.354         	9.265          	4.544
MS.355         	9.247          	4.31
MS.356         	9.23           	4.258
MS.357         	9.21           	4.25
MS.358         	9.193          	4.379
MS.359         	9.175          	4.459
MS.360         	9.155          	4.109
MS.361         	9.137          	4.326
MS.362         	9.12           	4.075
MS.363         	9.1            	4.095
MS.364         	9.082          	3.952
MS.365         	9.065          	4.036
MS.366         	9.047          	3.771
MS.367         	9.028          	4.026
MS.368         	9.01           	4.077
MS.369         	8.992          	4.177
MS.370         	8.975          	4.147
MS.371         	8.957          	3.783
MS.372         	8.938          	3.775
MS.373         	8.92           	3.766
MS.374         	8.903          	3.599
MS.375         	8.885          	3.736
MS.376         	8.867          	3.561
MS.377         	8.85           	3.807
MS.378         	8.832          	3.706
MS.379         	8.815          	3.567
MS.380         	8.797          	3.497
MS.381         	8.78           	3.39
MS.382         	8.762          	3.617
MS.383         	8.745          	3.43
MS.384         	8.727          	3.438
MS.385         	8.71           	3.382
MS.386         	8.693          	3.386
MS.387         	8.675          	3.468
MS.388         	8.658          	3.408
MS.389         	8.64           	3.646
MS.390         	8.622          	3.444
MS.391         	8.605          	3.303
MS.392         	8.587          	3.341
MS.393         	8.57           	3.162
MS.394         	8.552          	3.132
MS.395         	8.537          	3.072
MS.396         	8.52           	3.259
MS.397         	8.502          	2.981
MS.398         	8.485          	2.796
MS.399         	8.467          	2.949
MS.400         	8.452          	3.072
MS.401         	8.435          	2.927
MS.402         	8.417          	2.751
MS.403         	8.4            	2.614
MS.404         	8.385          	2.856
MS.405         	8.367          	2.769
MS.406         	8.35           	2.614
MS.407         	8.335          	2.651
MS.408         	8.318          	2.588
MS.409         	8.3            	2.554
MS.410         	8.285          	2.381
MS.411         	8.267          	2.423
MS.412         	8.252          	2.487
MS.413         	8.235          	2.614
MS.414         	8.217          	1.978
MS.415         	8.202          	2.33
MS.416         	8.185          	2.598
MS.417         	8.17           	2.119
MS.418         	8.153          	1.877
MS.419         	8.137          	1.68
MS.420         	8.12           	1.549
MS.421         	8.105          	1.629
MS.422         	8.087          	1.726
MS.423         	8.073          	1.482
MS.424         	8.055          	1.72
MS.425         	8.04           	1.525
MS.426         	8.023          	1.662
MS.427         	8.007          	1.577
MS.428         	7.992          	1.394
MS.429         	7.975          	1.533
MS.430         	7.96           	1.513
MS.431         	7.942          	1.474
MS.432         	7.927          	1.392
MS.433         	7.912          	1.642
MS.434         	7.895          	1.468
MS.435         	7.88           	1.184
MS.436         	7.865          	1.168
MS.437         	7.85           	1.164
MS.438         	7.832          	1.021
MS.439         	7.817          	1.031
MS.440         	7.802          	1.194
MS.441         	7.787          	1.041
MS.442         	7.77           	0.864
MS.443         	7.755          	0.884
MS.444         	7.74           	0.904
MS.445         	7.725          	1.051
MS.446         	7.71           	0.83
MS.447         	7.692          	0.856
MS.448         	7.677          	0.832
MS.449         	7.662          	0.798
MS.450         	7.648          	0.862
MS.451         	7.632          	0.84
MS.452         	7.617          	0.711
MS.453         	7.602          	0.753
MS.454         	7.587          	0.649
MS.455         	7.572          	0.665
MS.456         	7.555          	0.677
MS.457         	7.54           	0.604
MS.458         	7.525          	0.584
MS.459         	7.51           	0.626
MS.460         	7.495          	0.636
MS.461         	7.48           	0.671
MS.462         	7.465          	0.671
MS.463         	7.45           	0.638
MS.464         	7.438          	0.721
MS.465         	7.422          	0.518
MS.466         	7.407          	0.532
MS.467         	7.392          	0.522
MS.468         	7.378          	0.63
MS.469         	7.362          	0.536
MS.470         	7.347          	0.508
MS.471         	7.332          	0.463
MS.472         	7.317          	0.534
MS.473         	7.302          	0.419
MS.474         	7.29           	0.522
MS.475         	7.275          	0.491
MS.476         	7.26           	0.403
MS.477         	7.245          	0.423
MS.478         	7.23           	0.451
MS.479         	7.217          	0.477
MS.480         	7.202          	0.419
MS.481         	7.188          	0.447
MS.482         	7.172          	0.405
MS.483         	7.16           	0.429
MS.484         	7.145          	0.417
MS.485         	7.13           	0.359
MS.486         	7.115          	0.487
MS.487         	7.102          	0.387
MS.488         	7.087          	0.369
MS.489         	7.072          	0.344
MS.490         	7.06           	0.336
MS.491         	7.045          	0.338
MS.492         	7.032          	0.276
MS.493         	7.017          	0.369
MS.494         	7.003          	0.32
MS.495         	6.99           	0.35
MS.496         	6.975          	0.282
MS.497         	6.962          	0.373
MS.498         	6.947          	0.338
MS.499         	6.932          	0.332
