File:              	C:\Qtrac\Data\Daniel M Sørensen\MScan multicentre study\Data from centres\Aarhus\Processed data\DMSC00211B.QZD
Name:              	DK.AAR.NC.2.2
Protocol:          	MSCAN-R2
Date:              	11/2/20
Start time:        	13:37:37
Age:               	35
Sex:               	f
Temperature:       	32,2
S/R sites:         	ADM
NC/disease:        	Control
Operator:          	DS
Comments:          	Very odd shape
M-SCAN DATA (9.3-2.1m)
Scanpts: 9, 24, 652, 682
Stim. (mA)     	Amp. (mV)
MS.1           	20             	10.198
MS.2           	20             	10.196
MS.3           	20             	10.204
MS.4           	20             	10.196
MS.5           	20             	10.216
MS.6           	20             	10.236
MS.7           	20             	10.206
MS.8           	20             	10.224
MS.9           	20             	10.266
MS.10          	20             	10.258
MS.11          	20             	10.25
MS.12          	20             	10.236
MS.13          	20             	10.258
MS.14          	20             	10.238
MS.15          	20             	10.268
MS.16          	20             	10.28
MS.17          	20             	10.294
MS.18          	20             	10.284
MS.19          	20             	10.286
MS.20          	20             	10.268
MS.21          	20             	10.26
MS.22          	20             	10.312
MS.23          	20             	10.276
MS.24          	19.92          	10.266
MS.25          	19.88          	10.274
MS.26          	19.84          	10.252
MS.27          	19.8           	10.276
MS.28          	19.762         	10.288
MS.29          	19.722         	10.262
MS.30          	19.682         	10.25
MS.31          	19.642         	10.254
MS.32          	19.605         	10.268
MS.33          	19.565         	10.258
MS.34          	19.525         	10.266
MS.35          	19.487         	10.256
MS.36          	19.448         	10.26
MS.37          	19.41          	10.28
MS.38          	19.37          	10.196
MS.39          	19.333         	10.272
MS.40          	19.292         	10.29
MS.41          	19.255         	10.258
MS.42          	19.215         	10.298
MS.43          	19.177         	10.254
MS.44          	19.14          	10.147
MS.45          	19.1           	10.133
MS.46          	19.062         	10.19
MS.47          	19.025         	10.065
MS.48          	18.987         	10.161
MS.49          	18.948         	10.252
MS.50          	18.91          	10.117
MS.51          	18.872         	10.099
MS.52          	18.835         	10.107
MS.53          	18.797         	10.109
MS.54          	18.76          	10.143
MS.55          	18.722         	10.157
MS.56          	18.685         	10.089
MS.57          	18.647         	10.051
MS.58          	18.61          	9.996
MS.59          	18.573         	10.012
MS.60          	18.535         	9.912
MS.61          	18.5           	9.934
MS.62          	18.462         	9.936
MS.63          	18.425         	10.004
MS.64          	18.387         	9.942
MS.65          	18.352         	9.873
MS.66          	18.315         	9.873
MS.67          	18.278         	9.885
MS.68          	18.243         	9.855
MS.69          	18.205         	9.803
MS.70          	18.17          	9.777
MS.71          	18.132         	9.883
MS.72          	18.097         	9.885
MS.73          	18.06          	9.795
MS.74          	18.025         	9.795
MS.75          	17.987         	9.73
MS.76          	17.952         	9.712
MS.77          	17.917         	9.658
MS.78          	17.88          	9.767
MS.79          	17.845         	9.69
MS.80          	17.81          	9.577
MS.81          	17.775         	9.662
MS.82          	17.737         	9.585
MS.83          	17.702         	9.638
MS.84          	17.667         	9.535
MS.85          	17.632         	9.632
MS.86          	17.597         	9.519
MS.87          	17.562         	9.499
MS.88          	17.528         	9.436
MS.89          	17.493         	9.4
MS.90          	17.458         	9.35
MS.91          	17.422         	9.412
MS.92          	17.387         	9.45
MS.93          	17.352         	9.295
MS.94          	17.317         	9.467
MS.95          	17.282         	9.328
MS.96          	17.247         	9.348
MS.97          	17.215         	9.253
MS.98          	17.18          	9.245
MS.99          	17.145         	9.233
MS.100         	17.11          	9.32
MS.101         	17.077         	9.207
MS.102         	17.042         	9.235
MS.103         	17.01          	9.247
MS.104         	16.975         	9.215
MS.105         	16.94          	9.15
MS.106         	16.907         	9.166
MS.107         	16.872         	8.949
MS.108         	16.84          	9.191
MS.109         	16.805         	9.166
MS.110         	16.772         	8.931
MS.111         	16.74          	8.963
MS.112         	16.705         	8.679
MS.113         	16.672         	8.774
MS.114         	16.637         	9.068
MS.115         	16.605         	9.021
MS.116         	16.573         	8.774
MS.117         	16.54          	8.733
MS.118         	16.505         	8.84
MS.119         	16.472         	8.846
MS.120         	16.44          	8.691
MS.121         	16.407         	8.657
MS.122         	16.375         	8.685
MS.123         	16.342         	8.673
MS.124         	16.31          	8.623
MS.125         	16.278         	8.657
MS.126         	16.245         	8.615
MS.127         	16.212         	8.496
MS.128         	16.18          	8.534
MS.129         	16.147         	8.554
MS.130         	16.115         	8.457
MS.131         	16.083         	8.586
MS.132         	16.05          	8.459
MS.133         	16.017         	8.457
MS.134         	15.985         	8.417
MS.135         	15.955         	8.421
MS.136         	15.922         	8.363
MS.137         	15.89          	8.441
MS.138         	15.86          	8.208
MS.139         	15.827         	8.355
MS.140         	15.795         	8.349
MS.141         	15.765         	8.204
MS.142         	15.733         	8.337
MS.143         	15.7           	8.282
MS.144         	15.67          	8.165
MS.145         	15.637         	8.014
MS.146         	15.608         	8.095
MS.147         	15.575         	7.982
MS.148         	15.545         	7.982
MS.149         	15.515         	8.053
MS.150         	15.483         	7.958
MS.151         	15.452         	8.006
MS.152         	15.42          	7.843
MS.153         	15.39          	7.912
MS.154         	15.36          	7.845
MS.155         	15.327         	7.805
MS.156         	15.297         	7.847
MS.157         	15.267         	7.861
MS.158         	15.237         	7.857
MS.159         	15.207         	7.873
MS.160         	15.175         	7.835
MS.161         	15.145         	7.829
MS.162         	15.115         	7.859
MS.163         	15.085         	7.902
MS.164         	15.055         	7.839
MS.165         	15.025         	7.908
MS.166         	14.995         	7.849
MS.167         	14.965         	7.849
MS.168         	14.935         	7.926
MS.169         	14.905         	7.787
MS.170         	14.875         	7.883
MS.171         	14.845         	7.922
MS.172         	14.818         	7.904
MS.173         	14.787         	7.936
MS.174         	14.757         	7.883
MS.175         	14.727         	7.95
MS.176         	14.697         	7.91
MS.177         	14.67          	7.918
MS.178         	14.64          	7.873
MS.179         	14.61          	7.887
MS.180         	14.58          	7.92
MS.181         	14.552         	7.926
MS.182         	14.523         	7.9
MS.183         	14.495         	7.932
MS.184         	14.465         	7.893
MS.185         	14.435         	7.93
MS.186         	14.407         	7.936
MS.187         	14.377         	7.932
MS.188         	14.35          	7.948
MS.189         	14.32          	7.938
MS.190         	14.292         	7.948
MS.191         	14.265         	7.924
MS.192         	14.235         	7.948
MS.193         	14.207         	7.962
MS.194         	14.177         	7.984
MS.195         	14.15          	7.936
MS.196         	14.122         	7.968
MS.197         	14.092         	7.924
MS.198         	14.065         	8.012
MS.199         	14.037         	7.982
MS.200         	14.01          	7.94
MS.201         	13.983         	7.932
MS.202         	13.952         	7.944
MS.203         	13.925         	7.96
MS.204         	13.898         	7.94
MS.205         	13.87          	7.958
MS.206         	13.842         	7.992
MS.207         	13.815         	7.962
MS.208         	13.787         	7.891
MS.209         	13.76          	7.93
MS.210         	13.733         	7.96
MS.211         	13.705         	7.926
MS.212         	13.677         	7.875
MS.213         	13.65          	7.904
MS.214         	13.622         	7.912
MS.215         	13.595         	7.924
MS.216         	13.568         	7.934
MS.217         	13.54          	7.938
MS.218         	13.515         	7.918
MS.219         	13.487         	7.875
MS.220         	13.46          	7.898
MS.221         	13.432         	7.938
MS.222         	13.407         	7.908
MS.223         	13.38          	7.871
MS.224         	13.352         	7.877
MS.225         	13.325         	7.861
MS.226         	13.3           	7.859
MS.227         	13.273         	7.906
MS.228         	13.247         	7.898
MS.229         	13.22          	7.94
MS.230         	13.193         	7.904
MS.231         	13.167         	7.891
MS.232         	13.14          	7.827
MS.233         	13.115         	7.885
MS.234         	13.087         	7.893
MS.235         	13.062         	7.863
MS.236         	13.035         	7.851
MS.237         	13.01          	7.879
MS.238         	12.985         	7.843
MS.239         	12.957         	7.859
MS.240         	12.932         	7.869
MS.241         	12.907         	7.839
MS.242         	12.88          	7.815
MS.243         	12.855         	7.859
MS.244         	12.83          	7.753
MS.245         	12.802         	7.746
MS.246         	12.778         	7.847
MS.247         	12.752         	7.722
MS.248         	12.727         	7.783
MS.249         	12.702         	7.718
MS.250         	12.675         	7.75
MS.251         	12.65          	7.674
MS.252         	12.625         	7.775
MS.253         	12.6           	7.704
MS.254         	12.575         	7.704
MS.255         	12.55          	7.704
MS.256         	12.525         	7.724
MS.257         	12.5           	7.698
MS.258         	12.475         	7.646
MS.259         	12.45          	7.728
MS.260         	12.425         	7.63
MS.261         	12.4           	7.744
MS.262         	12.375         	7.696
MS.263         	12.35          	7.658
MS.264         	12.325         	7.634
MS.265         	12.302         	7.616
MS.266         	12.278         	7.609
MS.267         	12.252         	7.614
MS.268         	12.227         	7.579
MS.269         	12.202         	7.662
MS.270         	12.18          	7.603
MS.271         	12.155         	7.726
MS.272         	12.13          	7.626
MS.273         	12.108         	7.64
MS.274         	12.082         	7.65
MS.275         	12.057         	7.543
MS.276         	12.035         	7.507
MS.277         	12.01          	7.501
MS.278         	11.985         	7.37
MS.279         	11.962         	7.338
MS.280         	11.938         	7.503
MS.281         	11.915         	7.43
MS.282         	11.89          	7.289
MS.283         	11.867         	7.505
MS.284         	11.842         	7.382
MS.285         	11.82          	7.342
MS.286         	11.795         	7.43
MS.287         	11.773         	7.471
MS.288         	11.747         	7.517
MS.289         	11.725         	7.182
MS.290         	11.702         	7.203
MS.291         	11.677         	7.346
MS.292         	11.655         	7.211
MS.293         	11.632         	7.281
MS.294         	11.608         	7.215
MS.295         	11.585         	7.277
MS.296         	11.562         	7.146
MS.297         	11.54          	7.15
MS.298         	11.515         	7.15
MS.299         	11.492         	7.14
MS.300         	11.47          	7.182
MS.301         	11.447         	7.229
MS.302         	11.425         	7.18
MS.303         	11.403         	7.126
MS.304         	11.377         	7.162
MS.305         	11.355         	7.112
MS.306         	11.332         	7.112
MS.307         	11.31          	7.172
MS.308         	11.287         	7.14
MS.309         	11.265         	7.1
MS.310         	11.242         	7.128
MS.311         	11.22          	7.092
MS.312         	11.197         	6.973
MS.313         	11.175         	7.08
MS.314         	11.153         	7.031
MS.315         	11.13          	7.035
MS.316         	11.108         	7.042
MS.317         	11.087         	7.098
MS.318         	11.065         	7.052
MS.319         	11.042         	7.066
MS.320         	11.02          	6.997
MS.321         	10.997         	7.062
MS.322         	10.975         	7.039
MS.323         	10.955         	7.14
MS.324         	10.932         	7.092
MS.325         	10.91          	7.082
MS.326         	10.887         	7.003
MS.327         	10.867         	7.12
MS.328         	10.845         	6.997
MS.329         	10.823         	7.076
MS.330         	10.802         	7.056
MS.331         	10.78          	7.017
MS.332         	10.76          	7.005
MS.333         	10.738         	6.989
MS.334         	10.715         	7.023
MS.335         	10.695         	7.013
MS.336         	10.672         	7.031
MS.337         	10.653         	7.007
MS.338         	10.63          	6.959
MS.339         	10.61          	6.983
MS.340         	10.587         	6.995
MS.341         	10.568         	6.969
MS.342         	10.545         	6.762
MS.343         	10.525         	6.951
MS.344         	10.502         	6.901
MS.345         	10.483         	6.737
MS.346         	10.462         	6.878
MS.347         	10.44          	6.707
MS.348         	10.42          	6.963
MS.349         	10.4           	6.675
MS.350         	10.377         	6.903
MS.351         	10.358         	6.88
MS.352         	10.337         	6.681
MS.353         	10.318         	6.909
MS.354         	10.295         	6.894
MS.355         	10.275         	6.925
MS.356         	10.255         	6.894
MS.357         	10.235         	6.675
MS.358         	10.212         	6.828
MS.359         	10.193         	6.657
MS.360         	10.172         	6.639
MS.361         	10.153         	6.641
MS.362         	10.132         	6.663
MS.363         	10.113         	6.635
MS.364         	10.092         	6.621
MS.365         	10.073         	6.6
MS.366         	10.052         	6.602
MS.367         	10.032         	6.588
MS.368         	10.012         	6.576
MS.369         	9.992          	6.584
MS.370         	9.972          	6.59
MS.371         	9.952          	6.623
MS.372         	9.932          	6.606
MS.373         	9.912          	6.784
MS.374         	9.892          	6.558
MS.375         	9.872          	6.574
MS.376         	9.852          	6.572
MS.377         	9.832          	6.564
MS.378         	9.812          	6.572
MS.379         	9.792          	6.631
MS.380         	9.775          	6.568
MS.381         	9.755          	6.57
MS.382         	9.735          	6.594
MS.383         	9.715          	6.578
MS.384         	9.695          	6.582
MS.385         	9.677          	6.59
MS.386         	9.657          	6.57
MS.387         	9.637          	6.56
MS.388         	9.62           	6.582
MS.389         	9.6            	6.56
MS.390         	9.58           	6.558
MS.391         	9.562          	6.54
MS.392         	9.542          	6.562
MS.393         	9.523          	6.542
MS.394         	9.505          	6.55
MS.395         	9.485          	6.592
MS.396         	9.465          	6.514
MS.397         	9.448          	6.542
MS.398         	9.427          	6.592
MS.399         	9.41           	6.538
MS.400         	9.39           	6.536
MS.401         	9.372          	6.558
MS.402         	9.352          	6.53
MS.403         	9.335          	6.55
MS.404         	9.315          	6.514
MS.405         	9.297          	6.524
MS.406         	9.28           	6.51
MS.407         	9.26           	6.48
MS.408         	9.242          	6.508
MS.409         	9.222          	6.449
MS.410         	9.205          	6.532
MS.411         	9.188          	6.516
MS.412         	9.167          	6.54
MS.413         	9.15           	6.484
MS.414         	9.132          	6.48
MS.415         	9.113          	6.524
MS.416         	9.095          	6.488
MS.417         	9.077          	6.471
MS.418         	9.057          	6.504
MS.419         	9.04           	6.514
MS.420         	9.023          	6.465
MS.421         	9.005          	6.496
MS.422         	8.988          	6.498
MS.423         	8.967          	6.387
MS.424         	8.95           	6.476
MS.425         	8.932          	6.469
MS.426         	8.915          	6.451
MS.427         	8.898          	6.49
MS.428         	8.88           	6.484
MS.429         	8.863          	6.298
MS.430         	8.845          	6.407
MS.431         	8.825          	6.385
MS.432         	8.807          	6.256
MS.433         	8.79           	6.471
MS.434         	8.773          	6.27
MS.435         	8.755          	6.328
MS.436         	8.738          	6.296
MS.437         	8.72           	6.32
MS.438         	8.702          	6.238
MS.439         	8.685          	6.206
MS.440         	8.67           	6.266
MS.441         	8.653          	6.26
MS.442         	8.635          	6.2
MS.443         	8.617          	6.105
MS.444         	8.6            	6.214
MS.445         	8.582          	6.01
MS.446         	8.565          	6.119
MS.447         	8.547          	6.055
MS.448         	8.53           	6.127
MS.449         	8.515          	6.049
MS.450         	8.497          	5.986
MS.451         	8.48           	6.004
MS.452         	8.462          	5.982
MS.453         	8.448          	6.115
MS.454         	8.43           	6.107
MS.455         	8.412          	6.024
MS.456         	8.395          	6.004
MS.457         	8.38           	6.069
MS.458         	8.363          	6.018
MS.459         	8.345          	5.861
MS.460         	8.33           	5.901
MS.461         	8.312          	5.815
MS.462         	8.295          	5.853
MS.463         	8.28           	5.922
MS.464         	8.262          	5.843
MS.465         	8.245          	5.849
MS.466         	8.23           	5.906
MS.467         	8.212          	5.785
MS.468         	8.198          	5.801
MS.469         	8.18           	5.654
MS.470         	8.165          	5.581
MS.471         	8.148          	5.767
MS.472         	8.132          	5.569
MS.473         	8.115          	5.575
MS.474         	8.1            	5.775
MS.475         	8.082          	5.585
MS.476         	8.068          	5.726
MS.477         	8.05           	5.624
MS.478         	8.035          	5.255
MS.479         	8.017          	5.589
MS.480         	8.002          	5.184
MS.481         	7.987          	5.418
MS.482         	7.97           	5.186
MS.483         	7.955          	5.172
MS.484         	7.938          	5.271
MS.485         	7.922          	5.37
MS.486         	7.907          	5.078
MS.487         	7.89           	5.096
MS.488         	7.875          	5.291
MS.489         	7.86           	5.122
MS.490         	7.845          	5.158
MS.491         	7.827          	4.919
MS.492         	7.812          	4.896
MS.493         	7.797          	4.798
MS.494         	7.782          	5.021
MS.495         	7.765          	4.713
MS.496         	7.75           	4.824
MS.497         	7.735          	4.979
MS.498         	7.72           	4.792
MS.499         	7.705          	4.822
