File:              	C:\Qtrac\Data\Daniel M Sørensen\MScan multicentre study\Data from centres\Aarhus\Processed data\DMSC00921B.QZD
Name:              	DK.AAR.NC.10.1
Protocol:          	MSCAN-R2
Date:              	21/9/20
Start time:        	14:36:03
Age:               	70
Sex:               	m
Temperature:       	34,3
S/R sites:         	ADM
NC/disease:        	NC
Operator:          	DS
Comments:
M-SCAN DATA (6.8-1.8m)
Scanpts: 40, 52, 519, 540
Stim. (mA)     	Amp. (mV)
MS.1           	41             	8.617
MS.2           	41             	8.641
MS.3           	41             	8.611
MS.4           	41             	8.633
MS.5           	41             	8.619
MS.6           	41             	8.645
MS.7           	41             	8.641
MS.8           	41             	8.665
MS.9           	41             	8.627
MS.10          	41             	8.639
MS.11          	41             	8.651
MS.12          	41             	8.655
MS.13          	41             	8.645
MS.14          	41             	8.649
MS.15          	41             	8.673
MS.16          	41             	8.663
MS.17          	41             	8.671
MS.18          	41             	8.659
MS.19          	41             	8.629
MS.20          	41             	8.691
MS.21          	41             	8.671
MS.22          	41             	8.653
MS.23          	41             	8.679
MS.24          	40.835         	8.661
MS.25          	40.755         	8.671
MS.26          	40.673         	8.699
MS.27          	40.592         	8.659
MS.28          	40.51          	8.697
MS.29          	40.43          	8.669
MS.30          	40.35          	8.689
MS.31          	40.267         	8.693
MS.32          	40.188         	8.689
MS.33          	40.107         	8.695
MS.34          	40.028         	8.715
MS.35          	39.947         	8.705
MS.36          	39.868         	8.721
MS.37          	39.787         	8.727
MS.38          	39.708         	8.729
MS.39          	39.63          	8.741
MS.40          	39.55          	8.719
MS.41          	39.47          	8.715
MS.42          	39.392         	8.713
MS.43          	39.312         	8.717
MS.44          	39.235         	8.711
MS.45          	39.157         	8.713
MS.46          	39.077         	8.715
MS.47          	39             	8.737
MS.48          	38.923         	8.715
MS.49          	38.845         	8.725
MS.50          	38.767         	8.711
MS.51          	38.69          	8.699
MS.52          	38.612         	8.729
MS.53          	38.535         	8.739
MS.54          	38.458         	8.721
MS.55          	38.38          	8.707
MS.56          	38.305         	8.711
MS.57          	38.228         	8.717
MS.58          	38.153         	8.717
MS.59          	38.075         	8.731
MS.60          	38             	8.709
MS.61          	37.923         	8.711
MS.62          	37.847         	8.711
MS.63          	37.772         	8.727
MS.64          	37.697         	8.729
MS.65          	37.62          	8.697
MS.66          	37.545         	8.729
MS.67          	37.47          	8.671
MS.68          	37.395         	8.679
MS.69          	37.322         	8.703
MS.70          	37.247         	8.715
MS.71          	37.173         	8.719
MS.72          	37.097         	8.745
MS.73          	37.025         	8.693
MS.74          	36.95          	8.677
MS.75          	36.875         	8.717
MS.76          	36.802         	8.679
MS.77          	36.73          	8.679
MS.78          	36.655         	8.703
MS.79          	36.583         	8.687
MS.80          	36.51          	8.524
MS.81          	36.438         	8.707
MS.82          	36.362         	8.455
MS.83          	36.29          	8.47
MS.84          	36.217         	8.582
MS.85          	36.145         	8.544
MS.86          	36.075         	8.5
MS.87          	36.002         	8.512
MS.88          	35.93          	8.496
MS.89          	35.857         	8.502
MS.90          	35.787         	8.506
MS.91          	35.715         	8.476
MS.92          	35.642         	8.49
MS.93          	35.572         	8.329
MS.94          	35.5           	8.345
MS.95          	35.43          	8.337
MS.96          	35.36          	8.25
MS.97          	35.29          	8.23
MS.98          	35.217         	8.379
MS.99          	35.147         	8.494
MS.100         	35.077         	8.314
MS.101         	35.007         	8.244
MS.102         	34.938         	8.464
MS.103         	34.868         	8.478
MS.104         	34.798         	8.532
MS.105         	34.73          	8.304
MS.106         	34.66          	8.268
MS.107         	34.59          	8.29
MS.108         	34.52          	8.292
MS.109         	34.452         	8.312
MS.110         	34.382         	8.3
MS.111         	34.315         	8.2
MS.112         	34.245         	8.224
MS.113         	34.177         	8.32
MS.114         	34.11          	8.212
MS.115         	34.04          	8.31
MS.116         	33.972         	8.298
MS.117         	33.905         	8.308
MS.118         	33.837         	8.173
MS.119         	33.77          	8.173
MS.120         	33.702         	8.278
MS.121         	33.635         	8.323
MS.122         	33.568         	8.316
MS.123         	33.5           	8.262
MS.124         	33.435         	8.292
MS.125         	33.368         	8.153
MS.126         	33.3           	8.163
MS.127         	33.235         	8.312
MS.128         	33.167         	8.256
MS.129         	33.1           	8.292
MS.130         	33.035         	8.351
MS.131         	32.97          	8.153
MS.132         	32.903         	8.131
MS.133         	32.837         	8.125
MS.134         	32.772         	8.345
MS.135         	32.708         	8.161
MS.136         	32.64          	8.103
MS.137         	32.575         	8.141
MS.138         	32.51          	8.069
MS.139         	32.445         	8.182
MS.140         	32.38          	8.03
MS.141         	32.315         	8.145
MS.142         	32.252         	8.071
MS.143         	32.188         	8.049
MS.144         	32.122         	8.099
MS.145         	32.057         	8.061
MS.146         	31.995         	8.167
MS.147         	31.93          	8.177
MS.148         	31.867         	8.071
MS.149         	31.802         	8.087
MS.150         	31.74          	7.956
MS.151         	31.677         	8.067
MS.152         	31.612         	8.075
MS.153         	31.55          	8.061
MS.154         	31.487         	8.113
MS.155         	31.425         	8.034
MS.156         	31.36          	8.137
MS.157         	31.297         	8.131
MS.158         	31.235         	8.226
MS.159         	31.172         	8.139
MS.160         	31.11          	8.077
MS.161         	31.05          	8.083
MS.162         	30.987         	8.02
MS.163         	30.925         	8
MS.164         	30.862         	8.075
MS.165         	30.802         	8.01
MS.166         	30.74          	7.908
MS.167         	30.677         	8.085
MS.168         	30.617         	7.942
MS.169         	30.555         	8.063
MS.170         	30.495         	7.912
MS.171         	30.435         	7.97
MS.172         	30.372         	7.823
MS.173         	30.312         	7.839
MS.174         	30.252         	7.773
MS.175         	30.192         	7.718
MS.176         	30.132         	7.821
MS.177         	30.07          	7.829
MS.178         	30.01          	7.789
MS.179         	29.95          	7.724
MS.180         	29.892         	7.68
MS.181         	29.832         	7.744
MS.182         	29.772         	7.738
MS.183         	29.712         	7.595
MS.184         	29.653         	7.533
MS.185         	29.595         	7.636
MS.186         	29.535         	7.628
MS.187         	29.475         	7.642
MS.188         	29.417         	7.543
MS.189         	29.358         	7.352
MS.190         	29.3           	7.209
MS.191         	29.24          	7.406
MS.192         	29.182         	7.45
MS.193         	29.125         	7.185
MS.194         	29.065         	7.285
MS.195         	29.007         	7.207
MS.196         	28.95          	7.251
MS.197         	28.892         	7.187
MS.198         	28.835         	7.18
MS.199         	28.778         	7.221
MS.200         	28.72          	7.158
MS.201         	28.662         	7.243
MS.202         	28.605         	7.291
MS.203         	28.547         	6.645
MS.204         	28.49          	7.062
MS.205         	28.432         	6.679
MS.206         	28.377         	6.574
MS.207         	28.32          	6.681
MS.208         	28.262         	6.677
MS.209         	28.207         	6.405
MS.210         	28.15          	7.042
MS.211         	28.095         	6.836
MS.212         	28.037         	6.457
MS.213         	27.983         	6.373
MS.214         	27.927         	6.657
MS.215         	27.87          	6.586
MS.216         	27.815         	6.345
MS.217         	27.76          	6.395
MS.218         	27.705         	6.246
MS.219         	27.647         	6.371
MS.220         	27.592         	6.612
MS.221         	27.537         	6.212
MS.222         	27.483         	6.328
MS.223         	27.427         	6.335
MS.224         	27.372         	6.377
MS.225         	27.317         	6.101
MS.226         	27.265         	6.051
MS.227         	27.21          	6.053
MS.228         	27.155         	5.914
MS.229         	27.1           	5.861
MS.230         	27.047         	6.103
MS.231         	26.993         	5.879
MS.232         	26.94          	5.833
MS.233         	26.885         	6.075
MS.234         	26.832         	5.863
MS.235         	26.778         	5.807
MS.236         	26.725         	5.871
MS.237         	26.67          	5.787
MS.238         	26.618         	5.654
MS.239         	26.565         	5.754
MS.240         	26.51          	5.861
MS.241         	26.457         	5.648
MS.242         	26.405         	5.585
MS.243         	26.352         	5.613
MS.244         	26.3           	5.638
MS.245         	26.247         	5.529
MS.246         	26.195         	5.547
MS.247         	26.142         	5.507
MS.248         	26.09          	5.626
MS.249         	26.037         	5.41
MS.250         	25.987         	5.356
MS.251         	25.935         	5.422
MS.252         	25.882         	5.388
MS.253         	25.83          	5.279
MS.254         	25.78          	5.233
MS.255         	25.727         	5.118
MS.256         	25.677         	5.261
MS.257         	25.625         	5.078
MS.258         	25.575         	5.056
MS.259         	25.522         	4.993
MS.260         	25.472         	4.949
MS.261         	25.42          	4.892
MS.262         	25.37          	4.723
MS.263         	25.32          	4.608
MS.264         	25.267         	4.502
MS.265         	25.217         	4.612
MS.266         	25.167         	4.349
MS.267         	25.118         	4.51
MS.268         	25.067         	4.33
MS.269         	25.017         	4.306
MS.270         	24.967         	4.49
MS.271         	24.917         	3.922
MS.272         	24.868         	4.032
MS.273         	24.817         	4.441
MS.274         	24.767         	4.204
MS.275         	24.72          	4.189
MS.276         	24.67          	4.091
MS.277         	24.62          	3.688
MS.278         	24.57          	3.74
MS.279         	24.522         	3.565
MS.280         	24.472         	3.718
MS.281         	24.425         	3.563
MS.282         	24.375         	3.499
MS.283         	24.327         	3.734
MS.284         	24.278         	3.335
MS.285         	24.23          	3.434
MS.286         	24.18          	3.551
MS.287         	24.132         	2.939
MS.288         	24.085         	3.372
MS.289         	24.038         	3.09
MS.290         	23.987         	3.184
MS.291         	23.94          	2.81
MS.292         	23.892         	3.102
MS.293         	23.845         	2.78
MS.294         	23.797         	2.695
MS.295         	23.75          	2.548
MS.296         	23.702         	2.433
MS.297         	23.655         	2.516
MS.298         	23.608         	2.447
MS.299         	23.56          	2.568
MS.300         	23.512         	2.487
MS.301         	23.467         	2.155
MS.302         	23.42          	2.054
MS.303         	23.372         	2.107
MS.304         	23.325         	1.966
MS.305         	23.28          	1.913
MS.306         	23.233         	1.926
MS.307         	23.188         	1.845
MS.308         	23.14          	2.165
MS.309         	23.095         	2.737
MS.310         	23.047         	2.062
MS.311         	23.002         	2.169
MS.312         	22.955         	2.079
MS.313         	22.91          	2.145
MS.314         	22.865         	1.924
MS.315         	22.817         	1.202
MS.316         	22.772         	1.509
MS.317         	22.727         	1.335
MS.318         	22.682         	1.656
MS.319         	22.637         	1.803
MS.320         	22.592         	1.772
MS.321         	22.545         	1.704
MS.322         	22.5           	1.595
MS.323         	22.455         	1.555
MS.324         	22.413         	1.523
MS.325         	22.368         	1.527
MS.326         	22.323         	1.426
MS.327         	22.278         	1.241
MS.328         	22.233         	1.227
MS.329         	22.188         	1.424
MS.330         	22.145         	1.263
MS.331         	22.1           	1.116
MS.332         	22.055         	1.259
MS.333         	22.012         	1.15
MS.334         	21.967         	1.055
MS.335         	21.922         	1.051
MS.336         	21.88          	1.217
MS.337         	21.835         	1.225
MS.338         	21.792         	1.273
MS.339         	21.75          	0.922
MS.340         	21.705         	1.154
MS.341         	21.663         	0.991
MS.342         	21.62          	0.989
MS.343         	21.575         	0.914
MS.344         	21.532         	0.957
MS.345         	21.49          	0.989
MS.346         	21.448         	0.868
MS.347         	21.405         	0.8
MS.348         	21.36          	0.862
MS.349         	21.317         	0.816
MS.350         	21.275         	0.729
MS.351         	21.233         	0.701
MS.352         	21.19          	0.695
MS.353         	21.147         	0.691
MS.354         	21.105         	0.731
MS.355         	21.065         	0.727
MS.356         	21.022         	0.655
MS.357         	20.98          	0.463
MS.358         	20.938         	0.554
MS.359         	20.895         	0.564
MS.360         	20.855         	0.596
MS.361         	20.812         	0.453
MS.362         	20.77          	0.375
MS.363         	20.73          	0.544
MS.364         	20.688         	0.31
MS.365         	20.647         	0.34
MS.366         	20.605         	0.304
MS.367         	20.565         	0.284
MS.368         	20.522         	0.316
MS.369         	20.483         	0.437
MS.370         	20.442         	0.28
MS.371         	20.4           	0.24
MS.372         	20.36          	0.218
MS.373         	20.32          	0.238
MS.374         	20.278         	0.211
MS.375         	20.237         	0.207
MS.376         	20.198         	0.24
MS.377         	20.157         	0.189
MS.378         	20.118         	0.193
MS.379         	20.077         	0.151
MS.380         	20.038         	0.165
MS.381         	19.997         	0.203
MS.382         	19.958         	0.226
MS.383         	19.917         	0.203
MS.384         	19.877         	0.222
MS.385         	19.837         	0.197
MS.386         	19.797         	0.173
MS.387         	19.757         	0.22
MS.388         	19.717         	0.288
MS.389         	19.68          	0.189
MS.390         	19.64          	0.248
MS.391         	19.6           	0.334
MS.392         	19.562         	0.31
MS.393         	19.522         	0.205
MS.394         	19.483         	0.278
MS.395         	19.445         	0.292
MS.396         	19.405         	0.218
MS.397         	19.368         	0.191
MS.398         	19.327         	0.244
MS.399         	19.29          	0.171
MS.400         	19.25          	0.189
MS.401         	19.212         	0.286
MS.402         	19.175         	0.232
MS.403         	19.135         	0.191
MS.404         	19.097         	0.167
MS.405         	19.06          	0.211
MS.406         	19.022         	0.22
MS.407         	18.983         	0.155
MS.408         	18.945         	0.157
MS.409         	18.907         	0.109
MS.410         	18.87          	0.113
MS.411         	18.833         	0.167
MS.412         	18.795         	0.085
MS.413         	18.757         	0.131
MS.414         	18.72          	0.107
MS.415         	18.682         	0.085
MS.416         	18.645         	0.127
MS.417         	18.608         	0.127
MS.418         	18.57          	0.099
MS.419         	18.532         	0.105
MS.420         	18.497         	0.125
MS.421         	18.46          	0.087
MS.422         	18.422         	0.121
MS.423         	18.385         	0.109
MS.424         	18.35          	0.097
MS.425         	18.312         	0.103
MS.426         	18.275         	0.113
MS.427         	18.24          	0.085
MS.428         	18.202         	0.123
MS.429         	18.167         	0.107
MS.430         	18.13          	0.125
MS.431         	18.095         	0.139
MS.432         	18.057         	0.101
MS.433         	18.022         	0.109
MS.434         	17.985         	0.109
MS.435         	17.95          	0.103
MS.436         	17.913         	0.085
MS.437         	17.878         	0.095
MS.438         	17.842         	0.105
MS.439         	17.807         	0.111
MS.440         	17.77          	0.089
MS.441         	17.735         	0.081
MS.442         	17.7           	0.099
MS.443         	17.665         	0.101
MS.444         	17.63          	0.089
MS.445         	17.595         	0.103
MS.446         	17.56          	0.075
MS.447         	17.525         	0.087
MS.448         	17.49          	0.093
MS.449         	17.455         	0.087
MS.450         	17.42          	0.087
MS.451         	17.385         	0.089
MS.452         	17.35          	0.097
MS.453         	17.315         	0.085
MS.454         	17.28          	0.079
MS.455         	17.245         	0.091
MS.456         	17.212         	0.085
MS.457         	17.177         	0.091
MS.458         	17.142         	0.075
MS.459         	17.108         	0.093
MS.460         	17.075         	0.083
MS.461         	17.04          	0.05
MS.462         	17.005         	0.091
MS.463         	16.972         	0.093
MS.464         	16.938         	0.079
MS.465         	16.905         	0.091
MS.466         	16.87          	0.048
MS.467         	16.837         	0.046
MS.468         	16.802         	0.04
MS.469         	16.77          	0.073
MS.470         	16.735         	0.085
MS.471         	16.702         	0.083
MS.472         	16.67          	0.079
MS.473         	16.635         	0.038
MS.474         	16.602         	0.05
MS.475         	16.57          	0.024
MS.476         	16.538         	0.014
MS.477         	16.503         	0.026
MS.478         	16.47          	0.056
MS.479         	16.438         	0.014
MS.480         	16.405         	0.016
MS.481         	16.372         	0.02
MS.482         	16.34          	0.036
MS.483         	16.307         	0.014
MS.484         	16.275         	0.016
MS.485         	16.243         	0.018
MS.486         	16.21          	0.01
MS.487         	16.177         	0.02
MS.488         	16.145         	0.012
MS.489         	16.112         	0.018
MS.490         	16.08          	0.018
MS.491         	16.047         	0.01
MS.492         	16.015         	0.026
MS.493         	15.983         	0.018
MS.494         	15.952         	0.02
MS.495         	15.92          	0.012
MS.496         	15.887         	0.024
MS.497         	15.858         	0.016
MS.498         	15.825         	0.024
MS.499         	15.792         	0.012
MS.500         	15.762         	0.018
MS.501         	15.73          	0.014
