File:              	C:\Qtrac\Data\Daniel M Sørensen\MScan multicentre study\Data from centres\Aarhus\Processed data\DMSC00130A.QZD
Name:              	DK.AAR.NC.2.1
Protocol:          	MSCAN-R2
Date:              	30/1/20
Start time:        	12:37:58
Age:               	35
Sex:               	f
Temperature:       	31,0
S/R sites:         	APB
NC/disease:        	Control
Operator:          	DS
Comments:
M-SCAN DATA (11.1-4.5m)
Scanpts: 206, 213, 688, 699
Stim. (mA)     	Amp. (mV)
MS.1           	13.5           	9.299
MS.2           	14.5           	9.303
MS.3           	14.5           	9.297
MS.4           	14.5           	9.251
MS.5           	14.5           	9.271
MS.6           	14.5           	9.289
MS.7           	14.5           	9.267
MS.8           	14.5           	9.261
MS.9           	14.5           	9.263
MS.10          	14.5           	9.293
MS.11          	14.5           	9.279
MS.12          	14.5           	9.269
MS.13          	14.5           	9.271
MS.14          	14.5           	9.283
MS.15          	14.5           	9.253
MS.16          	14.5           	9.259
MS.17          	14.5           	9.247
MS.18          	14.5           	9.259
MS.19          	14.5           	9.255
MS.20          	14.5           	9.263
MS.21          	14.5           	9.251
MS.22          	14.5           	9.261
MS.23          	14.5           	9.299
MS.24          	14.443         	9.273
MS.25          	14.412         	9.247
MS.26          	14.385         	9.241
MS.27          	14.355         	9.243
MS.28          	14.327         	9.251
MS.29          	14.297         	9.251
MS.30          	14.27          	9.269
MS.31          	14.242         	9.265
MS.32          	14.212         	9.249
MS.33          	14.185         	9.253
MS.34          	14.155         	9.241
MS.35          	14.127         	9.243
MS.36          	14.1           	9.257
MS.37          	14.072         	9.257
MS.38          	14.042         	9.249
MS.39          	14.015         	9.251
MS.40          	13.987         	9.255
MS.41          	13.96          	9.263
MS.42          	13.932         	9.243
MS.43          	13.903         	9.265
MS.44          	13.875         	9.233
MS.45          	13.847         	9.233
MS.46          	13.82          	9.257
MS.47          	13.792         	9.257
MS.48          	13.765         	9.243
MS.49          	13.737         	9.253
MS.50          	13.71          	9.247
MS.51          	13.682         	9.259
MS.52          	13.655         	9.257
MS.53          	13.627         	9.295
MS.54          	13.6           	9.277
MS.55          	13.575         	9.263
MS.56          	13.547         	9.257
MS.57          	13.52          	9.265
MS.58          	13.492         	9.261
MS.59          	13.465         	9.253
MS.60          	13.44          	9.267
MS.61          	13.412         	9.267
MS.62          	13.385         	9.253
MS.63          	13.358         	9.235
MS.64          	13.332         	9.259
MS.65          	13.305         	9.259
MS.66          	13.278         	9.263
MS.67          	13.252         	9.241
MS.68          	13.225         	9.261
MS.69          	13.2           	9.263
MS.70          	13.172         	9.239
MS.71          	13.148         	9.273
MS.72          	13.12          	9.271
MS.73          	13.095         	9.249
MS.74          	13.068         	9.265
MS.75          	13.042         	9.269
MS.76          	13.015         	9.267
MS.77          	12.99          	9.253
MS.78          	12.962         	9.265
MS.79          	12.938         	9.261
MS.80          	12.912         	9.263
MS.81          	12.885         	9.267
MS.82          	12.86          	9.249
MS.83          	12.835         	9.249
MS.84          	12.81          	9.249
MS.85          	12.782         	9.251
MS.86          	12.757         	9.261
MS.87          	12.733         	9.251
MS.88          	12.707         	9.247
MS.89          	12.682         	9.239
MS.90          	12.655         	9.241
MS.91          	12.63          	9.253
MS.92          	12.605         	9.279
MS.93          	12.58          	9.235
MS.94          	12.555         	9.249
MS.95          	12.53          	9.245
MS.96          	12.505         	9.249
MS.97          	12.48          	9.235
MS.98          	12.455         	9.251
MS.99          	12.43          	9.237
MS.100         	12.405         	9.249
MS.101         	12.38          	9.245
MS.102         	12.355         	9.255
MS.103         	12.332         	9.235
MS.104         	12.307         	9.233
MS.105         	12.282         	9.233
MS.106         	12.257         	9.245
MS.107         	12.233         	9.237
MS.108         	12.207         	9.237
MS.109         	12.185         	9.243
MS.110         	12.16          	9.245
MS.111         	12.135         	9.249
MS.112         	12.113         	9.257
MS.113         	12.087         	9.247
MS.114         	12.062         	9.249
MS.115         	12.04          	9.235
MS.116         	12.015         	9.245
MS.117         	11.99          	9.249
MS.118         	11.967         	9.251
MS.119         	11.943         	9.245
MS.120         	11.92          	9.255
MS.121         	11.895         	9.249
MS.122         	11.872         	9.267
MS.123         	11.847         	9.271
MS.124         	11.825         	9.259
MS.125         	11.8           	9.253
MS.126         	11.778         	9.239
MS.127         	11.752         	9.243
MS.128         	11.73          	9.255
MS.129         	11.707         	9.253
MS.130         	11.682         	9.263
MS.131         	11.66          	9.249
MS.132         	11.637         	9.247
MS.133         	11.613         	9.251
MS.134         	11.59          	9.265
MS.135         	11.568         	9.253
MS.136         	11.545         	9.265
MS.137         	11.52          	9.253
MS.138         	11.497         	9.259
MS.139         	11.475         	9.275
MS.140         	11.452         	9.261
MS.141         	11.43          	9.263
MS.142         	11.405         	9.275
MS.143         	11.382         	9.271
MS.144         	11.36          	9.277
MS.145         	11.337         	9.269
MS.146         	11.315         	9.265
MS.147         	11.292         	9.273
MS.148         	11.27          	9.275
MS.149         	11.247         	9.273
MS.150         	11.225         	9.273
MS.151         	11.202         	9.283
MS.152         	11.18          	9.269
MS.153         	11.157         	9.273
MS.154         	11.135         	9.265
MS.155         	11.113         	9.275
MS.156         	11.09          	9.269
MS.157         	11.07          	9.277
MS.158         	11.047         	9.255
MS.159         	11.025         	9.287
MS.160         	11.002         	9.281
MS.161         	10.98          	9.283
MS.162         	10.96          	9.275
MS.163         	10.938         	9.279
MS.164         	10.915         	9.261
MS.165         	10.892         	9.247
MS.166         	10.872         	9.289
MS.167         	10.85          	9.265
MS.168         	10.827         	9.261
MS.169         	10.807         	9.263
MS.170         	10.785         	9.287
MS.171         	10.762         	9.281
MS.172         	10.742         	9.277
MS.173         	10.72          	9.261
MS.174         	10.7           	9.293
MS.175         	10.677         	9.287
MS.176         	10.655         	9.275
MS.177         	10.635         	9.275
MS.178         	10.613         	9.271
MS.179         	10.592         	9.283
MS.180         	10.573         	9.267
MS.181         	10.55          	9.287
MS.182         	10.53          	9.299
MS.183         	10.507         	9.259
MS.184         	10.488         	9.297
MS.185         	10.465         	9.295
MS.186         	10.445         	9.275
MS.187         	10.425         	9.293
MS.188         	10.403         	9.313
MS.189         	10.382         	9.318
MS.190         	10.363         	9.279
MS.191         	10.342         	9.315
MS.192         	10.32          	9.328
MS.193         	10.3           	9.279
MS.194         	10.28          	9.293
MS.195         	10.26          	9.336
MS.196         	10.238         	9.315
MS.197         	10.217         	9.332
MS.198         	10.198         	9.352
MS.199         	10.177         	9.348
MS.200         	10.157         	9.332
MS.201         	10.137         	9.249
MS.202         	10.117         	9.342
MS.203         	10.095         	9.356
MS.204         	10.075         	9.334
MS.205         	10.055         	9.354
MS.206         	10.035         	9.336
MS.207         	10.015         	9.344
MS.208         	9.995          	9.338
MS.209         	9.975          	9.346
MS.210         	9.955          	9.354
MS.211         	9.935          	9.356
MS.212         	9.915          	9.344
MS.213         	9.895          	9.368
MS.214         	9.877          	9.358
MS.215         	9.858          	9.364
MS.216         	9.837          	9.356
MS.217         	9.818          	9.372
MS.218         	9.797          	9.346
MS.219         	9.778          	9.36
MS.220         	9.757          	9.356
MS.221         	9.74           	9.362
MS.222         	9.72           	9.251
MS.223         	9.7            	9.253
MS.224         	9.68           	9.35
MS.225         	9.662          	9.388
MS.226         	9.642          	9.255
MS.227         	9.622          	9.366
MS.228         	9.602          	9.372
MS.229         	9.585          	9.374
MS.230         	9.565          	9.398
MS.231         	9.545          	9.386
MS.232         	9.528          	9.267
MS.233         	9.507          	9.269
MS.234         	9.49           	9.257
MS.235         	9.47           	9.265
MS.236         	9.45           	9.267
MS.237         	9.432          	9.279
MS.238         	9.412          	9.275
MS.239         	9.395          	9.263
MS.240         	9.375          	9.285
MS.241         	9.358          	9.293
MS.242         	9.337          	9.275
MS.243         	9.32           	9.283
MS.244         	9.3            	9.285
MS.245         	9.283          	9.277
MS.246         	9.265          	9.307
MS.247         	9.245          	9.301
MS.248         	9.227          	9.293
MS.249         	9.207          	9.281
MS.250         	9.19           	9.247
MS.251         	9.172          	9.281
MS.252         	9.153          	9.269
MS.253         	9.135          	9.326
MS.254         	9.117          	9.303
MS.255         	9.1            	9.277
MS.256         	9.08           	9.267
MS.257         	9.062          	9.299
MS.258         	9.045          	9.265
MS.259         	9.028          	9.324
MS.260         	9.007          	9.315
MS.261         	8.99           	9.293
MS.262         	8.972          	9.301
MS.263         	8.955          	9.201
MS.264         	8.938          	9.297
MS.265         	8.917          	9.16
MS.266         	8.9            	9.326
MS.267         	8.882          	9.285
MS.268         	8.865          	9.249
MS.269         	8.847          	9.297
MS.270         	8.83           	9.219
MS.271         	8.812          	9.318
MS.272         	8.795          	9.174
MS.273         	8.778          	9.227
MS.274         	8.76           	9.255
MS.275         	8.742          	9.32
MS.276         	8.725          	9.162
MS.277         	8.707          	9.118
MS.278         	8.69           	9.189
MS.279         	8.672          	9.164
MS.280         	8.655          	9.104
MS.281         	8.637          	9.128
MS.282         	8.62           	9.078
MS.283         	8.602          	8.915
MS.284         	8.585          	8.983
MS.285         	8.57           	9.162
MS.286         	8.552          	8.991
MS.287         	8.535          	9.088
MS.288         	8.517          	8.983
MS.289         	8.5            	8.991
MS.290         	8.483          	9.09
MS.291         	8.467          	8.969
MS.292         	8.45           	9.096
MS.293         	8.432          	9.122
MS.294         	8.415          	8.969
MS.295         	8.4            	8.953
MS.296         	8.382          	8.981
MS.297         	8.365          	8.969
MS.298         	8.35           	8.782
MS.299         	8.332          	8.949
MS.300         	8.315          	8.957
MS.301         	8.3            	8.756
MS.302         	8.283          	8.768
MS.303         	8.265          	8.715
MS.304         	8.25           	8.816
MS.305         	8.233          	8.713
MS.306         	8.217          	8.766
MS.307         	8.2            	8.711
MS.308         	8.182          	8.447
MS.309         	8.167          	8.405
MS.310         	8.15           	8.649
MS.311         	8.135          	8.449
MS.312         	8.117          	8.345
MS.313         	8.102          	8.409
MS.314         	8.085          	8.25
MS.315         	8.07           	8.264
MS.316         	8.055          	8.387
MS.317         	8.037          	8.198
MS.318         	8.023          	8.115
MS.319         	8.005          	8.292
MS.320         	7.99           	8.492
MS.321         	7.972          	8.173
MS.322         	7.957          	8.248
MS.323         	7.942          	8.145
MS.324         	7.925          	8.026
MS.325         	7.91           	8.145
MS.326         	7.895          	7.96
MS.327         	7.878          	7.388
MS.328         	7.862          	7.954
MS.329         	7.847          	8.002
MS.330         	7.832          	7.726
MS.331         	7.815          	7.936
MS.332         	7.8            	7.992
MS.333         	7.785          	8.119
MS.334         	7.77           	7.108
MS.335         	7.753          	6.826
MS.336         	7.737          	7.664
MS.337         	7.722          	7.757
MS.338         	7.707          	7.025
MS.339         	7.692          	7.714
MS.340         	7.677          	7.73
MS.341         	7.66           	6.647
MS.342         	7.645          	7.658
MS.343         	7.63           	6.586
MS.344         	7.615          	6.612
MS.345         	7.6            	6.167
MS.346         	7.585          	6.669
MS.347         	7.57           	6.284
MS.348         	7.555          	6.331
MS.349         	7.54           	6.667
MS.350         	7.525          	6.403
MS.351         	7.51           	6.224
MS.352         	7.495          	5.767
MS.353         	7.48           	6.218
MS.354         	7.465          	5.716
MS.355         	7.45           	5.789
MS.356         	7.435          	5.819
MS.357         	7.42           	5.807
MS.358         	7.405          	5.843
MS.359         	7.39           	6.919
MS.360         	7.375          	5.972
MS.361         	7.36           	5.317
MS.362         	7.345          	5.205
MS.363         	7.33           	5.839
MS.364         	7.317          	5.42
MS.365         	7.302          	5.327
MS.366         	7.287          	4.727
MS.367         	7.273          	4.834
MS.368         	7.257          	5.219
MS.369         	7.245          	5.203
MS.370         	7.23           	4.749
MS.371         	7.215          	4.629
MS.372         	7.2            	4.663
MS.373         	7.185          	4.477
MS.374         	7.172          	4.558
MS.375         	7.157          	4.554
MS.376         	7.142          	4.477
MS.377         	7.13           	4.363
MS.378         	7.115          	4.482
MS.379         	7.1            	4.413
MS.380         	7.085          	4.324
MS.381         	7.072          	4.308
MS.382         	7.057          	4.129
MS.383         	7.045          	4.298
MS.384         	7.03           	4.26
MS.385         	7.015          	4.187
MS.386         	7.003          	4.21
MS.387         	6.987          	4.103
MS.388         	6.972          	3.946
MS.389         	6.96           	4.246
MS.390         	6.945          	4.059
MS.391         	6.932          	4.113
MS.392         	6.918          	4.165
MS.393         	6.905          	4.218
MS.394         	6.89           	4.103
MS.395         	6.878          	3.795
MS.396         	6.862          	4.012
MS.397         	6.85           	3.871
MS.398         	6.835          	3.92
MS.399         	6.822          	3.853
MS.400         	6.807          	3.781
MS.401         	6.795          	3.833
MS.402         	6.78           	3.706
MS.403         	6.767          	3.65
MS.404         	6.755          	3.39
MS.405         	6.74           	3.466
MS.406         	6.727          	3.611
MS.407         	6.712          	3.507
MS.408         	6.7            	3.46
MS.409         	6.688          	3.46
MS.410         	6.672          	3.444
MS.411         	6.66           	3.581
MS.412         	6.648          	3.406
MS.413         	6.632          	3.257
MS.414         	6.62           	3.372
MS.415         	6.608          	3.321
MS.416         	6.595          	3.37
MS.417         	6.58           	3.277
MS.418         	6.567          	3.245
MS.419         	6.555          	2.995
MS.420         	6.543          	2.995
MS.421         	6.527          	3.068
MS.422         	6.515          	3.025
MS.423         	6.503          	3.025
MS.424         	6.49           	2.87
MS.425         	6.477          	2.701
MS.426         	6.462          	2.804
MS.427         	6.45           	2.872
MS.428         	6.438          	3.011
MS.429         	6.425          	2.765
MS.430         	6.412          	2.602
MS.431         	6.4            	2.439
MS.432         	6.385          	2.628
MS.433         	6.372          	2.431
MS.434         	6.36           	2.528
MS.435         	6.347          	2.439
MS.436         	6.335          	2.512
MS.437         	6.322          	2.548
MS.438         	6.31           	2.044
MS.439         	6.297          	2.308
MS.440         	6.285          	2.143
MS.441         	6.273          	2.443
MS.442         	6.26           	2.284
MS.443         	6.247          	2.141
MS.444         	6.235          	2.01
MS.445         	6.222          	2.201
MS.446         	6.21           	2.085
MS.447         	6.197          	1.849
MS.448         	6.185          	1.994
MS.449         	6.172          	1.492
MS.450         	6.16           	1.519
MS.451         	6.148          	1.47
MS.452         	6.135          	1.525
MS.453         	6.122          	1.859
MS.454         	6.112          	1.408
MS.455         	6.1            	1.553
MS.456         	6.088          	1.642
MS.457         	6.075          	1.543
MS.458         	6.062          	1.466
MS.459         	6.05           	1.74
MS.460         	6.037          	1.768
MS.461         	6.027          	1.529
MS.462         	6.015          	1.126
MS.463         	6.003          	1.656
MS.464         	5.99           	1.39
MS.465         	5.977          	1.486
MS.466         	5.967          	1.124
MS.467         	5.955          	1.017
MS.468         	5.942          	1.017
MS.469         	5.93           	1.124
MS.470         	5.92           	1.031
MS.471         	5.907          	1.152
MS.472         	5.895          	0.975
MS.473         	5.882          	0.882
MS.474         	5.872          	0.977
MS.475         	5.86           	1.325
MS.476         	5.847          	1.362
MS.477         	5.838          	0.971
MS.478         	5.825          	1.021
MS.479         	5.812          	0.892
MS.480         	5.802          	0.814
MS.481         	5.79           	0.828
MS.482         	5.777          	0.848
MS.483         	5.767          	0.83
MS.484         	5.755          	0.781
MS.485         	5.745          	0.765
MS.486         	5.733          	0.804
MS.487         	5.72           	0.83
MS.488         	5.71           	0.856
MS.489         	5.697          	0.703
MS.490         	5.688          	0.645
MS.491         	5.675          	0.518
MS.492         	5.665          	0.697
MS.493         	5.652          	0.769
MS.494         	5.642          	0.614
MS.495         	5.63           	0.769
MS.496         	5.62           	0.693
MS.497         	5.608          	0.622
MS.498         	5.597          	0.675
MS.499         	5.585          	0.697
MS.500         	5.575          	0.491
