File:              	C:\Qtrac\Data\Daniel M Sørensen\MScan multicentre study\Data from centres\Aarhus\Processed data\DMSC00204C.QZD
Name:              	DK.AAR.NC.4.2
Protocol:          	MSCAN-R2
Date:              	4/2/20
Start time:        	14:52:16
Age:               	52
Sex:               	f
Temperature:       	33,6
S/R sites:         	APB
NC/disease:        	Control
Operator:          	DS
Comments:
M-SCAN DATA (2.5-0.0m)
Scanpts: 55, 74, 915, 940
Stim. (mA)     	Amp. (mV)
MS.1           	27             	6.181
MS.2           	27             	6.22
MS.3           	26.892         	6.179
MS.4           	26.837         	6.183
MS.5           	26.785         	6.181
MS.6           	26.73          	6.173
MS.7           	26.677         	6.188
MS.8           	26.625         	6.202
MS.9           	26.573         	6.19
MS.10          	26.517         	6.192
MS.11          	26.465         	6.183
MS.12          	26.412         	6.204
MS.13          	26.36          	6.183
MS.14          	26.307         	6.202
MS.15          	26.255         	6.179
MS.16          	26.202         	6.192
MS.17          	26.15          	6.2
MS.18          	26.097         	6.192
MS.19          	26.045         	6.204
MS.20          	25.993         	6.198
MS.21          	25.94          	6.196
MS.22          	25.89          	6.226
MS.23          	25.837         	6.212
MS.24          	25.785         	6.208
MS.25          	25.735         	6.212
MS.26          	25.682         	6.21
MS.27          	25.632         	6.206
MS.28          	25.58          	6.196
MS.29          	25.53          	6.208
MS.30          	25.477         	6.21
MS.31          	25.427         	6.206
MS.32          	25.377         	6.202
MS.33          	25.325         	6.218
MS.34          	25.275         	6.208
MS.35          	25.225         	6.224
MS.36          	25.175         	6.214
MS.37          	25.125         	6.198
MS.38          	25.075         	6.204
MS.39          	25.025         	6.218
MS.40          	24.975         	6.212
MS.41          	24.925         	6.167
MS.42          	24.875         	6.171
MS.43          	24.825         	6.208
MS.44          	24.775         	6.183
MS.45          	24.725         	6.181
MS.46          	24.675         	6.206
MS.47          	24.627         	6.22
MS.48          	24.577         	6.224
MS.49          	24.528         	6.19
MS.50          	24.48          	6.185
MS.51          	24.43          	6.236
MS.52          	24.382         	6.181
MS.53          	24.332         	6.185
MS.54          	24.285         	6.196
MS.55          	24.235         	6.192
MS.56          	24.188         	6.194
MS.57          	24.14          	6.188
MS.58          	24.09          	6.19
MS.59          	24.042         	6.179
MS.60          	23.995         	6.188
MS.61          	23.948         	6.198
MS.62          	23.9           	6.19
MS.63          	23.85          	6.198
MS.64          	23.802         	6.196
MS.65          	23.755         	6.185
MS.66          	23.707         	6.194
MS.67          	23.66          	6.202
MS.68          	23.615         	6.177
MS.69          	23.567         	6.185
MS.70          	23.52          	6.2
MS.71          	23.472         	6.198
MS.72          	23.425         	6.198
MS.73          	23.38          	6.194
MS.74          	23.332         	6.192
MS.75          	23.285         	6.192
MS.76          	23.24          	6.192
MS.77          	23.192         	6.198
MS.78          	23.145         	6.21
MS.79          	23.1           	6.183
MS.80          	23.055         	6.19
MS.81          	23.007         	6.196
MS.82          	22.962         	6.194
MS.83          	22.915         	6.204
MS.84          	22.87          	6.2
MS.85          	22.825         	6.206
MS.86          	22.78          	6.196
MS.87          	22.733         	6.196
MS.88          	22.688         	6.21
MS.89          	22.642         	6.202
MS.90          	22.597         	6.21
MS.91          	22.552         	6.212
MS.92          	22.507         	6.2
MS.93          	22.462         	6.204
MS.94          	22.417         	6.171
MS.95          	22.372         	6.198
MS.96          	22.327         	6.212
MS.97          	22.282         	6.198
MS.98          	22.237         	6.206
MS.99          	22.195         	6.192
MS.100         	22.15          	6.194
MS.101         	22.105         	6.214
MS.102         	22.062         	6.204
MS.103         	22.017         	6.206
MS.104         	21.972         	6.196
MS.105         	21.93          	6.194
MS.106         	21.885         	6.165
MS.107         	21.842         	6.188
MS.108         	21.797         	6.177
MS.109         	21.755         	6.202
MS.110         	21.712         	6.204
MS.111         	21.667         	6.194
MS.112         	21.625         	6.175
MS.113         	21.583         	6.175
MS.114         	21.538         	6.198
MS.115         	21.495         	6.171
MS.116         	21.452         	6.183
MS.117         	21.41          	6.19
MS.118         	21.368         	6.188
MS.119         	21.325         	6.167
MS.120         	21.282         	6.181
MS.121         	21.24          	6.177
MS.122         	21.198         	6.177
MS.123         	21.155         	6.163
MS.124         	21.112         	6.173
MS.125         	21.07          	6.175
MS.126         	21.028         	6.151
MS.127         	20.985         	6.159
MS.128         	20.942         	6.169
MS.129         	20.903         	6.179
MS.130         	20.86          	6.185
MS.131         	20.817         	6.161
MS.132         	20.778         	6.165
MS.133         	20.735         	6.115
MS.134         	20.695         	6.127
MS.135         	20.653         	6.147
MS.136         	20.61          	6.157
MS.137         	20.57          	6.161
MS.138         	20.53          	6.175
MS.139         	20.487         	6.165
MS.140         	20.448         	6.177
MS.141         	20.405         	6.159
MS.142         	20.365         	6.111
MS.143         	20.325         	6.139
MS.144         	20.285         	6.111
MS.145         	20.243         	6.129
MS.146         	20.202         	6.105
MS.147         	20.163         	6.165
MS.148         	20.122         	6.115
MS.149         	20.083         	6.147
MS.150         	20.042         	6.121
MS.151         	20.002         	6.147
MS.152         	19.962         	6.179
MS.153         	19.922         	6.111
MS.154         	19.882         	6.109
MS.155         	19.842         	6.109
MS.156         	19.802         	6.115
MS.157         	19.762         	6.119
MS.158         	19.725         	6.133
MS.159         	19.685         	6.145
MS.160         	19.645         	6.083
MS.161         	19.605         	6.115
MS.162         	19.567         	6.115
MS.163         	19.528         	6.089
MS.164         	19.487         	6.129
MS.165         	19.45          	6.137
MS.166         	19.41          	6.083
MS.167         	19.372         	5.994
MS.168         	19.333         	6.091
MS.169         	19.295         	6.055
MS.170         	19.255         	6.077
MS.171         	19.217         	6.109
MS.172         	19.18          	6.059
MS.173         	19.14          	6.089
MS.174         	19.102         	5.98
MS.175         	19.065         	5.948
MS.176         	19.028         	6.053
MS.177         	18.987         	5.946
MS.178         	18.95          	6.101
MS.179         	18.913         	6.024
MS.180         	18.875         	6.038
MS.181         	18.837         	5.835
MS.182         	18.8           	5.928
MS.183         	18.762         	5.817
MS.184         	18.725         	5.861
MS.185         	18.688         	5.992
MS.186         	18.65          	5.845
MS.187         	18.612         	5.748
MS.188         	18.575         	5.734
MS.189         	18.538         	5.823
MS.190         	18.5           	5.712
MS.191         	18.465         	5.75
MS.192         	18.427         	5.861
MS.193         	18.39          	5.75
MS.194         	18.352         	5.72
MS.195         	18.317         	5.714
MS.196         	18.28          	5.841
MS.197         	18.245         	5.748
MS.198         	18.208         	5.71
MS.199         	18.17          	5.732
MS.200         	18.135         	5.698
MS.201         	18.097         	5.708
MS.202         	18.062         	5.672
MS.203         	18.028         	5.66
MS.204         	17.99          	5.579
MS.205         	17.955         	5.648
MS.206         	17.917         	5.636
MS.207         	17.882         	5.698
MS.208         	17.847         	5.636
MS.209         	17.812         	5.462
MS.210         	17.775         	5.591
MS.211         	17.74          	5.499
MS.212         	17.705         	5.617
MS.213         	17.67          	5.509
MS.214         	17.635         	5.468
MS.215         	17.6           	5.47
MS.216         	17.562         	5.615
MS.217         	17.528         	5.497
MS.218         	17.493         	5.583
MS.219         	17.458         	5.474
MS.220         	17.422         	5.426
MS.221         	17.39          	5.464
MS.222         	17.355         	5.458
MS.223         	17.32          	5.452
MS.224         	17.285         	5.432
MS.225         	17.25          	5.487
MS.226         	17.215         	5.436
MS.227         	17.182         	5.446
MS.228         	17.147         	5.47
MS.229         	17.112         	5.487
MS.230         	17.077         	5.372
MS.231         	17.045         	5.366
MS.232         	17.01          	5.311
MS.233         	16.977         	5.291
MS.234         	16.942         	5.307
MS.235         	16.91          	5.414
MS.236         	16.875         	5.354
MS.237         	16.842         	5.37
MS.238         	16.807         	5.209
MS.239         	16.775         	5.364
MS.240         	16.74          	5.221
MS.241         	16.708         	5.329
MS.242         	16.672         	5.186
MS.243         	16.64          	5.259
MS.244         	16.608         	5.182
MS.245         	16.575         	5.114
MS.246         	16.54          	5.188
MS.247         	16.507         	5.307
MS.248         	16.475         	5.178
MS.249         	16.442         	5.164
MS.250         	16.41          	5.045
MS.251         	16.378         	5.017
MS.252         	16.342         	5.215
MS.253         	16.31          	4.951
MS.254         	16.278         	5.025
MS.255         	16.245         	5.047
MS.256         	16.212         	4.904
MS.257         	16.18          	5.021
MS.258         	16.147         	4.854
MS.259         	16.118         	4.983
MS.260         	16.085         	4.868
MS.261         	16.052         	4.844
MS.262         	16.02          	4.925
MS.263         	15.987         	4.798
MS.264         	15.955         	4.902
MS.265         	15.925         	4.846
MS.266         	15.892         	4.854
MS.267         	15.86          	4.77
MS.268         	15.83          	4.804
MS.269         	15.797         	4.747
MS.270         	15.765         	4.78
MS.271         	15.735         	4.707
MS.272         	15.702         	4.717
MS.273         	15.672         	4.727
MS.274         	15.64          	4.725
MS.275         	15.61          	4.695
MS.276         	15.577         	4.721
MS.277         	15.547         	4.56
MS.278         	15.515         	4.639
MS.279         	15.485         	4.651
MS.280         	15.452         	4.667
MS.281         	15.422         	4.542
MS.282         	15.392         	4.61
MS.283         	15.36          	4.594
MS.284         	15.33          	4.514
MS.285         	15.3           	4.56
MS.286         	15.27          	4.496
MS.287         	15.237         	4.5
MS.288         	15.207         	4.55
MS.289         	15.177         	4.461
MS.290         	15.148         	4.526
MS.291         	15.117         	4.377
MS.292         	15.087         	4.473
MS.293         	15.057         	4.455
MS.294         	15.027         	4.459
MS.295         	14.997         	4.445
MS.296         	14.967         	4.486
MS.297         	14.938         	4.411
MS.298         	14.907         	4.341
MS.299         	14.877         	4.248
MS.300         	14.847         	4.264
MS.301         	14.818         	4.276
MS.302         	14.787         	4.266
MS.303         	14.757         	4.284
MS.304         	14.73          	4.29
MS.305         	14.7           	4.29
MS.306         	14.67          	4.206
MS.307         	14.64          	4.272
MS.308         	14.612         	4.171
MS.309         	14.582         	4.218
MS.310         	14.552         	4.165
MS.311         	14.525         	4.179
MS.312         	14.495         	4.238
MS.313         	14.467         	4.212
MS.314         	14.438         	4.129
MS.315         	14.407         	4.2
MS.316         	14.38          	4.061
MS.317         	14.35          	4.044
MS.318         	14.322         	4.077
MS.319         	14.295         	4.083
MS.320         	14.265         	3.994
MS.321         	14.237         	3.909
MS.322         	14.207         	3.94
MS.323         	14.18          	4.008
MS.324         	14.153         	3.883
MS.325         	14.122         	3.905
MS.326         	14.095         	3.845
MS.327         	14.068         	3.863
MS.328         	14.04          	3.885
MS.329         	14.01          	3.845
MS.330         	13.983         	3.791
MS.331         	13.955         	3.746
MS.332         	13.927         	3.748
MS.333         	13.9           	3.789
MS.334         	13.872         	3.728
MS.335         	13.842         	3.672
MS.336         	13.815         	3.698
MS.337         	13.787         	3.73
MS.338         	13.76          	3.654
MS.339         	13.733         	3.64
MS.340         	13.705         	3.599
MS.341         	13.677         	3.621
MS.342         	13.653         	3.644
MS.343         	13.625         	3.557
MS.344         	13.597         	3.537
MS.345         	13.57          	3.589
MS.346         	13.542         	3.587
MS.347         	13.515         	3.525
MS.348         	13.487         	3.47
MS.349         	13.462         	3.454
MS.350         	13.435         	3.454
MS.351         	13.407         	3.408
MS.352         	13.38          	3.43
MS.353         	13.355         	3.456
MS.354         	13.327         	3.331
MS.355         	13.3           	3.402
MS.356         	13.275         	3.378
MS.357         	13.247         	3.281
MS.358         	13.222         	3.339
MS.359         	13.195         	3.229
MS.360         	13.167         	3.188
MS.361         	13.142         	3.17
MS.362         	13.115         	3.205
MS.363         	13.09          	3.205
MS.364         	13.062         	3.176
MS.365         	13.037         	3.221
MS.366         	13.012         	3.09
MS.367         	12.985         	3.144
MS.368         	12.96          	3.06
MS.369         	12.932         	2.993
MS.370         	12.907         	3.051
MS.371         	12.882         	2.947
MS.372         	12.858         	2.86
MS.373         	12.83          	2.874
MS.374         	12.805         	2.987
MS.375         	12.78          	2.892
MS.376         	12.755         	2.919
MS.377         	12.727         	2.812
MS.378         	12.702         	2.767
MS.379         	12.677         	2.844
MS.380         	12.653         	2.826
MS.381         	12.627         	2.755
MS.382         	12.602         	2.729
MS.383         	12.577         	2.737
MS.384         	12.552         	2.691
MS.385         	12.528         	2.759
MS.386         	12.502         	2.641
MS.387         	12.477         	2.737
MS.388         	12.452         	2.675
MS.389         	12.427         	2.659
MS.390         	12.403         	2.693
MS.391         	12.377         	2.661
MS.392         	12.352         	2.552
MS.393         	12.327         	2.56
MS.394         	12.302         	2.526
MS.395         	12.278         	2.524
MS.396         	12.255         	2.538
MS.397         	12.23          	2.487
MS.398         	12.205         	2.481
MS.399         	12.18          	2.479
MS.400         	12.155         	2.457
MS.401         	12.132         	2.445
MS.402         	12.108         	2.34
MS.403         	12.082         	2.401
MS.404         	12.06          	2.349
MS.405         	12.035         	2.282
MS.406         	12.01          	2.369
MS.407         	11.988         	2.296
MS.408         	11.962         	2.288
MS.409         	11.94          	2.316
MS.410         	11.915         	2.256
MS.411         	11.892         	2.262
MS.412         	11.867         	2.246
MS.413         	11.845         	2.183
MS.414         	11.82          	2.153
MS.415         	11.797         	2.153
MS.416         	11.773         	2.216
MS.417         	11.75          	2.052
MS.418         	11.727         	2.117
MS.419         	11.702         	2.085
MS.420         	11.68          	2.014
MS.421         	11.655         	2.022
MS.422         	11.632         	2.097
MS.423         	11.61          	2.006
MS.424         	11.587         	1.98
MS.425         	11.562         	1.986
MS.426         	11.54          	1.96
MS.427         	11.517         	1.907
MS.428         	11.495         	1.964
MS.429         	11.47          	1.956
MS.430         	11.447         	1.93
MS.431         	11.425         	1.849
MS.432         	11.403         	1.817
MS.433         	11.38          	1.855
MS.434         	11.358         	1.821
MS.435         	11.335         	1.857
MS.436         	11.312         	1.738
MS.437         	11.29          	1.785
MS.438         	11.267         	1.781
MS.439         	11.245         	1.748
MS.440         	11.222         	1.656
MS.441         	11.2           	1.676
MS.442         	11.177         	1.66
MS.443         	11.155         	1.68
MS.444         	11.132         	1.666
MS.445         	11.11          	1.545
MS.446         	11.087         	1.609
MS.447         	11.065         	1.579
MS.448         	11.042         	1.549
MS.449         	11.023         	1.456
MS.450         	11             	1.488
MS.451         	10.977         	1.45
MS.452         	10.955         	1.472
MS.453         	10.932         	1.426
MS.454         	10.912         	1.434
MS.455         	10.89          	1.408
MS.456         	10.867         	1.335
MS.457         	10.847         	1.424
MS.458         	10.825         	1.39
MS.459         	10.802         	1.38
MS.460         	10.782         	1.36
MS.461         	10.76          	1.364
MS.462         	10.738         	1.301
MS.463         	10.717         	1.269
MS.464         	10.695         	1.247
MS.465         	10.675         	1.287
MS.466         	10.653         	1.269
MS.467         	10.632         	1.219
MS.468         	10.61          	1.19
MS.469         	10.59          	1.186
MS.470         	10.568         	1.158
MS.471         	10.547         	1.194
MS.472         	10.525         	1.122
MS.473         	10.505         	1.172
MS.474         	10.485         	1.108
MS.475         	10.462         	1.152
MS.476         	10.443         	1.116
MS.477         	10.42          	1.1
MS.478         	10.4           	1.051
MS.479         	10.38          	1.049
MS.480         	10.36          	1.051
MS.481         	10.337         	0.979
MS.482         	10.318         	1.005
MS.483         	10.297         	0.977
MS.484         	10.275         	0.955
MS.485         	10.255         	0.969
MS.486         	10.235         	0.933
MS.487         	10.215         	0.927
MS.488         	10.195         	0.981
MS.489         	10.175         	0.868
MS.490         	10.153         	0.918
MS.491         	10.132         	0.842
MS.492         	10.113         	0.862
MS.493         	10.092         	0.834
MS.494         	10.073         	0.86
MS.495         	10.052         	0.852
MS.496         	10.032         	0.862
MS.497         	10.012         	0.796
MS.498         	9.992          	0.828
MS.499         	9.972          	0.786
MS.500         	9.952          	0.826
MS.501         	9.932          	0.759
