File:              	C:\Qtrac\Data\Daniel M Sørensen\MScan multicentre study\Data from centres\Aarhus\Processed data\DMSC00204B.QZD
Name:              	DK.AAR.NC.4.2
Protocol:          	MSCAN-R2
Date:              	4/2/20
Start time:        	14:38:40
Age:               	52
Sex:               	f
Temperature:       	34,8
S/R sites:         	ADM
NC/disease:        	Control
Operator:          	DS
Comments:
M-SCAN DATA (8-2.7m)
Scanpts: 52, 65, 559, 580
Stim. (mA)     	Amp. (mV)
MS.1           	19.5           	7.885
MS.2           	19.5           	7.885
MS.3           	19.5           	7.889
MS.4           	19.5           	7.875
MS.5           	19.5           	7.853
MS.6           	19.5           	7.875
MS.7           	19.5           	7.855
MS.8           	19.5           	7.867
MS.9           	19.5           	7.855
MS.10          	19.5           	7.859
MS.11          	19.5           	7.839
MS.12          	19.5           	7.843
MS.13          	19.5           	7.843
MS.14          	19.5           	7.851
MS.15          	19.5           	7.851
MS.16          	19.5           	7.871
MS.17          	19.5           	7.867
MS.18          	19.5           	7.881
MS.19          	19.5           	7.847
MS.20          	19.5           	7.879
MS.21          	19.5           	7.875
MS.22          	19.5           	7.871
MS.23          	19.5           	7.833
MS.24          	19.422         	7.867
MS.25          	19.382         	7.857
MS.26          	19.345         	7.906
MS.27          	19.305         	7.865
MS.28          	19.267         	7.891
MS.29          	19.23          	7.9
MS.30          	19.19          	7.902
MS.31          	19.153         	7.91
MS.32          	19.115         	7.896
MS.33          	19.075         	7.904
MS.34          	19.038         	7.893
MS.35          	19             	7.914
MS.36          	18.962         	7.916
MS.37          	18.922         	7.908
MS.38          	18.885         	7.918
MS.39          	18.847         	7.916
MS.40          	18.81          	7.926
MS.41          	18.772         	7.932
MS.42          	18.735         	7.924
MS.43          	18.698         	7.934
MS.44          	18.66          	7.95
MS.45          	18.622         	7.952
MS.46          	18.585         	7.944
MS.47          	18.55          	7.869
MS.48          	18.512         	7.877
MS.49          	18.475         	7.869
MS.50          	18.438         	7.859
MS.51          	18.4           	7.881
MS.52          	18.365         	7.889
MS.53          	18.327         	7.875
MS.54          	18.29          	7.843
MS.55          	18.255         	7.904
MS.56          	18.217         	7.803
MS.57          	18.182         	7.841
MS.58          	18.145         	7.99
MS.59          	18.11          	7.845
MS.60          	18.073         	7.916
MS.61          	18.038         	7.893
MS.62          	18             	7.881
MS.63          	17.965         	7.871
MS.64          	17.93          	7.881
MS.65          	17.892         	7.94
MS.66          	17.858         	7.865
MS.67          	17.823         	7.898
MS.68          	17.785         	7.887
MS.69          	17.75          	7.841
MS.70          	17.715         	7.861
MS.71          	17.68          	7.869
MS.72          	17.645         	7.896
MS.73          	17.61          	7.853
MS.74          	17.575         	7.879
MS.75          	17.538         	7.891
MS.76          	17.503         	7.877
MS.77          	17.467         	7.9
MS.78          	17.435         	7.908
MS.79          	17.4           	7.956
MS.80          	17.365         	7.875
MS.81          	17.33          	7.889
MS.82          	17.295         	7.91
MS.83          	17.26          	7.889
MS.84          	17.225         	7.875
MS.85          	17.192         	7.881
MS.86          	17.157         	7.861
MS.87          	17.122         	7.863
MS.88          	17.087         	7.91
MS.89          	17.055         	7.902
MS.90          	17.02          	7.819
MS.91          	16.987         	7.871
MS.92          	16.952         	7.803
MS.93          	16.917         	7.835
MS.94          	16.885         	7.797
MS.95          	16.85          	7.853
MS.96          	16.817         	7.879
MS.97          	16.782         	7.815
MS.98          	16.75          	7.851
MS.99          	16.717         	7.821
MS.100         	16.682         	7.769
MS.101         	16.65          	7.863
MS.102         	16.618         	7.815
MS.103         	16.583         	7.811
MS.104         	16.55          	7.847
MS.105         	16.517         	7.803
MS.106         	16.485         	7.809
MS.107         	16.452         	7.823
MS.108         	16.417         	7.801
MS.109         	16.385         	7.805
MS.110         	16.352         	7.851
MS.111         	16.32          	7.767
MS.112         	16.288         	7.777
MS.113         	16.255         	7.833
MS.114         	16.222         	7.765
MS.115         	16.19          	7.789
MS.116         	16.157         	7.805
MS.117         	16.125         	7.795
MS.118         	16.092         	7.797
MS.119         	16.062         	7.787
MS.120         	16.03          	7.813
MS.121         	15.997         	7.779
MS.122         	15.965         	7.757
MS.123         	15.932         	7.714
MS.124         	15.902         	7.757
MS.125         	15.87          	7.744
MS.126         	15.837         	7.767
MS.127         	15.807         	7.783
MS.128         	15.775         	7.722
MS.129         	15.742         	7.753
MS.130         	15.712         	7.732
MS.131         	15.68          	7.757
MS.132         	15.65          	7.714
MS.133         	15.617         	7.71
MS.134         	15.587         	7.744
MS.135         	15.555         	7.696
MS.136         	15.525         	7.722
MS.137         	15.492         	7.785
MS.138         	15.462         	7.72
MS.139         	15.432         	7.757
MS.140         	15.4           	7.726
MS.141         	15.37          	7.748
MS.142         	15.34          	7.75
MS.143         	15.307         	7.736
MS.144         	15.277         	7.712
MS.145         	15.247         	7.692
MS.146         	15.217         	7.69
MS.147         	15.188         	7.7
MS.148         	15.155         	7.668
MS.149         	15.125         	7.682
MS.150         	15.095         	7.682
MS.151         	15.065         	7.64
MS.152         	15.035         	7.67
MS.153         	15.005         	7.66
MS.154         	14.975         	7.65
MS.155         	14.945         	7.597
MS.156         	14.915         	7.624
MS.157         	14.885         	7.603
MS.158         	14.855         	7.587
MS.159         	14.827         	7.612
MS.160         	14.797         	7.587
MS.161         	14.767         	7.543
MS.162         	14.737         	7.634
MS.163         	14.707         	7.616
MS.164         	14.68          	7.519
MS.165         	14.65          	7.533
MS.166         	14.62          	7.585
MS.167         	14.59          	7.577
MS.168         	14.562         	7.491
MS.169         	14.532         	7.587
MS.170         	14.505         	7.519
MS.171         	14.475         	7.624
MS.172         	14.445         	7.507
MS.173         	14.417         	7.493
MS.174         	14.387         	7.517
MS.175         	14.36          	7.515
MS.176         	14.33          	7.521
MS.177         	14.302         	7.585
MS.178         	14.273         	7.483
MS.179         	14.245         	7.444
MS.180         	14.217         	7.456
MS.181         	14.188         	7.473
MS.182         	14.16          	7.493
MS.183         	14.132         	7.416
MS.184         	14.102         	7.444
MS.185         	14.075         	7.469
MS.186         	14.047         	7.406
MS.187         	14.02          	7.319
MS.188         	13.99          	7.406
MS.189         	13.962         	7.424
MS.190         	13.935         	7.491
MS.191         	13.907         	7.358
MS.192         	13.88          	7.416
MS.193         	13.852         	7.334
MS.194         	13.825         	7.442
MS.195         	13.797         	7.344
MS.196         	13.77          	7.404
MS.197         	13.742         	7.326
MS.198         	13.715         	7.336
MS.199         	13.688         	7.257
MS.200         	13.66          	7.321
MS.201         	13.632         	7.285
MS.202         	13.605         	7.334
MS.203         	13.577         	7.334
MS.204         	13.55          	7.273
MS.205         	13.523         	7.356
MS.206         	13.495         	7.404
MS.207         	13.47          	7.344
MS.208         	13.443         	7.404
MS.209         	13.415         	7.376
MS.210         	13.387         	7.414
MS.211         	13.362         	7.485
MS.212         	13.335         	7.408
MS.213         	13.307         	7.374
MS.214         	13.282         	7.454
MS.215         	13.255         	7.432
MS.216         	13.23          	7.366
MS.217         	13.202         	7.366
MS.218         	13.175         	7.404
MS.219         	13.15          	7.414
MS.220         	13.122         	7.388
MS.221         	13.097         	7.303
MS.222         	13.07          	7.277
MS.223         	13.045         	7.297
MS.224         	13.02          	7.315
MS.225         	12.992         	7.18
MS.226         	12.967         	7.199
MS.227         	12.94          	7.176
MS.228         	12.915         	7.195
MS.229         	12.89          	7.243
MS.230         	12.862         	7.023
MS.231         	12.837         	7.231
MS.232         	12.812         	7.243
MS.233         	12.787         	7.158
MS.234         	12.76          	7.082
MS.235         	12.735         	7.17
MS.236         	12.71          	7.09
MS.237         	12.685         	7.084
MS.238         	12.66          	7.076
MS.239         	12.635         	7.023
MS.240         	12.61          	7.17
MS.241         	12.585         	7.09
MS.242         	12.557         	7.13
MS.243         	12.532         	7.084
MS.244         	12.507         	7.128
MS.245         	12.483         	7.058
MS.246         	12.457         	7.046
MS.247         	12.432         	7.096
MS.248         	12.41          	7.052
MS.249         	12.385         	7.124
MS.250         	12.36          	7.023
MS.251         	12.335         	7.042
MS.252         	12.31          	7.068
MS.253         	12.285         	6.997
MS.254         	12.26          	7.068
MS.255         	12.238         	6.965
MS.256         	12.212         	7.013
MS.257         	12.188         	7.035
MS.258         	12.162         	7.072
MS.259         	12.14          	7.025
MS.260         	12.115         	7.021
MS.261         	12.09          	6.999
MS.262         	12.065         	7.027
MS.263         	12.042         	7.021
MS.264         	12.017         	6.987
MS.265         	11.995         	7.011
MS.266         	11.97          	7.025
MS.267         	11.945         	7.017
MS.268         	11.922         	6.927
MS.269         	11.898         	6.864
MS.270         	11.875         	6.939
MS.271         	11.85          	6.951
MS.272         	11.827         	6.981
MS.273         	11.802         	6.963
MS.274         	11.78          	6.973
MS.275         	11.757         	6.901
MS.276         	11.733         	6.925
MS.277         	11.71          	6.909
MS.278         	11.685         	6.874
MS.279         	11.662         	7.011
MS.280         	11.64          	6.85
MS.281         	11.617         	6.921
MS.282         	11.592         	6.87
MS.283         	11.57          	6.937
MS.284         	11.547         	6.794
MS.285         	11.525         	6.876
MS.286         	11.5           	6.675
MS.287         	11.477         	6.697
MS.288         	11.455         	6.838
MS.289         	11.432         	6.697
MS.290         	11.41          	6.834
MS.291         	11.387         	6.667
MS.292         	11.363         	6.542
MS.293         	11.34          	6.625
MS.294         	11.318         	6.522
MS.295         	11.295         	6.397
MS.296         	11.273         	6.405
MS.297         	11.25          	6.695
MS.298         	11.227         	6.443
MS.299         	11.205         	6.578
MS.300         	11.182         	6.355
MS.301         	11.16          	6.393
MS.302         	11.137         	6.389
MS.303         	11.117         	6.357
MS.304         	11.095         	6.504
MS.305         	11.073         	6.308
MS.306         	11.05          	6.324
MS.307         	11.028         	6.139
MS.308         	11.005         	6.278
MS.309         	10.983         	6.177
MS.310         	10.962         	6.053
MS.311         	10.94          	6.175
MS.312         	10.917         	5.996
MS.313         	10.895         	6.032
MS.314         	10.875         	6.067
MS.315         	10.852         	6.085
MS.316         	10.83          	6.044
MS.317         	10.81          	6.083
MS.318         	10.787         	5.978
MS.319         	10.765         	5.96
MS.320         	10.745         	5.879
MS.321         	10.722         	5.752
MS.322         	10.702         	5.946
MS.323         	10.68          	5.895
MS.324         	10.66          	6.073
MS.325         	10.637         	5.69
MS.326         	10.617         	5.857
MS.327         	10.595         	5.458
MS.328         	10.575         	5.682
MS.329         	10.552         	5.807
MS.330         	10.532         	5.493
MS.331         	10.51          	5.398
MS.332         	10.49          	5.227
MS.333         	10.47          	5.325
MS.334         	10.448         	5.356
MS.335         	10.427         	5.043
MS.336         	10.407         	5.104
MS.337         	10.385         	4.751
MS.338         	10.365         	5.041
MS.339         	10.345         	4.806
MS.340         	10.323         	4.598
MS.341         	10.302         	4.681
MS.342         	10.282         	4.324
MS.343         	10.262         	4.361
MS.344         	10.24          	4.83
MS.345         	10.22          	4.314
MS.346         	10.2           	4.417
MS.347         	10.18          	4.109
MS.348         	10.16          	4.044
MS.349         	10.14          	4.125
MS.350         	10.12          	3.962
MS.351         	10.097         	3.839
MS.352         	10.077         	3.638
MS.353         	10.057         	3.684
MS.354         	10.037         	3.805
MS.355         	10.017         	3.597
MS.356         	9.997          	3.44
MS.357         	9.977          	3.406
MS.358         	9.957          	3.287
MS.359         	9.938          	3.499
MS.360         	9.917          	3.309
MS.361         	9.9            	3.378
MS.362         	9.88           	3.432
MS.363         	9.86           	3.146
MS.364         	9.84           	3.476
MS.365         	9.82           	3.281
MS.366         	9.8            	3.372
MS.367         	9.78           	3.184
MS.368         	9.76           	3.096
MS.369         	9.742          	2.961
MS.370         	9.722          	2.868
MS.371         	9.702          	2.997
MS.372         	9.682          	3.126
MS.373         	9.665          	3.068
MS.374         	9.645          	3.017
MS.375         	9.625          	3.104
MS.376         	9.605          	2.953
MS.377         	9.587          	2.886
MS.378         	9.568          	2.588
MS.379         	9.55           	2.582
MS.380         	9.53           	2.699
MS.381         	9.51           	2.455
MS.382         	9.492          	2.55
MS.383         	9.472          	2.618
MS.384         	9.452          	2.558
MS.385         	9.435          	2.32
MS.386         	9.415          	2.254
MS.387         	9.398          	2.528
MS.388         	9.377          	2.477
MS.389         	9.36           	2.139
MS.390         	9.34           	2.308
MS.391         	9.323          	2.177
MS.392         	9.302          	2.369
MS.393         	9.285          	2.298
MS.394         	9.267          	2.137
MS.395         	9.247          	2.159
MS.396         	9.23           	2.147
MS.397         	9.21           	2.091
MS.398         	9.193          	2.167
MS.399         	9.175          	1.917
MS.400         	9.155          	1.952
MS.401         	9.137          	2.03
MS.402         	9.12           	2
MS.403         	9.1            	2.143
MS.404         	9.082          	1.863
MS.405         	9.065          	1.863
MS.406         	9.047          	1.738
MS.407         	9.028          	1.702
MS.408         	9.01           	1.732
MS.409         	8.992          	1.583
MS.410         	8.975          	1.523
MS.411         	8.957          	1.555
MS.412         	8.94           	1.47
MS.413         	8.92           	1.517
MS.414         	8.903          	1.619
MS.415         	8.885          	1.543
MS.416         	8.867          	1.559
MS.417         	8.85           	1.428
MS.418         	8.832          	1.466
MS.419         	8.815          	1.444
MS.420         	8.797          	1.382
MS.421         	8.78           	1.356
MS.422         	8.762          	1.398
MS.423         	8.745          	1.204
MS.424         	8.727          	1.172
MS.425         	8.71           	1.194
MS.426         	8.693          	1.478
MS.427         	8.675          	1.327
MS.428         	8.658          	1.166
MS.429         	8.64           	1.376
MS.430         	8.622          	1.128
MS.431         	8.605          	1.055
MS.432         	8.587          	1.231
MS.433         	8.57           	1.108
MS.434         	8.555          	1.011
MS.435         	8.537          	0.961
MS.436         	8.52           	1.072
MS.437         	8.502          	0.977
MS.438         	8.485          	0.931
MS.439         	8.47           	1.033
MS.440         	8.452          	0.922
MS.441         	8.435          	0.957
MS.442         	8.417          	0.929
MS.443         	8.403          	0.862
MS.444         	8.385          	0.844
MS.445         	8.367          	0.741
MS.446         	8.35           	0.802
MS.447         	8.335          	0.957
MS.448         	8.318          	0.86
MS.449         	8.302          	0.784
MS.450         	8.285          	0.707
MS.451         	8.267          	0.784
MS.452         	8.252          	0.767
MS.453         	8.235          	0.516
MS.454         	8.217          	0.747
MS.455         	8.202          	0.582
MS.456         	8.185          	0.749
MS.457         	8.17           	0.596
MS.458         	8.153          	0.53
MS.459         	8.137          	0.566
MS.460         	8.12           	0.455
MS.461         	8.105          	0.518
MS.462         	8.087          	0.522
MS.463         	8.073          	0.491
MS.464         	8.055          	0.514
MS.465         	8.04           	0.405
MS.466         	8.025          	0.425
MS.467         	8.007          	0.399
MS.468         	7.992          	0.457
MS.469         	7.975          	0.477
MS.470         	7.96           	0.354
MS.471         	7.945          	0.419
MS.472         	7.927          	0.455
MS.473         	7.912          	0.395
MS.474         	7.898          	0.417
MS.475         	7.88           	0.375
MS.476         	7.865          	0.282
MS.477         	7.85           	0.232
MS.478         	7.832          	0.246
MS.479         	7.817          	0.216
MS.480         	7.802          	0.282
MS.481         	7.787          	0.338
MS.482         	7.77           	0.232
MS.483         	7.755          	0.193
MS.484         	7.74           	0.169
MS.485         	7.725          	0.207
MS.486         	7.71           	0.189
MS.487         	7.695          	0.203
MS.488         	7.677          	0.201
MS.489         	7.662          	0.205
MS.490         	7.648          	0.165
MS.491         	7.632          	0.145
MS.492         	7.617          	0.129
MS.493         	7.602          	0.087
MS.494         	7.587          	0.141
MS.495         	7.572          	0.064
MS.496         	7.557          	0.161
MS.497         	7.543          	0.121
MS.498         	7.527          	0.091
MS.499         	7.512          	0.066
MS.500         	7.497          	0.054
MS.501         	7.482          	0.054
