File:              	C:\Qtrac\Data\Daniel M Sørensen\MScan multicentre study\Data from centres\Aarhus\Processed data\DMSC00902C.QZD
Name:              	DK.AAR.NC.7.1
Protocol:          	MSCAN-R2
Date:              	2/9/20
Start time:        	15:05:14
Age:               	65
Sex:               	m
Temperature:       	31,6
S/R sites:         	TA
NC/disease:        	NC
Operator:          	DS
Comments:
M-SCAN DATA (6.7-1.2m)
Scanpts: 9, 14, 570, 590
Stim. (mA)     	Amp. (mV)
MS.1           	29             	4.713
MS.2           	29             	4.695
MS.3           	29             	4.715
MS.4           	29             	4.681
MS.5           	29             	4.677
MS.6           	29             	4.655
MS.7           	29             	4.665
MS.8           	29             	4.667
MS.9           	29             	4.665
MS.10          	29             	4.663
MS.11          	29             	4.661
MS.12          	29             	4.683
MS.13          	29             	4.675
MS.14          	29             	4.659
MS.15          	29             	4.687
MS.16          	29             	4.681
MS.17          	29             	4.655
MS.18          	29             	4.673
MS.19          	29             	4.647
MS.20          	29             	4.669
MS.21          	29             	4.669
MS.22          	29             	4.673
MS.23          	29             	4.703
MS.24          	28.827         	4.659
MS.25          	28.77          	4.665
MS.26          	28.712         	4.657
MS.27          	28.655         	4.669
MS.28          	28.597         	4.683
MS.29          	28.54          	4.667
MS.30          	28.483         	4.663
MS.31          	28.425         	4.677
MS.32          	28.37          	4.673
MS.33          	28.312         	4.657
MS.34          	28.255         	4.675
MS.35          	28.2           	4.655
MS.36          	28.142         	4.663
MS.37          	28.087         	4.661
MS.38          	28.03          	4.655
MS.39          	27.975         	4.657
MS.40          	27.917         	4.653
MS.41          	27.862         	4.659
MS.42          	27.807         	4.671
MS.43          	27.752         	4.667
MS.44          	27.695         	4.637
MS.45          	27.64          	4.645
MS.46          	27.585         	4.665
MS.47          	27.53          	4.665
MS.48          	27.475         	4.6
MS.49          	27.42          	4.633
MS.50          	27.365         	4.635
MS.51          	27.31          	4.663
MS.52          	27.257         	4.633
MS.53          	27.202         	4.62
MS.54          	27.147         	4.627
MS.55          	27.092         	4.657
MS.56          	27.04          	4.62
MS.57          	26.985         	4.62
MS.58          	26.932         	4.606
MS.59          	26.877         	4.635
MS.60          	26.825         	4.637
MS.61          	26.77          	4.627
MS.62          	26.717         	4.637
MS.63          	26.662         	4.627
MS.64          	26.61          	4.633
MS.65          	26.557         	4.604
MS.66          	26.505         	4.62
MS.67          	26.45          	4.608
MS.68          	26.397         	4.616
MS.69          	26.345         	4.625
MS.70          	26.292         	4.633
MS.71          	26.24          	4.633
MS.72          	26.188         	4.651
MS.73          	26.135         	4.631
MS.74          	26.082         	4.661
MS.75          	26.03          	4.643
MS.76          	25.98          	4.62
MS.77          	25.927         	4.635
MS.78          	25.875         	4.631
MS.79          	25.823         	4.645
MS.80          	25.772         	4.602
MS.81          	25.72          	4.612
MS.82          	25.67          	4.633
MS.83          	25.618         	4.61
MS.84          	25.567         	4.625
MS.85          	25.515         	4.618
MS.86          	25.465         	4.618
MS.87          	25.415         	4.625
MS.88          	25.362         	4.681
MS.89          	25.312         	4.639
MS.90          	25.262         	4.62
MS.91          	25.212         	4.612
MS.92          	25.16          	4.618
MS.93          	25.11          	4.61
MS.94          	25.06          	4.564
MS.95          	25.01          	4.641
MS.96          	24.96          	4.61
MS.97          	24.91          	4.586
MS.98          	24.86          	4.586
MS.99          	24.81          	4.598
MS.100         	24.762         	4.633
MS.101         	24.712         	4.594
MS.102         	24.663         	4.6
MS.103         	24.612         	4.616
MS.104         	24.565         	4.588
MS.105         	24.515         	4.598
MS.106         	24.465         	4.588
MS.107         	24.417         	4.578
MS.108         	24.368         	4.606
MS.109         	24.32          	4.612
MS.110         	24.27          	4.59
MS.111         	24.222         	4.608
MS.112         	24.175         	4.58
MS.113         	24.125         	4.552
MS.114         	24.077         	4.471
MS.115         	24.03          	4.542
MS.116         	23.983         	4.546
MS.117         	23.935         	4.524
MS.118         	23.885         	4.538
MS.119         	23.837         	4.526
MS.120         	23.79          	4.49
MS.121         	23.743         	4.506
MS.122         	23.695         	4.459
MS.123         	23.647         	4.604
MS.124         	23.6           	4.542
MS.125         	23.555         	4.411
MS.126         	23.507         	4.465
MS.127         	23.46          	4.5
MS.128         	23.413         	4.389
MS.129         	23.365         	4.431
MS.130         	23.32          	4.375
MS.131         	23.272         	4.345
MS.132         	23.227         	4.407
MS.133         	23.18          	4.425
MS.134         	23.132         	4.427
MS.135         	23.087         	4.411
MS.136         	23.042         	4.31
MS.137         	22.995         	4.375
MS.138         	22.95          	4.22
MS.139         	22.903         	4.381
MS.140         	22.858         	4.332
MS.141         	22.812         	4.363
MS.142         	22.767         	4.274
MS.143         	22.72          	4.185
MS.144         	22.675         	4.302
MS.145         	22.63          	4.29
MS.146         	22.585         	4.28
MS.147         	22.54          	4.25
MS.148         	22.495         	4.222
MS.149         	22.45          	4.292
MS.150         	22.405         	4.212
MS.151         	22.36          	4.284
MS.152         	22.315         	4.228
MS.153         	22.27          	4.314
MS.154         	22.227         	4.181
MS.155         	22.182         	4.21
MS.156         	22.137         	4.153
MS.157         	22.092         	4.139
MS.158         	22.05          	4.125
MS.159         	22.005         	4.075
MS.160         	21.962         	4.121
MS.161         	21.917         	4.238
MS.162         	21.875         	4.123
MS.163         	21.83          	4.121
MS.164         	21.788         	4.063
MS.165         	21.743         	4.133
MS.166         	21.7           	4.05
MS.167         	21.655         	4.055
MS.168         	21.612         	4.059
MS.169         	21.57          	3.958
MS.170         	21.528         	4.03
MS.171         	21.483         	3.962
MS.172         	21.44          	4.018
MS.173         	21.397         	3.98
MS.174         	21.355         	3.889
MS.175         	21.312         	3.942
MS.176         	21.27          	3.956
MS.177         	21.227         	3.821
MS.178         	21.185         	3.787
MS.179         	21.142         	3.863
MS.180         	21.1           	3.891
MS.181         	21.057         	3.825
MS.182         	21.015         	3.791
MS.183         	20.975         	3.754
MS.184         	20.932         	3.789
MS.185         	20.89          	3.813
MS.186         	20.847         	3.758
MS.187         	20.807         	3.783
MS.188         	20.765         	3.775
MS.189         	20.725         	3.815
MS.190         	20.682         	3.744
MS.191         	20.642         	3.724
MS.192         	20.6           	3.724
MS.193         	20.56          	3.716
MS.194         	20.517         	3.702
MS.195         	20.477         	3.712
MS.196         	20.435         	3.702
MS.197         	20.395         	3.674
MS.198         	20.355         	3.66
MS.199         	20.312         	3.605
MS.200         	20.272         	3.569
MS.201         	20.233         	3.67
MS.202         	20.192         	3.638
MS.203         	20.153         	3.628
MS.204         	20.112         	3.591
MS.205         	20.073         	3.569
MS.206         	20.03          	3.563
MS.207         	19.99          	3.543
MS.208         	19.952         	3.509
MS.209         	19.913         	3.547
MS.210         	19.872         	3.434
MS.211         	19.833         	3.456
MS.212         	19.792         	3.43
MS.213         	19.752         	3.44
MS.214         	19.712         	3.511
MS.215         	19.675         	3.406
MS.216         	19.635         	3.501
MS.217         	19.595         	3.484
MS.218         	19.555         	3.398
MS.219         	19.517         	3.333
MS.220         	19.477         	3.364
MS.221         	19.44          	3.335
MS.222         	19.4           	3.354
MS.223         	19.362         	3.311
MS.224         	19.323         	3.311
MS.225         	19.285         	3.261
MS.226         	19.245         	3.251
MS.227         	19.208         	3.289
MS.228         	19.17          	3.273
MS.229         	19.13          	3.251
MS.230         	19.092         	3.261
MS.231         	19.055         	3.223
MS.232         	19.015         	3.196
MS.233         	18.977         	3.253
MS.234         	18.94          	3.237
MS.235         	18.903         	3.239
MS.236         	18.865         	3.217
MS.237         	18.827         	3.138
MS.238         	18.79          	3.182
MS.239         	18.753         	3.092
MS.240         	18.715         	3.122
MS.241         	18.677         	3.025
MS.242         	18.64          	3.106
MS.243         	18.602         	3.124
MS.244         	18.565         	3.086
MS.245         	18.528         	3.019
MS.246         	18.49          	3.122
MS.247         	18.455         	3.007
MS.248         	18.417         	3.086
MS.249         	18.38          	2.931
MS.250         	18.345         	2.983
MS.251         	18.307         	2.983
MS.252         	18.27          	2.906
MS.253         	18.235         	2.953
MS.254         	18.198         	2.917
MS.255         	18.163         	2.87
MS.256         	18.125         	2.874
MS.257         	18.09          	2.858
MS.258         	18.052         	2.902
MS.259         	18.017         	2.788
MS.260         	17.98          	2.814
MS.261         	17.945         	2.796
MS.262         	17.91          	2.786
MS.263         	17.872         	2.808
MS.264         	17.837         	2.834
MS.265         	17.802         	2.63
MS.266         	17.765         	2.755
MS.267         	17.73          	2.667
MS.268         	17.695         	2.6
MS.269         	17.66          	2.691
MS.270         	17.625         	2.633
MS.271         	17.59          	2.635
MS.272         	17.555         	2.649
MS.273         	17.52          	2.651
MS.274         	17.485         	2.592
MS.275         	17.45          	2.522
MS.276         	17.415         	2.57
MS.277         	17.38          	2.508
MS.278         	17.345         	2.5
MS.279         	17.31          	2.524
MS.280         	17.275         	2.445
MS.281         	17.24          	2.365
MS.282         	17.208         	2.558
MS.283         	17.172         	2.494
MS.284         	17.137         	2.502
MS.285         	17.102         	2.498
MS.286         	17.07          	2.401
MS.287         	17.035         	2.435
MS.288         	17.003         	2.385
MS.289         	16.967         	2.304
MS.290         	16.932         	2.351
MS.291         	16.9           	2.373
MS.292         	16.865         	2.349
MS.293         	16.833         	2.365
MS.294         	16.797         	2.238
MS.295         	16.765         	2.262
MS.296         	16.733         	2.21
MS.297         	16.698         	2.246
MS.298         	16.665         	2.163
MS.299         	16.632         	2.206
MS.300         	16.597         	2.169
MS.301         	16.565         	2.046
MS.302         	16.532         	2.099
MS.303         	16.5           	2.111
MS.304         	16.465         	2.036
MS.305         	16.432         	1.988
MS.306         	16.4           	1.96
MS.307         	16.368         	1.919
MS.308         	16.335         	1.919
MS.309         	16.302         	1.972
MS.310         	16.27          	1.96
MS.311         	16.237         	1.803
MS.312         	16.205         	1.841
MS.313         	16.172         	1.76
MS.314         	16.14          	1.797
MS.315         	16.108         	1.678
MS.316         	16.075         	1.69
MS.317         	16.042         	1.74
MS.318         	16.012         	1.785
MS.319         	15.98          	1.658
MS.320         	15.947         	1.609
MS.321         	15.915         	1.734
MS.322         	15.882         	1.646
MS.323         	15.852         	1.619
MS.324         	15.82          	1.579
MS.325         	15.787         	1.509
MS.326         	15.757         	1.529
MS.327         	15.725         	1.591
MS.328         	15.695         	1.515
MS.329         	15.662         	1.428
MS.330         	15.632         	1.476
MS.331         	15.6           	1.509
MS.332         	15.57          	1.315
MS.333         	15.537         	1.422
MS.334         	15.507         	1.299
MS.335         	15.475         	1.414
MS.336         	15.445         	1.327
MS.337         	15.415         	1.281
MS.338         	15.382         	1.311
MS.339         	15.352         	1.345
MS.340         	15.322         	1.253
MS.341         	15.292         	1.255
MS.342         	15.26          	1.295
MS.343         	15.23          	1.221
MS.344         	15.2           	1.186
MS.345         	15.17          	1.16
MS.346         	15.14          	1.198
MS.347         	15.11          	1.194
MS.348         	15.08          	1.16
MS.349         	15.047         	1.092
MS.350         	15.017         	1.1
MS.351         	14.987         	1.074
MS.352         	14.957         	1.047
MS.353         	14.93          	1.122
MS.354         	14.9           	1.011
MS.355         	14.87          	0.989
MS.356         	14.84          	1.065
MS.357         	14.81          	1.061
MS.358         	14.78          	1.063
MS.359         	14.75          	1.055
MS.360         	14.722         	1.015
MS.361         	14.693         	0.999
MS.362         	14.662         	0.937
MS.363         	14.632         	0.939
MS.364         	14.605         	0.985
MS.365         	14.575         	0.945
MS.366         	14.545         	0.935
MS.367         	14.517         	0.941
MS.368         	14.487         	0.937
MS.369         	14.457         	0.916
MS.370         	14.43          	0.914
MS.371         	14.4           	0.91
MS.372         	14.372         	0.892
MS.373         	14.342         	0.894
MS.374         	14.315         	0.832
MS.375         	14.285         	0.832
MS.376         	14.257         	0.822
MS.377         	14.23          	0.852
MS.378         	14.2           	0.773
MS.379         	14.172         	0.765
MS.380         	14.145         	0.838
MS.381         	14.115         	0.757
MS.382         	14.087         	0.717
MS.383         	14.06          	0.765
MS.384         	14.032         	0.697
MS.385         	14.002         	0.767
MS.386         	13.975         	0.751
MS.387         	13.947         	0.753
MS.388         	13.92          	0.729
MS.389         	13.892         	0.705
MS.390         	13.865         	0.727
MS.391         	13.837         	0.755
MS.392         	13.807         	0.715
MS.393         	13.78          	0.695
MS.394         	13.752         	0.622
MS.395         	13.725         	0.606
MS.396         	13.697         	0.645
MS.397         	13.67          	0.634
MS.398         	13.645         	0.61
MS.399         	13.617         	0.491
MS.400         	13.59          	0.586
MS.401         	13.562         	0.504
MS.402         	13.535         	0.626
MS.403         	13.507         	0.514
MS.404         	13.48          	0.572
MS.405         	13.455         	0.491
MS.406         	13.427         	0.433
MS.407         	13.4           	0.542
MS.408         	13.372         	0.407
MS.409         	13.347         	0.453
MS.410         	13.32          	0.53
MS.411         	13.292         	0.558
MS.412         	13.267         	0.407
MS.413         	13.24          	0.377
MS.414         	13.215         	0.465
MS.415         	13.188         	0.439
MS.416         	13.162         	0.367
MS.417         	13.135         	0.314
MS.418         	13.11          	0.298
MS.419         	13.082         	0.395
MS.420         	13.057         	0.336
MS.421         	13.03          	0.367
MS.422         	12.977         	0.324
MS.423         	12.952         	0.312
MS.424         	12.927         	0.308
MS.425         	12.9           	0.26
MS.426         	12.875         	0.296
MS.427         	12.85          	0.25
MS.428         	12.822         	0.238
MS.429         	12.797         	0.284
MS.430         	12.773         	0.262
MS.431         	12.747         	0.246
MS.432         	12.722         	0.234
MS.433         	12.695         	0.187
MS.434         	12.67          	0.226
MS.435         	12.645         	0.25
MS.436         	12.62          	0.224
MS.437         	12.595         	0.181
MS.438         	12.57          	0.201
MS.439         	12.545         	0.173
MS.440         	12.52          	0.209
MS.441         	12.495         	0.179
MS.442         	12.47          	0.165
MS.443         	12.445         	0.165
MS.444         	12.42          	0.151
MS.445         	12.395         	0.173
MS.446         	12.37          	0.169
MS.447         	12.345         	0.165
MS.448         	12.32          	0.151
MS.449         	12.295         	0.139
MS.450         	12.273         	0.127
MS.451         	12.247         	0.127
MS.452         	12.222         	0.147
MS.453         	12.197         	0.119
MS.454         	12.175         	0.137
MS.455         	12.15          	0.147
MS.456         	12.125         	0.163
MS.457         	12.1           	0.115
MS.458         	12.077         	0.137
MS.459         	12.052         	0.123
MS.460         	12.028         	0.127
MS.461         	12.005         	0.119
MS.462         	11.98          	0.115
MS.463         	11.957         	0.099
MS.464         	11.932         	0.125
MS.465         	11.91          	0.085
MS.466         	11.885         	0.095
MS.467         	11.863         	0.097
MS.468         	11.837         	0.097
MS.469         	11.815         	0.121
MS.470         	11.79          	0.099
MS.471         	11.767         	0.109
MS.472         	11.742         	0.095
MS.473         	11.72          	0.129
MS.474         	11.697         	0.093
MS.475         	11.672         	0.077
MS.476         	11.65          	0.097
MS.477         	11.627         	0.089
MS.478         	11.602         	0.083
MS.479         	11.58          	0.093
MS.480         	11.557         	0.097
MS.481         	11.535         	0.089
MS.482         	11.51          	0.075
MS.483         	11.488         	0.093
MS.484         	11.465         	0.073
MS.485         	11.443         	0.079
MS.486         	11.42          	0.068
MS.487         	11.398         	0.068
MS.488         	11.372         	0.085
MS.489         	11.35          	0.06
MS.490         	11.327         	0.056
MS.491         	11.305         	0.091
MS.492         	11.282         	0.066
MS.493         	11.26          	0.068
MS.494         	11.238         	0.062
MS.495         	11.215         	0.052
MS.496         	11.193         	0.058
MS.497         	11.17          	0.056
MS.498         	11.148         	0.046
MS.499         	11.125         	0.056
MS.500         	11.105         	0.05
MS.501         	11.082         	0.052
