File:              	C:\Qtrac\Data\Daniel M Sørensen\MScan multicentre study\Data from centres\Aarhus\Processed data\DMSC00225D.QZD
Name:              	DK.AAR.NC.3.1
Protocol:          	MSCAN-R2
Date:              	25/2/20
Start time:        	14:47:46
Age:               	48
Sex:               	m
Temperature:       	35,8
S/R sites:         	TA
NC/disease:        	Control
Operator:          	DS
Comments:
M-SCAN DATA (10.8-4.6m)
Scanpts: 6, 16, 642, 663
Stim. (mA)     	Amp. (mV)
MS.1           	39.5           	7.106
MS.2           	39.5           	7.124
MS.3           	39.5           	7.14
MS.4           	39.5           	7.088
MS.5           	39.5           	7.086
MS.6           	39.5           	7.068
MS.7           	39.5           	7.072
MS.8           	39.5           	7.082
MS.9           	39.5           	7.068
MS.10          	39.5           	7.082
MS.11          	39.5           	7.092
MS.12          	39.5           	7.096
MS.13          	39.5           	7.062
MS.14          	39.5           	7.084
MS.15          	39.5           	7.07
MS.16          	39.5           	7.066
MS.17          	39.5           	7.092
MS.18          	39.5           	7.078
MS.19          	39.5           	7.056
MS.20          	39.5           	7.084
MS.21          	39.5           	7.08
MS.22          	39.5           	7.074
MS.23          	39.342         	7.033
MS.24          	39.263         	7.048
MS.25          	39.185         	7.011
MS.26          	39.107         	7.05
MS.27          	39.028         	7.015
MS.28          	38.95          	7.086
MS.29          	38.872         	7.042
MS.30          	38.795         	7.084
MS.31          	38.717         	7.017
MS.32          	38.64          	6.965
MS.33          	38.562         	6.959
MS.34          	38.485         	7.035
MS.35          	38.41          	7.082
MS.36          	38.333         	7.048
MS.37          	38.255         	6.903
MS.38          	38.18          	7.044
MS.39          	38.103         	6.935
MS.40          	38.028         	7.074
MS.41          	37.95          	6.923
MS.42          	37.875         	6.931
MS.43          	37.8           	7.033
MS.44          	37.725         	6.927
MS.45          	37.647         	7.023
MS.46          	37.572         	6.927
MS.47          	37.497         	6.945
MS.48          	37.423         	6.913
MS.49          	37.347         	6.913
MS.50          	37.275         	6.937
MS.51          	37.2           	6.923
MS.52          	37.125         	6.923
MS.53          	37.05          	6.937
MS.54          	36.978         	6.923
MS.55          	36.903         	6.915
MS.56          	36.83          	6.945
MS.57          	36.755         	6.905
MS.58          	36.682         	6.921
MS.59          	36.61          	6.925
MS.60          	36.535         	6.937
MS.61          	36.462         	6.919
MS.62          	36.39          	6.892
MS.63          	36.318         	6.939
MS.64          	36.245         	6.905
MS.65          	36.173         	6.89
MS.66          	36.1           	6.921
MS.67          	36.028         	6.888
MS.68          	35.955         	6.921
MS.69          	35.885         	6.882
MS.70          	35.812         	6.919
MS.71          	35.74          	6.892
MS.72          	35.67          	6.898
MS.73          	35.597         	6.872
MS.74          	35.528         	6.905
MS.75          	35.455         	6.872
MS.76          	35.385         	6.89
MS.77          	35.315         	6.862
MS.78          	35.245         	6.846
MS.79          	35.173         	6.86
MS.80          	35.103         	6.832
MS.81          	35.032         	6.858
MS.82          	34.962         	6.844
MS.83          	34.892         	6.818
MS.84          	34.822         	6.828
MS.85          	34.755         	6.85
MS.86          	34.685         	6.76
MS.87          	34.615         	6.848
MS.88          	34.545         	6.798
MS.89          	34.478         	6.822
MS.90          	34.407         	6.703
MS.91          	34.34          	6.798
MS.92          	34.27          	6.731
MS.93          	34.202         	6.56
MS.94          	34.135         	6.802
MS.95          	34.065         	6.806
MS.96          	33.997         	6.639
MS.97          	33.93          	6.675
MS.98          	33.862         	6.556
MS.99          	33.795         	6.637
MS.100         	33.728         	6.482
MS.101         	33.66          	6.566
MS.102         	33.592         	6.755
MS.103         	33.525         	6.661
MS.104         	33.458         	6.538
MS.105         	33.392         	6.645
MS.106         	33.325         	6.484
MS.107         	33.257         	6.395
MS.108         	33.193         	6.522
MS.109         	33.125         	6.496
MS.110         	33.06          	6.53
MS.111         	32.993         	6.453
MS.112         	32.927         	6.451
MS.113         	32.862         	6.411
MS.114         	32.795         	6.389
MS.115         	32.73          	6.524
MS.116         	32.665         	6.24
MS.117         	32.6           	6.439
MS.118         	32.535         	6.373
MS.119         	32.47          	6.3
MS.120         	32.405         	6.31
MS.121         	32.34          	6.316
MS.122         	32.275         	6.047
MS.123         	32.21          	6.103
MS.124         	32.147         	6.3
MS.125         	32.083         	6.328
MS.126         	32.017         	6.081
MS.127         	31.955         	6.032
MS.128         	31.89          	6
MS.129         	31.827         	5.992
MS.130         	31.762         	5.843
MS.131         	31.7           	6.206
MS.132         	31.635         	6.226
MS.133         	31.573         	5.924
MS.134         	31.51          	6.292
MS.135         	31.448         	5.845
MS.136         	31.385         	6.216
MS.137         	31.32          	5.99
MS.138         	31.257         	6.111
MS.139         	31.195         	6.139
MS.140         	31.135         	6.121
MS.141         	31.073         	5.97
MS.142         	31.01          	5.847
MS.143         	30.948         	6.101
MS.144         	30.885         	5.825
MS.145         	30.825         	6.014
MS.146         	30.762         	5.676
MS.147         	30.7           	5.964
MS.148         	30.64          	5.734
MS.149         	30.577         	5.813
MS.150         	30.517         	5.674
MS.151         	30.457         	5.567
MS.152         	30.395         	5.718
MS.153         	30.335         	5.525
MS.154         	30.275         	5.599
MS.155         	30.212         	5.68
MS.156         	30.153         	5.509
MS.157         	30.092         	5.605
MS.158         	30.032         	5.499
MS.159         	29.972         	5.509
MS.160         	29.912         	5.487
MS.161         	29.852         	5.515
MS.162         	29.792         	5.531
MS.163         	29.735         	5.563
MS.164         	29.675         	5.491
MS.165         	29.615         	5.46
MS.166         	29.557         	5.477
MS.167         	29.497         	5.448
MS.168         	29.438         	5.45
MS.169         	29.38          	5.481
MS.170         	29.32          	5.662
MS.171         	29.262         	5.468
MS.172         	29.202         	5.422
MS.173         	29.145         	5.438
MS.174         	29.087         	5.414
MS.175         	29.03          	5.442
MS.176         	28.97          	5.39
MS.177         	28.912         	5.331
MS.178         	28.855         	5.515
MS.179         	28.797         	5.402
MS.180         	28.74          	5.39
MS.181         	28.682         	5.37
MS.182         	28.625         	5.384
MS.183         	28.567         	5.325
MS.184         	28.51          	5.398
MS.185         	28.455         	5.398
MS.186         	28.397         	5.368
MS.187         	28.34          	5.279
MS.188         	28.285         	5.374
MS.189         	28.227         	5.364
MS.190         	28.17          	5.289
MS.191         	28.115         	5.299
MS.192         	28.057         	5.315
MS.193         	28.002         	5.229
MS.194         	27.948         	5.253
MS.195         	27.89          	5.211
MS.196         	27.835         	5.237
MS.197         	27.78          	5.311
MS.198         	27.725         	5.223
MS.199         	27.667         	5.074
MS.200         	27.612         	5.283
MS.201         	27.557         	5.199
MS.202         	27.502         	5.108
MS.203         	27.448         	5.267
MS.204         	27.392         	5.134
MS.205         	27.337         	5.116
MS.206         	27.285         	5.207
MS.207         	27.23          	5.126
MS.208         	27.175         	5.14
MS.209         	27.12          	5.058
MS.210         	27.067         	4.979
MS.211         	27.012         	5.138
MS.212         	26.957         	5.253
MS.213         	26.905         	5.054
MS.214         	26.85          	4.997
MS.215         	26.797         	4.961
MS.216         	26.743         	5.011
MS.217         	26.69          	4.957
MS.218         	26.637         	4.983
MS.219         	26.582         	4.975
MS.220         	26.53          	4.989
MS.221         	26.477         	4.979
MS.222         	26.425         	4.935
MS.223         	26.372         	4.925
MS.224         	26.32          	4.947
MS.225         	26.267         	4.88
MS.226         	26.215         	4.965
MS.227         	26.162         	4.862
MS.228         	26.11          	4.963
MS.229         	26.057         	4.866
MS.230         	26.005         	4.836
MS.231         	25.952         	4.983
MS.232         	25.903         	4.888
MS.233         	25.85          	4.838
MS.234         	25.797         	4.866
MS.235         	25.747         	4.866
MS.236         	25.695         	4.757
MS.237         	25.642         	4.858
MS.238         	25.592         	4.862
MS.239         	25.542         	4.806
MS.240         	25.49          	4.675
MS.241         	25.44          	4.864
MS.242         	25.387         	4.715
MS.243         	25.337         	4.834
MS.244         	25.288         	4.846
MS.245         	25.237         	4.802
MS.246         	25.185         	4.711
MS.247         	25.135         	4.749
MS.248         	25.085         	4.745
MS.249         	25.035         	4.792
MS.250         	24.985         	4.766
MS.251         	24.935         	4.705
MS.252         	24.885         	4.747
MS.253         	24.835         	4.713
MS.254         	24.788         	4.727
MS.255         	24.737         	4.616
MS.256         	24.688         	4.649
MS.257         	24.637         	4.602
MS.258         	24.59          	4.622
MS.259         	24.54          	4.59
MS.260         	24.49          	4.62
MS.261         	24.442         	4.709
MS.262         	24.392         	4.417
MS.263         	24.345         	4.592
MS.264         	24.295         	4.518
MS.265         	24.247         	4.445
MS.266         	24.198         	4.377
MS.267         	24.15          	4.506
MS.268         	24.102         	4.32
MS.269         	24.055         	4.558
MS.270         	24.005         	4.449
MS.271         	23.957         	4.324
MS.272         	23.91          	4.379
MS.273         	23.862         	4.3
MS.274         	23.815         	4.31
MS.275         	23.767         	4.314
MS.276         	23.72          	4.193
MS.277         	23.672         	4.256
MS.278         	23.625         	4.431
MS.279         	23.577         	4.133
MS.280         	23.53          	4.387
MS.281         	23.483         	4.339
MS.282         	23.438         	4.214
MS.283         	23.39          	4.389
MS.284         	23.342         	4.389
MS.285         	23.297         	4.173
MS.286         	23.25          	4.105
MS.287         	23.202         	4.185
MS.288         	23.157         	4.165
MS.289         	23.11          	4.071
MS.290         	23.065         	4.099
MS.291         	23.017         	4.055
MS.292         	22.972         	4.004
MS.293         	22.927         	4.065
MS.294         	22.88          	4.034
MS.295         	22.835         	4.006
MS.296         	22.79          	4.042
MS.297         	22.745         	3.968
MS.298         	22.698         	3.954
MS.299         	22.653         	3.948
MS.300         	22.608         	3.883
MS.301         	22.562         	3.92
MS.302         	22.517         	3.924
MS.303         	22.472         	3.865
MS.304         	22.427         	3.837
MS.305         	22.382         	3.775
MS.306         	22.337         	3.853
MS.307         	22.292         	3.891
MS.308         	22.25          	3.807
MS.309         	22.205         	3.797
MS.310         	22.16          	3.7
MS.311         	22.115         	3.74
MS.312         	22.073         	3.76
MS.313         	22.028         	3.783
MS.314         	21.983         	3.773
MS.315         	21.94          	3.73
MS.316         	21.895         	3.694
MS.317         	21.852         	3.799
MS.318         	21.807         	3.785
MS.319         	21.765         	3.664
MS.320         	21.722         	3.646
MS.321         	21.677         	3.654
MS.322         	21.635         	3.565
MS.323         	21.592         	3.654
MS.324         	21.547         	3.499
MS.325         	21.505         	3.557
MS.326         	21.462         	3.511
MS.327         	21.42          	3.511
MS.328         	21.377         	3.621
MS.329         	21.335         	3.559
MS.330         	21.292         	3.519
MS.331         	21.247         	3.553
MS.332         	21.208         	3.436
MS.333         	21.165         	3.444
MS.334         	21.122         	3.442
MS.335         	21.08          	3.404
MS.336         	21.038         	3.428
MS.337         	20.995         	3.408
MS.338         	20.952         	3.39
MS.339         	20.913         	3.456
MS.340         	20.87          	3.339
MS.341         	20.827         	3.434
MS.342         	20.788         	3.348
MS.343         	20.745         	3.362
MS.344         	20.702         	3.331
MS.345         	20.663         	3.309
MS.346         	20.62          	3.348
MS.347         	20.58          	3.174
MS.348         	20.538         	3.188
MS.349         	20.497         	3.261
MS.350         	20.458         	3.223
MS.351         	20.415         	3.205
MS.352         	20.375         	3.15
MS.353         	20.335         	3.213
MS.354         	20.292         	3.293
MS.355         	20.252         	3.182
MS.356         	20.212         	3.192
MS.357         	20.172         	3.15
MS.358         	20.132         	3.154
MS.359         	20.092         	3.088
MS.360         	20.052         	3.092
MS.361         	20.012         	3.174
MS.362         	19.972         	3.082
MS.363         	19.932         	3.043
MS.364         	19.892         	3.086
MS.365         	19.852         	3.138
MS.366         	19.812         	3.094
MS.367         	19.772         	3.068
MS.368         	19.733         	2.981
MS.369         	19.692         	3.084
MS.370         	19.655         	3.033
MS.371         	19.615         	2.999
MS.372         	19.575         	2.977
MS.373         	19.538         	2.999
MS.374         	19.497         	3.037
MS.375         	19.46          	2.939
MS.376         	19.42          	2.919
MS.377         	19.38          	2.884
MS.378         	19.342         	2.925
MS.379         	19.302         	2.925
MS.380         	19.265         	2.931
MS.381         	19.227         	2.983
MS.382         	19.188         	2.886
MS.383         	19.15          	2.822
MS.384         	19.112         	2.852
MS.385         	19.073         	2.864
MS.386         	19.035         	2.925
MS.387         	18.997         	2.792
MS.388         	18.96          	2.834
MS.389         	18.922         	2.703
MS.390         	18.882         	2.749
MS.391         	18.845         	2.719
MS.392         	18.807         	2.747
MS.393         	18.77          	2.773
MS.394         	18.733         	2.691
MS.395         	18.695         	2.743
MS.396         	18.657         	2.616
MS.397         	18.62          	2.639
MS.398         	18.585         	2.776
MS.399         	18.547         	2.504
MS.400         	18.51          	2.419
MS.401         	18.472         	2.616
MS.402         	18.435         	2.538
MS.403         	18.4           	2.53
MS.404         	18.362         	2.415
MS.405         	18.325         	2.542
MS.406         	18.29          	2.465
MS.407         	18.253         	2.498
MS.408         	18.215         	2.201
MS.409         	18.18          	2.222
MS.410         	18.142         	2.403
MS.411         	18.108         	2.379
MS.412         	18.07          	2.25
MS.413         	18.035         	2.427
MS.414         	17.997         	2.201
MS.415         	17.962         	2.24
MS.416         	17.927         	2.316
MS.417         	17.89          	2.193
MS.418         	17.855         	2.189
MS.419         	17.82          	2.129
MS.420         	17.785         	2.095
MS.421         	17.747         	2.109
MS.422         	17.712         	2.046
MS.423         	17.677         	2.042
MS.424         	17.642         	2.014
MS.425         	17.608         	2.028
MS.426         	17.573         	2.036
MS.427         	17.538         	2.091
MS.428         	17.503         	2.179
MS.429         	17.467         	1.986
MS.430         	17.432         	1.944
MS.431         	17.397         	2.062
MS.432         	17.362         	1.968
MS.433         	17.327         	1.93
MS.434         	17.292         	1.829
MS.435         	17.257         	1.772
MS.436         	17.225         	2.024
MS.437         	17.19          	2.026
MS.438         	17.155         	1.678
MS.439         	17.12          	1.823
MS.440         	17.087         	1.748
MS.441         	17.052         	1.758
MS.442         	17.017         	1.762
MS.443         	16.985         	1.716
MS.444         	16.95          	1.67
MS.445         	16.917         	1.823
MS.446         	16.882         	1.662
MS.447         	16.85          	1.672
MS.448         	16.815         	1.718
MS.449         	16.782         	1.708
MS.450         	16.747         	1.386
MS.451         	16.715         	1.684
MS.452         	16.682         	1.454
MS.453         	16.647         	1.664
MS.454         	16.615         	1.615
MS.455         	16.583         	1.44
MS.456         	16.547         	1.646
MS.457         	16.515         	1.343
MS.458         	16.483         	1.605
MS.459         	16.45          	1.547
MS.460         	16.417         	1.323
MS.461         	16.385         	1.47
MS.462         	16.35          	1.299
MS.463         	16.317         	1.513
MS.464         	16.285         	1.38
MS.465         	16.253         	1.261
MS.466         	16.22          	1.289
MS.467         	16.188         	1.122
MS.468         	16.155         	1.194
MS.469         	16.125         	1.325
MS.470         	16.092         	1.237
MS.471         	16.06          	1.408
MS.472         	16.028         	0.997
MS.473         	15.995         	1.281
MS.474         	15.962         	1.215
MS.475         	15.932         	0.933
MS.476         	15.9           	1.076
MS.477         	15.867         	1.021
MS.478         	15.835         	1.152
MS.479         	15.805         	0.973
MS.480         	15.773         	1.019
MS.481         	15.742         	0.908
MS.482         	15.71          	0.999
MS.483         	15.677         	1.037
MS.484         	15.648         	1.166
MS.485         	15.615         	1.019
MS.486         	15.585         	0.848
MS.487         	15.552         	0.927
MS.488         	15.523         	0.922
MS.489         	15.492         	0.931
MS.490         	15.46          	0.854
MS.491         	15.43          	0.935
MS.492         	15.4           	0.937
MS.493         	15.367         	0.788
MS.494         	15.337         	0.808
MS.495         	15.307         	0.856
MS.496         	15.275         	0.814
MS.497         	15.245         	0.939
MS.498         	15.215         	0.914
MS.499         	15.185         	0.749
MS.500         	15.155         	0.808
MS.501         	15.125         	0.751
