File:              	C:\Qtrac\Data\Daniel M Sørensen\MScan multicentre study\Data from centres\Aarhus\Processed data\DMSC00618F.QZD
Name:              	DK.AAR.NC.1.2
Protocol:          	MSCAN-R2
Date:              	18/6/20
Start time:        	13:09:03
Age:               	21
Sex:               	f
Temperature:       	34,0
S/R sites:         	ADM
NC/disease:        	NC
Operator:          	DS
Comments:
M-SCAN DATA (8-2.6m)
Scanpts: 97, 104, 555, 577
Stim. (mA)     	Amp. (mV)
MS.1           	18             	7.992
MS.2           	18             	7.998
MS.3           	18             	8.043
MS.4           	18             	8.049
MS.5           	18             	8.063
MS.6           	18             	8.071
MS.7           	18             	7.672
MS.8           	18             	8.034
MS.9           	18             	8.051
MS.10          	18             	8.057
MS.11          	18             	8.071
MS.12          	18             	8.091
MS.13          	18             	8.091
MS.14          	18             	8.077
MS.15          	18             	8.071
MS.16          	18             	8.047
MS.17          	18             	8.075
MS.18          	18             	8.081
MS.19          	18             	8.065
MS.20          	18             	8.083
MS.21          	18             	8.057
MS.22          	18             	8.077
MS.23          	18             	8.069
MS.24          	17.927         	8.085
MS.25          	17.892         	8.075
MS.26          	17.858         	8.081
MS.27          	17.82          	8.141
MS.28          	17.785         	8.089
MS.29          	17.75          	8.087
MS.30          	17.715         	8.087
MS.31          	17.68          	8.069
MS.32          	17.642         	8.071
MS.33          	17.608         	8.071
MS.34          	17.573         	8.089
MS.35          	17.538         	8.093
MS.36          	17.503         	8.087
MS.37          	17.467         	8.075
MS.38          	17.432         	8.089
MS.39          	17.397         	8.097
MS.40          	17.362         	8.087
MS.41          	17.33          	8.105
MS.42          	17.295         	8.079
MS.43          	17.26          	8.065
MS.44          	17.225         	8.067
MS.45          	17.19          	8.075
MS.46          	17.157         	8.079
MS.47          	17.122         	8.036
MS.48          	17.087         	8.091
MS.49          	17.052         	8.041
MS.50          	17.02          	8.075
MS.51          	16.985         	8.024
MS.52          	16.952         	8.032
MS.53          	16.917         	8.055
MS.54          	16.885         	8.002
MS.55          	16.85          	7.974
MS.56          	16.817         	7.976
MS.57          	16.782         	8.004
MS.58          	16.75          	8.045
MS.59          	16.715         	7.988
MS.60          	16.682         	7.972
MS.61          	16.65          	8.036
MS.62          	16.615         	7.984
MS.63          	16.583         	7.99
MS.64          	16.55          	8.032
MS.65          	16.517         	7.978
MS.66          	16.483         	7.978
MS.67          	16.45          	7.936
MS.68          	16.417         	7.964
MS.69          	16.385         	7.996
MS.70          	16.352         	8.002
MS.71          	16.32          	8.041
MS.72          	16.288         	7.996
MS.73          	16.255         	7.972
MS.74          	16.222         	8.049
MS.75          	16.19          	8.012
MS.76          	16.157         	8.083
MS.77          	16.125         	8.047
MS.78          	16.092         	8.051
MS.79          	16.06          	8.024
MS.80          	16.028         	8.055
MS.81          	15.997         	8.077
MS.82          	15.965         	8.073
MS.83          	15.932         	8.051
MS.84          	15.9           	8.075
MS.85          	15.87          	8.069
MS.86          	15.837         	8.061
MS.87          	15.805         	8.053
MS.88          	15.775         	8.071
MS.89          	15.742         	8.089
MS.90          	15.71          	8.099
MS.91          	15.68          	8.113
MS.92          	15.648         	8.065
MS.93          	15.617         	8.113
MS.94          	15.585         	8.089
MS.95          	15.555         	8.099
MS.96          	15.523         	8.089
MS.97          	15.492         	8.093
MS.98          	15.462         	8.089
MS.99          	15.43          	8.105
MS.100         	15.4           	8.123
MS.101         	15.37          	8.061
MS.102         	15.337         	8.101
MS.103         	15.307         	8.091
MS.104         	15.277         	8.087
MS.105         	15.247         	8.125
MS.106         	15.217         	8.083
MS.107         	15.185         	8.105
MS.108         	15.155         	8.107
MS.109         	15.125         	8.131
MS.110         	15.095         	8.097
MS.111         	15.065         	8.091
MS.112         	15.035         	8.101
MS.113         	15.005         	8.061
MS.114         	14.975         	8.129
MS.115         	14.945         	8.149
MS.116         	14.915         	8.089
MS.117         	14.885         	8.115
MS.118         	14.855         	8.055
MS.119         	14.825         	8.049
MS.120         	14.795         	8.057
MS.121         	14.767         	8.02
MS.122         	14.737         	8.03
MS.123         	14.707         	8.018
MS.124         	14.677         	8.073
MS.125         	14.65          	8.02
MS.126         	14.62          	8.036
MS.127         	14.59          	8.055
MS.128         	14.562         	7.996
MS.129         	14.532         	8.057
MS.130         	14.502         	8.109
MS.131         	14.475         	8.045
MS.132         	14.445         	8.026
MS.133         	14.417         	7.994
MS.134         	14.387         	8.024
MS.135         	14.36          	8.004
MS.136         	14.33          	7.97
MS.137         	14.302         	7.96
MS.138         	14.273         	7.988
MS.139         	14.245         	8.061
MS.140         	14.215         	7.912
MS.141         	14.188         	7.97
MS.142         	14.16          	7.944
MS.143         	14.13          	7.944
MS.144         	14.102         	7.863
MS.145         	14.075         	8.006
MS.146         	14.047         	7.815
MS.147         	14.017         	7.924
MS.148         	13.99          	7.801
MS.149         	13.962         	7.853
MS.150         	13.935         	7.823
MS.151         	13.907         	7.75
MS.152         	13.88          	7.889
MS.153         	13.85          	7.746
MS.154         	13.822         	7.765
MS.155         	13.795         	7.835
MS.156         	13.767         	7.847
MS.157         	13.74          	7.775
MS.158         	13.712         	7.769
MS.159         	13.685         	7.902
MS.160         	13.657         	7.779
MS.161         	13.632         	7.753
MS.162         	13.605         	7.692
MS.163         	13.577         	7.746
MS.164         	13.55          	7.746
MS.165         	13.523         	7.811
MS.166         	13.495         	7.65
MS.167         	13.467         	7.783
MS.168         	13.443         	7.662
MS.169         	13.415         	7.726
MS.170         	13.387         	7.753
MS.171         	13.362         	7.599
MS.172         	13.335         	7.541
MS.173         	13.307         	7.646
MS.174         	13.282         	7.493
MS.175         	13.255         	7.591
MS.176         	13.227         	7.652
MS.177         	13.202         	7.551
MS.178         	13.175         	7.34
MS.179         	13.15          	7.35
MS.180         	13.122         	7.483
MS.181         	13.097         	7.408
MS.182         	13.07          	7.235
MS.183         	13.045         	7.275
MS.184         	13.017         	7.567
MS.185         	12.992         	7.231
MS.186         	12.967         	7.215
MS.187         	12.94          	7.221
MS.188         	12.915         	7.265
MS.189         	12.89          	7.267
MS.190         	12.862         	7.37
MS.191         	12.837         	7.104
MS.192         	12.812         	7.144
MS.193         	12.785         	6.979
MS.194         	12.76          	7.102
MS.195         	12.735         	7.07
MS.196         	12.71          	7.05
MS.197         	12.685         	7.027
MS.198         	12.66          	6.957
MS.199         	12.632         	6.967
MS.200         	12.608         	6.977
MS.201         	12.582         	6.637
MS.202         	12.557         	6.898
MS.203         	12.532         	6.774
MS.204         	12.507         	6.822
MS.205         	12.483         	6.749
MS.206         	12.457         	6.659
MS.207         	12.432         	6.49
MS.208         	12.407         	6.762
MS.209         	12.382         	6.619
MS.210         	12.36          	6.669
MS.211         	12.335         	6.498
MS.212         	12.31          	6.387
MS.213         	12.285         	6.276
MS.214         	12.26          	6.284
MS.215         	12.235         	6.375
MS.216         	12.212         	6.202
MS.217         	12.188         	6.119
MS.218         	12.162         	6.298
MS.219         	12.137         	6.2
MS.220         	12.115         	6.335
MS.221         	12.09          	6.115
MS.222         	12.065         	6.177
MS.223         	12.042         	6.151
MS.224         	12.017         	5.944
MS.225         	11.992         	5.938
MS.226         	11.97          	5.986
MS.227         	11.945         	5.885
MS.228         	11.922         	5.748
MS.229         	11.898         	6.167
MS.230         	11.875         	5.777
MS.231         	11.85          	5.674
MS.232         	11.827         	5.664
MS.233         	11.802         	5.73
MS.234         	11.78          	5.501
MS.235         	11.755         	5.422
MS.236         	11.733         	5.503
MS.237         	11.71          	5.682
MS.238         	11.685         	5.392
MS.239         	11.662         	5.416
MS.240         	11.64          	5.301
MS.241         	11.615         	5.39
MS.242         	11.592         	4.975
MS.243         	11.57          	5.102
MS.244         	11.547         	5.247
MS.245         	11.523         	5.118
MS.246         	11.5           	5.039
MS.247         	11.477         	5.13
MS.248         	11.455         	4.975
MS.249         	11.432         	5.031
MS.250         	11.407         	4.997
MS.251         	11.385         	4.919
MS.252         	11.363         	4.814
MS.253         	11.34          	4.864
MS.254         	11.318         	4.874
MS.255         	11.295         	4.85
MS.256         	11.273         	4.78
MS.257         	11.25          	4.727
MS.258         	11.227         	4.749
MS.259         	11.205         	4.822
MS.260         	11.182         	4.707
MS.261         	11.16          	4.669
MS.262         	11.137         	4.731
MS.263         	11.115         	4.685
MS.264         	11.092         	4.568
MS.265         	11.073         	4.671
MS.266         	11.05          	4.49
MS.267         	11.028         	4.494
MS.268         	11.005         	4.528
MS.269         	10.983         	4.373
MS.270         	10.962         	4.534
MS.271         	10.94          	4.266
MS.272         	10.917         	4.365
MS.273         	10.895         	4.55
MS.274         	10.875         	4.534
MS.275         	10.852         	4.484
MS.276         	10.83          	4.387
MS.277         	10.81          	4.439
MS.278         	10.787         	4.461
MS.279         	10.765         	4.383
MS.280         	10.745         	4.314
MS.281         	10.722         	4.266
MS.282         	10.702         	4.381
MS.283         	10.68          	4.373
MS.284         	10.657         	4.449
MS.285         	10.637         	4.24
MS.286         	10.615         	4.198
MS.287         	10.595         	4.29
MS.288         	10.573         	4.135
MS.289         	10.552         	4.248
MS.290         	10.532         	4.252
MS.291         	10.51          	4.202
MS.292         	10.49          	4.143
MS.293         	10.467         	4.006
MS.294         	10.448         	3.984
MS.295         	10.427         	4.057
MS.296         	10.405         	3.942
MS.297         	10.385         	3.996
MS.298         	10.365         	3.972
MS.299         	10.342         	3.881
MS.300         	10.323         	3.621
MS.301         	10.302         	3.903
MS.302         	10.282         	3.752
MS.303         	10.26          	3.638
MS.304         	10.24          	3.583
MS.305         	10.22          	3.472
MS.306         	10.2           	3.561
MS.307         	10.18          	3.466
MS.308         	10.16          	3.815
MS.309         	10.14          	3.515
MS.310         	10.117         	3.656
MS.311         	10.097         	3.164
MS.312         	10.077         	3.386
MS.313         	10.057         	3.235
MS.314         	10.037         	3.446
MS.315         	10.017         	3.029
MS.316         	9.997          	3.493
MS.317         	9.977          	2.838
MS.318         	9.957          	2.896
MS.319         	9.938          	2.818
MS.320         	9.917          	2.86
MS.321         	9.898          	2.886
MS.322         	9.877          	2.711
MS.323         	9.86           	2.832
MS.324         	9.84           	2.767
MS.325         	9.82           	2.759
MS.326         	9.8            	2.804
MS.327         	9.78           	2.78
MS.328         	9.76           	2.584
MS.329         	9.74           	2.485
MS.330         	9.722          	2.465
MS.331         	9.702          	2.419
MS.332         	9.682          	2.604
MS.333         	9.662          	2.437
MS.334         	9.645          	2.52
MS.335         	9.625          	2.306
MS.336         	9.605          	2.568
MS.337         	9.587          	2.203
MS.338         	9.568          	2.27
MS.339         	9.547          	2.286
MS.340         	9.53           	2.22
MS.341         	9.51           	2.187
MS.342         	9.49           	2.203
MS.343         	9.472          	2.062
MS.344         	9.452          	2.131
MS.345         	9.435          	2.145
MS.346         	9.415          	2.05
MS.347         	9.398          	2.165
MS.348         	9.377          	1.97
MS.349         	9.36           	2.042
MS.350         	9.34           	2.008
MS.351         	9.323          	1.994
MS.352         	9.302          	2.065
MS.353         	9.285          	1.899
MS.354         	9.265          	1.909
MS.355         	9.247          	1.964
MS.356         	9.23           	2.03
MS.357         	9.21           	1.815
MS.358         	9.193          	1.859
MS.359         	9.175          	1.867
MS.360         	9.155          	1.829
MS.361         	9.137          	1.911
MS.362         	9.12           	1.704
MS.363         	9.1            	1.768
MS.364         	9.082          	1.708
MS.365         	9.065          	1.728
MS.366         	9.047          	1.69
MS.367         	9.028          	1.66
MS.368         	9.01           	1.581
MS.369         	8.992          	1.527
MS.370         	8.975          	1.45
MS.371         	8.957          	1.545
MS.372         	8.938          	1.553
MS.373         	8.92           	1.547
MS.374         	8.903          	1.414
MS.375         	8.885          	1.39
MS.376         	8.867          	1.426
MS.377         	8.85           	1.323
MS.378         	8.832          	1.376
MS.379         	8.815          	1.311
MS.380         	8.797          	1.352
MS.381         	8.78           	1.223
MS.382         	8.762          	1.331
MS.383         	8.745          	1.241
MS.384         	8.727          	1.313
MS.385         	8.71           	1.327
MS.386         	8.693          	1.2
MS.387         	8.675          	1.1
MS.388         	8.658          	1.211
MS.389         	8.64           	1.114
MS.390         	8.622          	1.08
MS.391         	8.605          	1.057
MS.392         	8.587          	1.102
MS.393         	8.57           	1.021
MS.394         	8.552          	0.947
MS.395         	8.537          	0.949
MS.396         	8.52           	0.876
MS.397         	8.502          	0.924
MS.398         	8.485          	1.005
MS.399         	8.467          	0.933
MS.400         	8.452          	1.001
MS.401         	8.435          	0.933
MS.402         	8.417          	1.007
MS.403         	8.4            	0.967
MS.404         	8.385          	0.912
MS.405         	8.367          	0.965
MS.406         	8.35           	0.745
MS.407         	8.335          	0.973
MS.408         	8.318          	0.949
MS.409         	8.3            	0.929
MS.410         	8.285          	0.82
MS.411         	8.267          	0.822
MS.412         	8.252          	0.681
MS.413         	8.235          	0.564
MS.414         	8.217          	0.55
MS.415         	8.202          	0.57
MS.416         	8.185          	0.584
MS.417         	8.17           	0.556
MS.418         	8.153          	0.552
MS.419         	8.137          	0.612
MS.420         	8.12           	0.558
MS.421         	8.105          	0.481
MS.422         	8.087          	0.471
MS.423         	8.073          	0.407
MS.424         	8.055          	0.504
MS.425         	8.04           	0.425
MS.426         	8.023          	0.459
MS.427         	8.007          	0.55
MS.428         	7.992          	0.387
MS.429         	7.975          	0.308
MS.430         	7.96           	0.338
MS.431         	7.942          	0.272
MS.432         	7.927          	0.387
MS.433         	7.912          	0.312
MS.434         	7.895          	0.346
MS.435         	7.88           	0.258
MS.436         	7.865          	0.373
MS.437         	7.85           	0.332
MS.438         	7.832          	0.379
MS.439         	7.817          	0.268
MS.440         	7.802          	0.246
MS.441         	7.787          	0.268
MS.442         	7.77           	0.254
MS.443         	7.755          	0.25
MS.444         	7.74           	0.348
MS.445         	7.725          	0.266
MS.446         	7.71           	0.256
MS.447         	7.692          	0.266
MS.448         	7.677          	0.26
MS.449         	7.662          	0.256
MS.450         	7.648          	0.357
MS.451         	7.632          	0.258
MS.452         	7.617          	0.246
MS.453         	7.602          	0.258
MS.454         	7.587          	0.258
MS.455         	7.572          	0.25
MS.456         	7.555          	0.248
MS.457         	7.54           	0.246
MS.458         	7.525          	0.246
MS.459         	7.51           	0.236
MS.460         	7.495          	0.246
MS.461         	7.48           	0.242
MS.462         	7.465          	0.232
MS.463         	7.45           	0.236
MS.464         	7.438          	0.24
MS.465         	7.422          	0.216
MS.466         	7.407          	0.24
MS.467         	7.392          	0.226
MS.468         	7.378          	0.161
MS.469         	7.362          	0.165
MS.470         	7.347          	0.234
MS.471         	7.332          	0.234
MS.472         	7.317          	0.24
MS.473         	7.302          	0.193
MS.474         	7.29           	0.169
MS.475         	7.275          	0.222
MS.476         	7.26           	0.115
MS.477         	7.245          	0.099
MS.478         	7.23           	0.222
MS.479         	7.217          	0.105
MS.480         	7.202          	0.173
MS.481         	7.188          	0.103
MS.482         	7.172          	0.115
MS.483         	7.16           	0.179
MS.484         	7.145          	0.103
MS.485         	7.13           	0.109
MS.486         	7.115          	0.07
MS.487         	7.102          	0.183
MS.488         	7.087          	0.068
MS.489         	7.072          	0.068
MS.490         	7.06           	0.113
MS.491         	7.045          	0.113
MS.492         	7.032          	0.07
MS.493         	7.017          	0.181
MS.494         	7.003          	0.073
MS.495         	6.99           	0.145
MS.496         	6.975          	0.073
MS.497         	6.962          	0.07
MS.498         	6.947          	0.075
MS.499         	6.932          	0.066
MS.500         	6.92           	0.056
MS.501         	6.905          	0.062
