File:              	C:\Qtrac\Data\Daniel M Sørensen\MScan multicentre study\Data from centres\Aarhus\Processed data\DMSC00128B.QZD
Name:              	DK.AAR.NC.4.1
Protocol:          	MSCAN-R2
Date:              	28/1/20
Start time:        	16:12:54
Age:               	52
Sex:               	f
Temperature:       	35,0
S/R sites:         	ADM
NC/disease:        	Control
Operator:          	DS
Comments:
M-SCAN DATA (7.5-2.2m)
Scanpts: 9, 20, 548, 569
Stim. (mA)     	Amp. (mV)
MS.1           	26             	8.486
MS.2           	26             	8.492
MS.3           	26             	8.496
MS.4           	26             	8.395
MS.5           	26             	8.468
MS.6           	26             	8.399
MS.7           	26             	8.419
MS.8           	26             	8.49
MS.9           	26             	8.524
MS.10          	26             	8.464
MS.11          	26             	8.443
MS.12          	26             	8.512
MS.13          	26             	8.461
MS.14          	26             	8.353
MS.15          	26             	8.323
MS.16          	26             	8.492
MS.17          	26             	8.536
MS.18          	26             	8.437
MS.19          	26             	8.53
MS.20          	26             	8.431
MS.21          	26             	8.387
MS.22          	26             	8.572
MS.23          	26             	8.56
MS.24          	25.895         	8.506
MS.25          	25.845         	8.554
MS.26          	25.792         	8.514
MS.27          	25.74          	8.379
MS.28          	25.69          	8.451
MS.29          	25.637         	8.536
MS.30          	25.587         	8.433
MS.31          	25.535         	8.333
MS.32          	25.485         	8.266
MS.33          	25.435         	8.31
MS.34          	25.382         	8.435
MS.35          	25.332         	8.472
MS.36          	25.282         	8.3
MS.37          	25.233         	8.417
MS.38          	25.18          	8.268
MS.39          	25.13          	8.31
MS.40          	25.08          	8.228
MS.41          	25.03          	8.244
MS.42          	24.98          	8.32
MS.43          	24.93          	8.268
MS.44          	24.88          	8.349
MS.45          	24.83          	8.353
MS.46          	24.782         	8.339
MS.47          	24.733         	8.363
MS.48          	24.682         	8.25
MS.49          	24.632         	8.357
MS.50          	24.585         	8.306
MS.51          	24.535         	8.353
MS.52          	24.485         	8.329
MS.53          	24.438         	8.331
MS.54          	24.387         	8.318
MS.55          	24.34          	8.431
MS.56          	24.29          	8.268
MS.57          	24.243         	8.349
MS.58          	24.192         	8.314
MS.59          	24.145         	8.264
MS.60          	24.097         	8.31
MS.61          	24.05          	8.248
MS.62          	24             	8.059
MS.63          	23.952         	8.186
MS.64          	23.905         	8.192
MS.65          	23.858         	8.135
MS.66          	23.81          	8.184
MS.67          	23.762         	8.139
MS.68          	23.715         	8.184
MS.69          	23.667         	8.135
MS.70          	23.62          	8.099
MS.71          	23.573         	8.196
MS.72          	23.525         	8.169
MS.73          	23.477         	8.105
MS.74          	23.432         	8.194
MS.75          	23.385         	8.151
MS.76          	23.337         	8.034
MS.77          	23.292         	8.103
MS.78          	23.245         	8.073
MS.79          	23.198         	8.026
MS.80          	23.153         	8.101
MS.81          	23.105         	8.034
MS.82          	23.06          	8.018
MS.83          	23.015         	7.95
MS.84          	22.967         	7.92
MS.85          	22.922         	8.067
MS.86          	22.875         	7.97
MS.87          	22.83          	7.984
MS.88          	22.785         	7.944
MS.89          	22.74          	7.861
MS.90          	22.695         	7.833
MS.91          	22.647         	7.795
MS.92          	22.602         	7.767
MS.93          	22.557         	7.69
MS.94          	22.512         	7.823
MS.95          	22.467         	7.728
MS.96          	22.422         	7.63
MS.97          	22.377         	7.491
MS.98          	22.332         	7.724
MS.99          	22.29          	7.686
MS.100         	22.245         	7.577
MS.101         	22.2           	7.523
MS.102         	22.155         	7.368
MS.103         	22.112         	7.45
MS.104         	22.067         	7.346
MS.105         	22.022         	7.561
MS.106         	21.98          	7.295
MS.107         	21.935         	7.245
MS.108         	21.892         	7.148
MS.109         	21.847         	7.358
MS.110         	21.805         	7.035
MS.111         	21.76          	7.042
MS.112         	21.717         	7.247
MS.113         	21.672         	7.182
MS.114         	21.63          	7.346
MS.115         	21.587         	6.905
MS.116         	21.545         	6.909
MS.117         	21.5           	6.961
MS.118         	21.458         	6.854
MS.119         	21.415         	6.947
MS.120         	21.372         	6.953
MS.121         	21.33          	6.905
MS.122         	21.288         	6.878
MS.123         	21.245         	6.86
MS.124         	21.202         	6.717
MS.125         	21.16          	6.719
MS.126         	21.118         	6.506
MS.127         	21.075         	6.602
MS.128         	21.032         	6.369
MS.129         	20.99          	6.29
MS.130         	20.95          	6.395
MS.131         	20.907         	6.395
MS.132         	20.865         	6.425
MS.133         	20.823         	6.556
MS.134         	20.782         	6.347
MS.135         	20.74          	6.284
MS.136         	20.7           	6.002
MS.137         	20.657         	5.946
MS.138         	20.618         	6.012
MS.139         	20.575         	6.194
MS.140         	20.535         	5.881
MS.141         	20.493         	5.728
MS.142         	20.452         	5.76
MS.143         	20.413         	5.771
MS.144         	20.37          	5.988
MS.145         	20.33          	5.93
MS.146         	20.29          	5.646
MS.147         	20.247         	5.464
MS.148         	20.208         	5.523
MS.149         	20.167         	5.273
MS.150         	20.127         	5.281
MS.151         	20.087         	5.327
MS.152         	20.047         	5.174
MS.153         	20.007         	4.955
MS.154         	19.967         	4.898
MS.155         	19.927         	4.979
MS.156         	19.887         	4.858
MS.157         	19.847         	5.058
MS.158         	19.807         	4.735
MS.159         	19.767         	4.8
MS.160         	19.73          	4.099
MS.161         	19.69          	4.731
MS.162         	19.65          	4.6
MS.163         	19.61          	4.282
MS.164         	19.573         	4.369
MS.165         	19.532         	4.23
MS.166         	19.493         	4.332
MS.167         	19.455         	3.994
MS.168         	19.415         	4.059
MS.169         	19.377         	4.2
MS.170         	19.337         	3.827
MS.171         	19.3           	3.879
MS.172         	19.26          	3.825
MS.173         	19.222         	3.875
MS.174         	19.185         	3.839
MS.175         	19.145         	3.897
MS.176         	19.108         	3.758
MS.177         	19.07          	3.718
MS.178         	19.032         	3.517
MS.179         	18.993         	3.65
MS.180         	18.955         	3.589
MS.181         	18.917         	3.362
MS.182         	18.88          	3.45
MS.183         	18.842         	3.358
MS.184         	18.805         	3.374
MS.185         	18.767         	3.339
MS.186         	18.73          	3.438
MS.187         	18.692         	3.259
MS.188         	18.655         	3.352
MS.189         	18.618         	3.352
MS.190         	18.58          	3.263
MS.191         	18.542         	3.035
MS.192         	18.505         	3.174
MS.193         	18.47          	3.273
MS.194         	18.432         	3.029
MS.195         	18.395         	2.852
MS.196         	18.358         	2.749
MS.197         	18.323         	2.759
MS.198         	18.285         	2.854
MS.199         	18.247         	2.846
MS.200         	18.212         	2.814
MS.201         	18.175         	2.53
MS.202         	18.14          	2.705
MS.203         	18.102         	2.572
MS.204         	18.067         	2.522
MS.205         	18.03          	2.773
MS.206         	17.995         	2.49
MS.207         	17.96          	2.463
MS.208         	17.922         	2.334
MS.209         	17.887         	2.349
MS.210         	17.852         	2.421
MS.211         	17.815         	2.518
MS.212         	17.78          	2.359
MS.213         	17.745         	2.193
MS.214         	17.71          	2.171
MS.215         	17.675         	2.236
MS.216         	17.637         	2.153
MS.217         	17.602         	2.062
MS.218         	17.567         	2.298
MS.219         	17.532         	2.125
MS.220         	17.497         	2.01
MS.221         	17.462         	2.016
MS.222         	17.427         	2.042
MS.223         	17.392         	2.048
MS.224         	17.358         	1.928
MS.225         	17.325         	1.837
MS.226         	17.29          	1.889
MS.227         	17.255         	1.795
MS.228         	17.22          	1.795
MS.229         	17.185         	1.903
MS.230         	17.153         	1.758
MS.231         	17.118         	1.809
MS.232         	17.083         	1.799
MS.233         	17.05          	1.696
MS.234         	17.015         	1.507
MS.235         	16.98          	1.575
MS.236         	16.948         	1.535
MS.237         	16.913         	1.597
MS.238         	16.88          	1.615
MS.239         	16.845         	1.444
MS.240         	16.812         	1.462
MS.241         	16.778         	1.349
MS.242         	16.745         	1.446
MS.243         	16.712         	1.396
MS.244         	16.677         	1.398
MS.245         	16.645         	1.315
MS.246         	16.612         	1.257
MS.247         	16.577         	1.225
MS.248         	16.545         	1.245
MS.249         	16.512         	1.16
MS.250         	16.48          	1.16
MS.251         	16.445         	1.076
MS.252         	16.413         	1.092
MS.253         	16.38          	1.041
MS.254         	16.347         	1.162
MS.255         	16.315         	1.061
MS.256         	16.282         	1.17
MS.257         	16.25          	0.945
MS.258         	16.217         	0.943
MS.259         	16.185         	0.92
MS.260         	16.153         	0.842
MS.261         	16.12          	0.864
MS.262         	16.087         	0.781
MS.263         	16.055         	0.908
MS.264         	16.025         	0.747
MS.265         	15.992         	0.699
MS.266         	15.96          	0.9
MS.267         	15.927         	0.717
MS.268         	15.898         	0.741
MS.269         	15.865         	0.735
MS.270         	15.832         	0.622
MS.271         	15.802         	0.671
MS.272         	15.77          	0.663
MS.273         	15.737         	0.707
MS.274         	15.707         	0.59
MS.275         	15.675         	0.636
MS.276         	15.645         	0.57
MS.277         	15.612         	0.514
MS.278         	15.582         	0.56
MS.279         	15.55          	0.558
MS.280         	15.52          	0.55
MS.281         	15.487         	0.502
MS.282         	15.457         	0.53
MS.283         	15.427         	0.52
MS.284         	15.395         	0.473
MS.285         	15.365         	0.558
MS.286         	15.335         	0.53
MS.287         	15.302         	0.528
MS.288         	15.273         	0.471
MS.289         	15.242         	0.483
MS.290         	15.212         	0.435
MS.291         	15.182         	0.435
MS.292         	15.152         	0.461
MS.293         	15.12          	0.431
MS.294         	15.09          	0.447
MS.295         	15.06          	0.439
MS.296         	15.03          	0.423
MS.297         	15             	0.453
MS.298         	14.97          	0.395
MS.299         	14.94          	0.409
MS.300         	14.91          	0.413
MS.301         	14.88          	0.34
MS.302         	14.852         	0.395
MS.303         	14.822         	0.373
MS.304         	14.792         	0.409
MS.305         	14.762         	0.348
MS.306         	14.733         	0.359
MS.307         	14.702         	0.354
MS.308         	14.675         	0.381
MS.309         	14.645         	0.308
MS.310         	14.615         	0.346
MS.311         	14.587         	0.314
MS.312         	14.557         	0.354
MS.313         	14.527         	0.306
MS.314         	14.5           	0.322
MS.315         	14.47          	0.282
MS.316         	14.443         	0.308
MS.317         	14.412         	0.288
MS.318         	14.382         	0.334
MS.319         	14.355         	0.31
MS.320         	14.325         	0.27
MS.321         	14.297         	0.268
MS.322         	14.27          	0.256
MS.323         	14.24          	0.296
MS.324         	14.212         	0.27
MS.325         	14.182         	0.3
MS.326         	14.155         	0.262
MS.327         	14.127         	0.278
MS.328         	14.1           	0.26
MS.329         	14.07          	0.262
MS.330         	14.042         	0.26
MS.331         	14.015         	0.258
MS.332         	13.987         	0.26
MS.333         	13.957         	0.26
MS.334         	13.93          	0.262
MS.335         	13.903         	0.264
MS.336         	13.875         	0.262
MS.337         	13.847         	0.258
MS.338         	13.82          	0.262
MS.339         	13.792         	0.266
MS.340         	13.765         	0.266
MS.341         	13.737         	0.258
MS.342         	13.71          	0.254
MS.343         	13.682         	0.26
MS.344         	13.655         	0.262
MS.345         	13.627         	0.228
MS.346         	13.6           	0.25
MS.347         	13.572         	0.248
MS.348         	13.545         	0.207
MS.349         	13.52          	0.248
MS.350         	13.492         	0.214
MS.351         	13.465         	0.23
MS.352         	13.438         	0.207
MS.353         	13.41          	0.203
MS.354         	13.385         	0.205
MS.355         	13.358         	0.199
MS.356         	13.33          	0.201
MS.357         	13.305         	0.209
MS.358         	13.278         	0.203
MS.359         	13.252         	0.197
MS.360         	13.225         	0.201
MS.361         	13.197         	0.203
MS.362         	13.172         	0.191
MS.363         	13.145         	0.197
MS.364         	13.12          	0.195
MS.365         	13.092         	0.211
MS.366         	13.068         	0.191
MS.367         	13.04          	0.195
MS.368         	13.015         	0.175
MS.369         	12.99          	0.195
MS.370         	12.962         	0.175
MS.371         	12.938         	0.169
MS.372         	12.91          	0.165
MS.373         	12.885         	0.171
MS.374         	12.86          	0.161
MS.375         	12.835         	0.169
MS.376         	12.807         	0.193
MS.377         	12.782         	0.189
MS.378         	12.757         	0.171
MS.379         	12.733         	0.145
MS.380         	12.705         	0.161
MS.381         	12.68          	0.133
MS.382         	12.655         	0.127
MS.383         	12.63          	0.161
MS.384         	12.605         	0.153
MS.385         	12.58          	0.133
MS.386         	12.555         	0.125
MS.387         	12.53          	0.123
MS.388         	12.505         	0.135
MS.389         	12.48          	0.135
MS.390         	12.455         	0.105
MS.391         	12.43          	0.125
MS.392         	12.405         	0.117
MS.393         	12.38          	0.109
MS.394         	12.355         	0.115
MS.395         	12.33          	0.109
MS.396         	12.305         	0.107
MS.397         	12.282         	0.111
MS.398         	12.257         	0.107
MS.399         	12.233         	0.103
MS.400         	12.207         	0.105
MS.401         	12.182         	0.111
MS.402         	12.16          	0.107
MS.403         	12.135         	0.109
MS.404         	12.11          	0.109
MS.405         	12.087         	0.103
MS.406         	12.062         	0.099
MS.407         	12.037         	0.101
MS.408         	12.015         	0.101
MS.409         	11.99          	0.109
MS.410         	11.967         	0.111
MS.411         	11.943         	0.111
MS.412         	11.917         	0.105
MS.413         	11.895         	0.101
MS.414         	11.87          	0.103
MS.415         	11.847         	0.103
MS.416         	11.822         	0.105
MS.417         	11.8           	0.105
MS.418         	11.778         	0.101
MS.419         	11.752         	0.103
MS.420         	11.73          	0.101
MS.421         	11.705         	0.105
MS.422         	11.682         	0.101
MS.423         	11.66          	0.099
MS.424         	11.635         	0.107
MS.425         	11.613         	0.105
MS.426         	11.59          	0.105
MS.427         	11.568         	0.101
MS.428         	11.542         	0.105
MS.429         	11.52          	0.103
MS.430         	11.497         	0.103
MS.431         	11.475         	0.101
MS.432         	11.45          	0.105
MS.433         	11.427         	0.105
MS.434         	11.405         	0.099
MS.435         	11.382         	0.101
MS.436         	11.36          	0.105
MS.437         	11.337         	0.103
MS.438         	11.315         	0.107
MS.439         	11.292         	0.101
MS.440         	11.27          	0.101
MS.441         	11.247         	0.103
MS.442         	11.225         	0.105
MS.443         	11.202         	0.109
MS.444         	11.18          	0.105
MS.445         	11.157         	0.105
MS.446         	11.135         	0.105
MS.447         	11.113         	0.107
MS.448         	11.09          	0.107
MS.449         	11.068         	0.107
MS.450         	11.047         	0.103
MS.451         	11.025         	0.105
MS.452         	11.002         	0.105
MS.453         	10.98          	0.103
MS.454         	10.957         	0.105
MS.455         	10.938         	0.103
MS.456         	10.915         	0.105
MS.457         	10.892         	0.105
MS.458         	10.87          	0.103
MS.459         	10.85          	0.105
MS.460         	10.827         	0.105
MS.461         	10.805         	0.105
MS.462         	10.785         	0.101
MS.463         	10.762         	0.105
MS.464         	10.742         	0.105
MS.465         	10.72          	0.105
MS.466         	10.698         	0.109
MS.467         	10.677         	0.107
MS.468         	10.655         	0.111
MS.469         	10.635         	0.107
MS.470         	10.613         	0.103
MS.471         	10.592         	0.107
MS.472         	10.57          	0.111
MS.473         	10.55          	0.105
MS.474         	10.528         	0.105
MS.475         	10.507         	0.107
MS.476         	10.488         	0.103
MS.477         	10.465         	0.103
MS.478         	10.445         	0.101
MS.479         	10.425         	0.101
MS.480         	10.403         	0.103
MS.481         	10.382         	0.095
MS.482         	10.363         	0.095
MS.483         	10.34          	0.099
MS.484         	10.32          	0.099
MS.485         	10.3           	0.101
MS.486         	10.28          	0.105
MS.487         	10.257         	0.099
MS.488         	10.238         	0.095
MS.489         	10.217         	0.099
MS.490         	10.198         	0.099
MS.491         	10.177         	0.099
MS.492         	10.157         	0.097
MS.493         	10.135         	0.097
MS.494         	10.115         	0.097
MS.495         	10.095         	0.099
MS.496         	10.075         	0.101
MS.497         	10.055         	0.095
MS.498         	10.035         	0.099
MS.499         	10.015         	0.097
MS.500         	9.995          	0.101
MS.501         	9.975          	0.095
