File:              	C:\Qtrac\Data\Daniel M Sørensen\MScan multicentre study\Data from centres\Aarhus\Processed data\DMSC00611A.QZD
Name:              	DK.AAR.NC.1.1
Protocol:          	MSCAN-R2
Date:              	11/6/20
Start time:        	13:46:24
Age:               	21
Sex:               	f
Temperature:       	33,9
S/R sites:         	APB
NC/disease:        	NC
Operator:          	DS
Comments:
M-SCAN DATA (7.7-3.4m)
Scanpts: 71, 79, 458, 479
Stim. (mA)     	Amp. (mV)
MS.1           	15             	11.207
MS.2           	15             	11.219
MS.3           	15             	11.249
MS.4           	15             	11.229
MS.5           	15             	11.215
MS.6           	15             	11.217
MS.7           	15             	11.221
MS.8           	15             	11.239
MS.9           	15             	11.231
MS.10          	15             	11.211
MS.11          	15             	11.207
MS.12          	15             	11.215
MS.13          	15             	11.225
MS.14          	15             	11.249
MS.15          	15             	11.247
MS.16          	15             	11.249
MS.17          	15             	11.257
MS.18          	15             	11.293
MS.19          	15             	11.303
MS.20          	15             	11.301
MS.21          	15             	11.299
MS.22          	15             	11.31
MS.23          	15             	11.305
MS.24          	14.94          	11.307
MS.25          	14.91          	11.301
MS.26          	14.88          	11.318
MS.27          	14.85          	11.344
MS.28          	14.82          	11.34
MS.29          	14.792         	11.332
MS.30          	14.762         	11.318
MS.31          	14.733         	11.326
MS.32          	14.702         	11.32
MS.33          	14.672         	11.352
MS.34          	14.645         	11.368
MS.35          	14.615         	11.384
MS.36          	14.585         	11.354
MS.37          	14.557         	11.352
MS.38          	14.527         	11.356
MS.39          	14.497         	11.386
MS.40          	14.47          	11.364
MS.41          	14.44          	11.374
MS.42          	14.412         	11.392
MS.43          	14.382         	11.398
MS.44          	14.355         	11.42
MS.45          	14.325         	11.4
MS.46          	14.297         	11.428
MS.47          	14.267         	11.438
MS.48          	14.24          	11.43
MS.49          	14.212         	11.438
MS.50          	14.182         	11.394
MS.51          	14.155         	11.432
MS.52          	14.127         	11.412
MS.53          	14.097         	11.426
MS.54          	14.07          	11.455
MS.55          	14.042         	11.446
MS.56          	14.015         	11.451
MS.57          	13.985         	11.467
MS.58          	13.957         	11.426
MS.59          	13.93          	11.44
MS.60          	13.903         	11.481
MS.61          	13.875         	11.451
MS.62          	13.847         	11.485
MS.63          	13.82          	11.491
MS.64          	13.792         	11.491
MS.65          	13.765         	11.451
MS.66          	13.737         	11.481
MS.67          	13.71          	11.487
MS.68          	13.682         	11.521
MS.69          	13.655         	11.515
MS.70          	13.627         	11.519
MS.71          	13.6           	11.497
MS.72          	13.572         	11.489
MS.73          	13.545         	11.479
MS.74          	13.517         	11.507
MS.75          	13.492         	11.513
MS.76          	13.465         	11.475
MS.77          	13.438         	11.481
MS.78          	13.41          	11.465
MS.79          	13.385         	11.471
MS.80          	13.358         	11.499
MS.81          	13.33          	11.483
MS.82          	13.305         	11.481
MS.83          	13.278         	11.477
MS.84          	13.25          	11.477
MS.85          	13.225         	11.535
MS.86          	13.197         	11.545
MS.87          	13.172         	11.509
MS.88          	13.145         	11.511
MS.89          	13.12          	11.477
MS.90          	13.092         	11.495
MS.91          	13.068         	11.497
MS.92          	13.04          	11.523
MS.93          	13.015         	11.543
MS.94          	12.987         	11.017
MS.95          	12.962         	11.521
MS.96          	12.938         	11.531
MS.97          	12.91          	11.587
MS.98          	12.885         	11.563
MS.99          	12.86          	11.523
MS.100         	12.832         	11.563
MS.101         	12.807         	11.579
MS.102         	12.782         	11.594
MS.103         	12.757         	11.054
MS.104         	12.73          	11.015
MS.105         	12.705         	11.589
MS.106         	12.68          	11.604
MS.107         	12.655         	11.092
MS.108         	12.63          	11.048
MS.109         	12.605         	11.608
MS.110         	12.58          	11.072
MS.111         	12.555         	11.088
MS.112         	12.53          	11.583
MS.113         	12.505         	11.04
MS.114         	12.48          	11.048
MS.115         	12.455         	11.05
MS.116         	12.43          	11.05
MS.117         	12.405         	11.06
MS.118         	12.38          	11.058
MS.119         	12.355         	11.06
MS.120         	12.33          	10.929
MS.121         	12.305         	10.995
MS.122         	12.28          	10.997
MS.123         	12.257         	11.056
MS.124         	12.233         	11.054
MS.125         	12.207         	11.06
MS.126         	12.182         	11.072
MS.127         	12.157         	11.06
MS.128         	12.135         	11.088
MS.129         	12.11          	11.175
MS.130         	12.085         	11.177
MS.131         	12.062         	11.118
MS.132         	12.037         	11.64
MS.133         	12.012         	11.114
MS.134         	11.99          	11.092
MS.135         	11.965         	11.096
MS.136         	11.943         	11.102
MS.137         	11.917         	11.177
MS.138         	11.895         	11.094
MS.139         	11.87          	11.148
MS.140         	11.847         	11.094
MS.141         	11.822         	11.189
MS.142         	11.8           	11.162
MS.143         	11.775         	11.142
MS.144         	11.752         	11.233
MS.145         	11.73          	11.175
MS.146         	11.705         	11.269
MS.147         	11.682         	11.185
MS.148         	11.657         	11.193
MS.149         	11.635         	11.175
MS.150         	11.613         	11.183
MS.151         	11.59          	11.225
MS.152         	11.565         	11.229
MS.153         	11.542         	11.241
MS.154         	11.52          	11.235
MS.155         	11.497         	11.181
MS.156         	11.472         	11.219
MS.157         	11.45          	11.263
MS.158         	11.427         	11.255
MS.159         	11.405         	11.263
MS.160         	11.382         	11.199
MS.161         	11.36          	11.249
MS.162         	11.337         	11.257
MS.163         	11.315         	11.249
MS.164         	11.292         	11.245
MS.165         	11.27          	11.307
MS.166         	11.247         	11.279
MS.167         	11.225         	10.812
MS.168         	11.202         	11.227
MS.169         	11.18          	11.205
MS.170         	11.157         	10.725
MS.171         	11.135         	10.774
MS.172         	11.113         	11.209
MS.173         	11.09          	10.657
MS.174         	11.068         	10.262
MS.175         	11.045         	10.766
MS.176         	11.023         	10.683
MS.177         	11.002         	10.325
MS.178         	10.98          	10.822
MS.179         	10.957         	11.239
MS.180         	10.935         	10.844
MS.181         	10.915         	9.72
MS.182         	10.892         	10.315
MS.183         	10.87          	9.817
MS.184         	10.847         	10.79
MS.185         	10.827         	9.819
MS.186         	10.805         	10.405
MS.187         	10.785         	10.335
MS.188         	10.762         	10.339
MS.189         	10.74          	9.783
MS.190         	10.72          	10.256
MS.191         	10.698         	10.335
MS.192         	10.677         	9.771
MS.193         	10.655         	9.759
MS.194         	10.635         	10.339
MS.195         	10.613         	10.369
MS.196         	10.592         	10.343
MS.197         	10.57          	9.765
MS.198         	10.55          	9.676
MS.199         	10.528         	10.363
MS.200         	10.507         	9.696
MS.201         	10.485         	10.361
MS.202         	10.465         	9.793
MS.203         	10.445         	9.734
MS.204         	10.422         	9.628
MS.205         	10.403         	9.755
MS.206         	10.382         	9.569
MS.207         	10.36          	9.67
MS.208         	10.34          	9.382
MS.209         	10.32          	9.591
MS.210         	10.3           	9.622
MS.211         	10.278         	9.599
MS.212         	10.257         	9.541
MS.213         	10.238         	9.44
MS.214         	10.217         	9.595
MS.215         	10.198         	9.275
MS.216         	10.175         	9.16
MS.217         	10.155         	9.412
MS.218         	10.135         	9.759
MS.219         	10.115         	9.368
MS.220         	10.095         	9.118
MS.221         	10.075         	9.336
MS.222         	10.055         	9.08
MS.223         	10.035         	9.086
MS.224         	10.015         	9.112
MS.225         	9.995          	9.404
MS.226         	9.975          	8.901
MS.227         	9.955          	9.11
MS.228         	9.935          	8.838
MS.229         	9.915          	8.554
MS.230         	9.895          	8.897
MS.231         	9.875          	9.019
MS.232         	9.855          	8.876
MS.233         	9.835          	8.663
MS.234         	9.818          	8.637
MS.235         	9.797          	8.52
MS.236         	9.778          	8.685
MS.237         	9.757          	7.775
MS.238         	9.738          	7.688
MS.239         	9.717          	7.73
MS.240         	9.7            	8.032
MS.241         	9.68           	7.154
MS.242         	9.66           	7.311
MS.243         	9.64           	8.163
MS.244         	9.622          	7.456
MS.245         	9.602          	7.138
MS.246         	9.582          	7.672
MS.247         	9.565          	7.328
MS.248         	9.545          	7.249
MS.249         	9.525          	7.658
MS.250         	9.507          	6.54
MS.251         	9.488          	6.886
MS.252         	9.47           	7.052
MS.253         	9.45           	6.51
MS.254         	9.432          	6.486
MS.255         	9.412          	6.083
MS.256         	9.395          	6.177
MS.257         	9.375          	6.582
MS.258         	9.358          	6.312
MS.259         	9.337          	6.314
MS.260         	9.32           	5.861
MS.261         	9.3            	6.228
MS.262         	9.283          	6.115
MS.263         	9.262          	5.835
MS.264         	9.245          	5.992
MS.265         	9.225          	5.658
MS.266         	9.207          	5.66
MS.267         	9.19           	5.551
MS.268         	9.17           	5.545
MS.269         	9.153          	5.499
MS.270         	9.135          	5.483
MS.271         	9.115          	5.406
MS.272         	9.097          	5.418
MS.273         	9.08           	5.497
MS.274         	9.062          	5.402
MS.275         	9.042          	5.404
MS.276         	9.025          	5.164
MS.277         	9.007          	5.182
MS.278         	8.99           	4.999
MS.279         	8.972          	5.072
MS.280         	8.952          	5.025
MS.281         	8.935          	4.939
MS.282         	8.917          	5.193
MS.283         	8.9            	5.096
MS.284         	8.882          	4.965
MS.285         	8.865          	4.979
MS.286         	8.847          	5.148
MS.287         	8.83           	4.81
MS.288         	8.812          	4.872
MS.289         	8.795          	4.679
MS.290         	8.775          	4.844
MS.291         	8.757          	4.838
MS.292         	8.74           	4.574
MS.293         	8.722          	4.387
MS.294         	8.707          	4.198
MS.295         	8.69           	4.145
MS.296         	8.672          	4.572
MS.297         	8.655          	4.065
MS.298         	8.637          	4.425
MS.299         	8.62           	4.457
MS.300         	8.602          	4.131
MS.301         	8.585          	4.083
MS.302         	8.568          	3.549
MS.303         	8.55           	3.748
MS.304         	8.535          	3.7
MS.305         	8.517          	3.666
MS.306         	8.5            	3.666
MS.307         	8.483          	3.609
MS.308         	8.465          	3.597
MS.309         	8.45           	3.035
MS.310         	8.432          	2.663
MS.311         	8.415          	2.576
MS.312         	8.398          	2.959
MS.313         	8.382          	2.985
MS.314         	8.365          	3.156
MS.315         	8.347          	2.651
MS.316         	8.332          	2.447
MS.317         	8.315          	2.308
MS.318         	8.297          	2.29
MS.319         	8.283          	2.355
MS.320         	8.265          	1.915
MS.321         	8.247          	2.028
MS.322         	8.233          	1.803
MS.323         	8.215          	1.992
MS.324         	8.2            	2.139
MS.325         	8.182          	1.728
MS.326         	8.167          	1.706
MS.327         	8.15           	2.113
MS.328         	8.135          	1.69
MS.329         	8.117          	1.905
MS.330         	8.102          	1.984
MS.331         	8.085          	1.583
MS.332         	8.07           	1.507
MS.333         	8.052          	1.227
MS.334         	8.037          	1.237
MS.335         	8.02           	1.388
MS.336         	8.005          	1.392
MS.337         	7.99           	1.718
MS.338         	7.972          	1.352
MS.339         	7.957          	1.285
MS.340         	7.94           	1.156
MS.341         	7.925          	1.293
MS.342         	7.91           	1.265
MS.343         	7.892          	1.114
MS.344         	7.878          	1.027
MS.345         	7.862          	1.057
MS.346         	7.847          	1.118
MS.347         	7.83           	0.87
MS.348         	7.815          	0.953
MS.349         	7.8            	0.657
MS.350         	7.785          	0.796
MS.351         	7.767          	0.786
MS.352         	7.753          	0.8
MS.353         	7.737          	0.806
MS.354         	7.722          	0.727
MS.355         	7.707          	0.578
MS.356         	7.69           	0.437
MS.357         	7.675          	0.459
MS.358         	7.66           	0.554
MS.359         	7.645          	0.576
MS.360         	7.63           	0.703
MS.361         	7.615          	0.471
MS.362         	7.6            	0.552
MS.363         	7.585          	0.763
MS.364         	7.57           	0.461
MS.365         	7.555          	0.228
MS.366         	7.537          	0.193
MS.367         	7.523          	0.467
MS.368         	7.507          	0.207
MS.369         	7.492          	0.103
MS.370         	7.477          	0.437
MS.371         	7.462          	0.218
MS.372         	7.447          	0.228
MS.373         	7.435          	0.105
MS.374         	7.42           	0.131
MS.375         	7.405          	0.135
MS.376         	7.39           	0.099
MS.377         	7.375          	0.252
MS.378         	7.36           	0.101
MS.379         	7.345          	0.089
MS.380         	7.33           	0.105
MS.381         	7.315          	0.423
MS.382         	7.302          	0.089
MS.383         	7.287          	0.093
MS.384         	7.273          	0.091
MS.385         	7.257          	0.091
MS.386         	7.242          	0.101
MS.387         	7.227          	0.097
MS.388         	7.215          	0.089
MS.389         	7.2            	0.091
MS.390         	7.185          	0.093
MS.391         	7.17           	0.095
MS.392         	7.157          	0.091
MS.393         	7.142          	0.093
MS.394         	7.128          	0.038
MS.395         	7.115          	0.091
MS.396         	7.1            	0.091
MS.397         	7.085          	0.091
MS.398         	7.072          	0.091
MS.399         	7.057          	0.089
MS.400         	7.043          	0.034
MS.401         	7.03           	0.038
MS.402         	7.015          	0.034
MS.403         	7              	0.093
MS.404         	6.987          	0.095
MS.405         	6.972          	0.038
MS.406         	6.96           	0.093
MS.407         	6.945          	0.095
MS.408         	6.932          	0.036
MS.409         	6.918          	0.091
MS.410         	6.902          	0.095
MS.411         	6.89           	0.038
MS.412         	6.875          	0.036
MS.413         	6.862          	0.036
MS.414         	6.847          	0.036
MS.415         	6.835          	0.093
MS.416         	6.822          	0.032
MS.417         	6.807          	0.034
MS.418         	6.795          	0.034
MS.419         	6.78           	0.038
MS.420         	6.767          	0.036
MS.421         	6.753          	0.038
MS.422         	6.74           	0.032
MS.423         	6.727          	0.038
MS.424         	6.712          	0.04
MS.425         	6.7            	0.042
MS.426         	6.685          	0.034
MS.427         	6.672          	0.034
MS.428         	6.66           	0.034
MS.429         	6.645          	0.042
MS.430         	6.632          	0.032
MS.431         	6.62           	0.034
MS.432         	6.608          	0.091
MS.433         	6.592          	0.038
MS.434         	6.58           	0.036
MS.435         	6.567          	0.036
MS.436         	6.555          	0.038
MS.437         	6.54           	0.038
MS.438         	6.527          	0.034
MS.439         	6.515          	0.034
MS.440         	6.503          	0.036
MS.441         	6.487          	0.038
MS.442         	6.475          	0.038
MS.443         	6.462          	0.034
MS.444         	6.45           	0.034
MS.445         	6.438          	0.038
MS.446         	6.425          	0.036
MS.447         	6.41           	0.036
MS.448         	6.398          	0.046
MS.449         	6.385          	0.034
MS.450         	6.372          	0.036
MS.451         	6.36           	0.038
MS.452         	6.347          	0.038
MS.453         	6.335          	0.032
MS.454         	6.322          	0.032
MS.455         	6.31           	0.038
MS.456         	6.297          	0.036
MS.457         	6.285          	0.04
MS.458         	6.273          	0.034
MS.459         	6.26           	0.04
MS.460         	6.247          	0.038
MS.461         	6.235          	0.036
MS.462         	6.222          	0.04
MS.463         	6.21           	0.036
MS.464         	6.197          	0.036
MS.465         	6.185          	0.038
MS.466         	6.172          	0.04
MS.467         	6.16           	0.034
MS.468         	6.148          	0.038
MS.469         	6.135          	0.034
MS.470         	6.122          	0.04
MS.471         	6.11           	0.034
MS.472         	6.097          	0.046
MS.473         	6.088          	0.036
MS.474         	6.075          	0.04
MS.475         	6.062          	0.016
MS.476         	6.05           	0.036
MS.477         	6.037          	0.038
MS.478         	6.025          	0.02
MS.479         	6.012          	0.034
DERIVED EXCITABILITY VARIABLES
Program = QTracP 9/10/2021
Threshold method = 6 (optimised for CAP, using data for present condition only)
SR method = 1 (using actual data values)
6.                 	0.000               	Peak response\(mV)
9.                 	33                  	Temperature ( C)
17.                	21                  	Age (years)
18.                	2                   	Sex (M=1, F=2)

EXTRA VARIABLES

MScPeak(mV) = 11.21
MScS5(mA) = 7.63
MScS50(mA) = 9.2
MScS95(mA) = 10.97
MScNSteps = 5
MScSteps(%) = 15.1
MScStepMax(%) = 3.9
MScD50 = 31
MScSlope = 6.7
MScDuration(min) = 4.3
MSFTraces = 409
MSFPeakAmp(mV) = 11.5
MSFNUnits = 89
