File:              	C:\Qtrac\Data\Daniel M Sørensen\MScan multicentre study\Data from centres\Aarhus\Processed data\DMSC00921C.QZD
Name:              	DK.AAR.NC.10.1
Protocol:          	MSCAN-R2
Date:              	21/9/20
Start time:        	14:47:42
Age:               	70
Sex:               	m
Temperature:       	35,6
S/R sites:         	TA
NC/disease:        	NC
Operator:          	DS
Comments:
M-SCAN DATA (2.3-0.0m)
Scanpts: 7, 20, 734, 751
Stim. (mA)     	Amp. (mV)
MS.1           	38.5           	5.146
MS.2           	38.5           	5.13
MS.3           	38.345         	5.142
MS.4           	38.27          	5.122
MS.5           	38.192         	5.092
MS.6           	38.118         	5.116
MS.7           	38.04          	5.102
MS.8           	37.965         	5.094
MS.9           	37.89          	5.114
MS.10          	37.812         	5.138
MS.11          	37.737         	5.156
MS.12          	37.662         	5.019
MS.13          	37.587         	5.142
MS.14          	37.513         	5.112
MS.15          	37.438         	5.138
MS.16          	37.362         	5.114
MS.17          	37.287         	5.128
MS.18          	37.212         	5.112
MS.19          	37.138         	5.108
MS.20          	37.065         	5.092
MS.21          	36.99          	5.106
MS.22          	36.917         	5.112
MS.23          	36.842         	5.066
MS.24          	36.77          	5.08
MS.25          	36.695         	5.072
MS.26          	36.622         	5.08
MS.27          	36.55          	5.082
MS.28          	36.475         	5.142
MS.29          	36.403         	5.122
MS.30          	36.33          	5.096
MS.31          	36.257         	5.166
MS.32          	36.185         	5.162
MS.33          	36.112         	5.1
MS.34          	36.04          	5.13
MS.35          	35.97          	5.074
MS.36          	35.897         	5.092
MS.37          	35.825         	5.098
MS.38          	35.752         	5.084
MS.39          	35.682         	5.186
MS.40          	35.61          	5.186
MS.41          	35.54          	5.164
MS.42          	35.47          	5.152
MS.43          	35.397         	5.076
MS.44          	35.327         	5.138
MS.45          	35.257         	5.124
MS.46          	35.185         	5.205
MS.47          	35.115         	5.14
MS.48          	35.045         	5.104
MS.49          	34.975         	5.164
MS.50          	34.905         	5.064
MS.51          	34.835         	5.154
MS.52          	34.767         	5.122
MS.53          	34.697         	5.104
MS.54          	34.627         	5.217
MS.55          	34.557         	5.15
MS.56          	34.49          	5.116
MS.57          	34.42          	5.098
MS.58          	34.353         	5.13
MS.59          	34.282         	5.11
MS.60          	34.215         	5.015
MS.61          	34.147         	5.114
MS.62          	34.077         	5.033
MS.63          	34.01          	5.078
MS.64          	33.943         	4.84
MS.65          	33.875         	4.876
MS.66          	33.807         	4.743
MS.67          	33.74          	4.892
MS.68          	33.673         	4.808
MS.69          	33.605         	4.77
MS.70          	33.537         	4.876
MS.71          	33.47          	4.838
MS.72          	33.403         	4.681
MS.73          	33.337         	4.733
MS.74          	33.27          	4.731
MS.75          	33.202         	4.661
MS.76          	33.138         	4.713
MS.77          	33.07          	4.858
MS.78          	33.005         	4.671
MS.79          	32.94          	4.596
MS.80          	32.872         	4.669
MS.81          	32.807         	4.637
MS.82          	32.743         	4.681
MS.83          	32.677         	4.544
MS.84          	32.61          	4.689
MS.85          	32.545         	4.6
MS.86          	32.48          	4.56
MS.87          	32.415         	4.62
MS.88          	32.353         	4.622
MS.89          	32.287         	4.566
MS.90          	32.222         	4.56
MS.91          	32.157         	4.679
MS.92          	32.092         	4.641
MS.93          	32.03          	4.671
MS.94          	31.965         	4.518
MS.95          	31.903         	4.526
MS.96          	31.837         	4.482
MS.97          	31.775         	4.502
MS.98          	31.71          	4.5
MS.99          	31.647         	4.524
MS.100         	31.585         	4.54
MS.101         	31.52          	4.443
MS.102         	31.457         	4.516
MS.103         	31.395         	4.488
MS.104         	31.332         	4.469
MS.105         	31.27          	4.528
MS.106         	31.207         	4.49
MS.107         	31.145         	4.53
MS.108         	31.082         	4.488
MS.109         	31.02          	4.52
MS.110         	30.957         	4.471
MS.111         	30.897         	4.506
MS.112         	30.835         	4.469
MS.113         	30.772         	4.552
MS.114         	30.712         	4.494
MS.115         	30.65          	4.498
MS.116         	30.59          	4.405
MS.117         	30.528         	4.445
MS.118         	30.467         	4.486
MS.119         	30.407         	4.469
MS.120         	30.345         	4.451
MS.121         	30.285         	4.477
MS.122         	30.225         	4.498
MS.123         	30.165         	4.427
MS.124         	30.105         	4.413
MS.125         	30.042         	4.326
MS.126         	29.983         	4.32
MS.127         	29.925         	4.355
MS.128         	29.865         	4.433
MS.129         	29.805         	4.304
MS.130         	29.745         	4.216
MS.131         	29.685         	4.22
MS.132         	29.625         	4.276
MS.133         	29.567         	4.369
MS.134         	29.507         	4.234
MS.135         	29.45          	4.244
MS.136         	29.39          	4.258
MS.137         	29.332         	4.339
MS.138         	29.272         	4.218
MS.139         	29.215         	4.22
MS.140         	29.155         	4.22
MS.141         	29.097         	4.262
MS.142         	29.04          	4.204
MS.143         	28.983         	4.169
MS.144         	28.922         	4.216
MS.145         	28.865         	4.218
MS.146         	28.807         	4.202
MS.147         	28.75          	4.226
MS.148         	28.692         	4.232
MS.149         	28.635         	4.258
MS.150         	28.577         	4.238
MS.151         	28.522         	4.198
MS.152         	28.465         	4.189
MS.153         	28.407         	4.218
MS.154         	28.35          	4.238
MS.155         	28.295         	4.232
MS.156         	28.237         	4.222
MS.157         	28.18          	4.214
MS.158         	28.125         	4.169
MS.159         	28.067         	4.191
MS.160         	28.012         	4.109
MS.161         	27.957         	4.206
MS.162         	27.9           	4.173
MS.163         	27.845         	4.147
MS.164         	27.79          	4.175
MS.165         	27.735         	4.202
MS.166         	27.677         	4.111
MS.167         	27.622         	4.163
MS.168         	27.567         	4.218
MS.169         	27.512         	4.159
MS.170         	27.457         	4.149
MS.171         	27.403         	4.063
MS.172         	27.347         	4.085
MS.173         	27.292         	4.046
MS.174         	27.24          	4.085
MS.175         	27.185         	4.127
MS.176         	27.13          	4.038
MS.177         	27.075         	4.111
MS.178         	27.022         	4.151
MS.179         	26.967         	4.111
MS.180         	26.915         	4.032
MS.181         	26.86          	4.059
MS.182         	26.807         	4.061
MS.183         	26.752         	4.069
MS.184         	26.7           	4.008
MS.185         	26.647         	3.964
MS.186         	26.592         	4.069
MS.187         	26.54          	4.069
MS.188         	26.487         	4
MS.189         	26.435         	3.984
MS.190         	26.382         	4.016
MS.191         	26.327         	3.942
MS.192         	26.275         	3.97
MS.193         	26.222         	3.817
MS.194         	26.17          	3.998
MS.195         	26.12          	3.95
MS.196         	26.067         	3.964
MS.197         	26.015         	3.883
MS.198         	25.962         	3.911
MS.199         	25.91          	3.889
MS.200         	25.86          	3.801
MS.201         	25.807         	3.827
MS.202         	25.755         	3.762
MS.203         	25.705         	3.825
MS.204         	25.653         	3.652
MS.205         	25.602         	3.738
MS.206         	25.55          	3.781
MS.207         	25.5           	3.821
MS.208         	25.448         	3.754
MS.209         	25.397         	3.712
MS.210         	25.347         	3.621
MS.211         	25.295         	3.716
MS.212         	25.245         	3.702
MS.213         	25.195         	3.706
MS.214         	25.145         	3.67
MS.215         	25.095         	3.577
MS.216         	25.045         	3.517
MS.217         	24.995         	3.565
MS.218         	24.945         	3.424
MS.219         	24.895         	3.44
MS.220         	24.845         	3.378
MS.221         	24.795         	3.497
MS.222         	24.745         	3.436
MS.223         	24.698         	3.436
MS.224         	24.647         	3.38
MS.225         	24.597         	3.432
MS.226         	24.547         	3.384
MS.227         	24.5           	3.275
MS.228         	24.45          	3.243
MS.229         	24.403         	3.555
MS.230         	24.352         	3.325
MS.231         	24.305         	3.386
MS.232         	24.255         	3.207
MS.233         	24.207         	3.335
MS.234         	24.16          	3.213
MS.235         	24.11          	3.418
MS.236         	24.062         	3.164
MS.237         	24.015         	3.186
MS.238         	23.967         	3.164
MS.239         	23.917         	3.273
MS.240         	23.87          	3.241
MS.241         	23.823         	3.215
MS.242         	23.775         	3.237
MS.243         	23.727         	3.17
MS.244         	23.68          	3.188
MS.245         	23.632         	3.108
MS.246         	23.585         	3.096
MS.247         	23.54          	3.102
MS.248         	23.493         	2.961
MS.249         	23.445         	3.08
MS.250         	23.397         	3.017
MS.251         	23.352         	3.037
MS.252         	23.305         	3.035
MS.253         	23.257         	2.959
MS.254         	23.212         	2.969
MS.255         	23.165         	2.995
MS.256         	23.12          	2.906
MS.257         	23.073         	3.007
MS.258         	23.028         	3.019
MS.259         	22.98          	3.027
MS.260         	22.935         	2.945
MS.261         	22.89          	2.949
MS.262         	22.842         	2.945
MS.263         	22.797         	2.886
MS.264         	22.752         	2.846
MS.265         	22.707         	2.862
MS.266         	22.66          	2.892
MS.267         	22.615         	2.842
MS.268         	22.57          	2.784
MS.269         	22.525         	2.896
MS.270         	22.48          	2.969
MS.271         	22.435         	2.854
MS.272         	22.39          	2.88
MS.273         	22.345         	2.8
MS.274         	22.302         	2.79
MS.275         	22.257         	2.84
MS.276         	22.212         	2.786
MS.277         	22.167         	2.747
MS.278         	22.125         	2.663
MS.279         	22.08          	2.773
MS.280         	22.035         	2.82
MS.281         	21.993         	2.683
MS.282         	21.948         	2.695
MS.283         	21.903         	2.715
MS.284         	21.86          	2.651
MS.285         	21.815         	2.628
MS.286         	21.772         	2.641
MS.287         	21.73          	2.695
MS.288         	21.685         	2.562
MS.289         	21.642         	2.465
MS.290         	21.6           	2.588
MS.291         	21.555         	2.572
MS.292         	21.512         	2.63
MS.293         	21.47          	2.556
MS.294         	21.427         	2.566
MS.295         	21.385         	2.566
MS.296         	21.342         	2.481
MS.297         	21.3           	2.554
MS.298         	21.257         	2.451
MS.299         	21.215         	2.441
MS.300         	21.172         	2.435
MS.301         	21.13          	2.56
MS.302         	21.087         	2.429
MS.303         	21.045         	2.433
MS.304         	21.002         	2.473
MS.305         	20.96          	2.423
MS.306         	20.92          	2.24
MS.307         	20.877         	2.302
MS.308         	20.835         	2.284
MS.309         	20.795         	2.22
MS.310         	20.752         	2.062
MS.311         	20.71          	2.312
MS.312         	20.67          	2.262
MS.313         	20.627         	2.175
MS.314         	20.587         	2.222
MS.315         	20.545         	2.014
MS.316         	20.505         	2.048
MS.317         	20.462         	2.22
MS.318         	20.422         	2.087
MS.319         	20.382         	1.984
MS.320         	20.342         	2.123
MS.321         	20.3           	1.962
MS.322         	20.26          	1.944
MS.323         	20.22          	2.099
MS.324         	20.18          	2.006
MS.325         	20.14          	1.958
MS.326         	20.097         	1.823
MS.327         	20.057         	1.849
MS.328         	20.017         	1.799
MS.329         	19.977         	1.968
MS.330         	19.938         	1.831
MS.331         	19.897         	1.708
MS.332         	19.86          	1.883
MS.333         	19.82          	1.926
MS.334         	19.78          	1.768
MS.335         	19.74          	1.905
MS.336         	19.7           	1.787
MS.337         	19.663         	1.77
MS.338         	19.622         	1.492
MS.339         	19.583         	1.779
MS.340         	19.542         	1.728
MS.341         	19.505         	1.734
MS.342         	19.465         	1.543
MS.343         	19.427         	1.402
MS.344         	19.387         	1.793
MS.345         	19.35          	1.611
MS.346         	19.31          	1.486
MS.347         	19.272         	1.517
MS.348         	19.233         	1.388
MS.349         	19.195         	1.42
MS.350         	19.157         	1.569
MS.351         	19.118         	1.394
MS.352         	19.08          	1.44
MS.353         	19.042         	1.307
MS.354         	19.005         	1.386
MS.355         	18.965         	1.257
MS.356         	18.927         	1.364
MS.357         	18.89          	1.36
MS.358         	18.852         	1.297
MS.359         	18.815         	1.349
MS.360         	18.778         	1.352
MS.361         	18.74          	1.418
MS.362         	18.702         	1.345
MS.363         	18.665         	1.134
MS.364         	18.628         	1.261
MS.365         	18.59          	1.341
MS.366         	18.552         	1.263
MS.367         	18.517         	1.259
MS.368         	18.48          	1.291
MS.369         	18.442         	1.124
MS.370         	18.405         	1.265
MS.371         	18.37          	1.14
MS.372         	18.333         	1.104
MS.373         	18.295         	1.305
MS.374         	18.26          	1.039
MS.375         	18.222         	1.128
MS.376         	18.185         	1.126
MS.377         	18.15          	1.1
MS.378         	18.112         	1.154
MS.379         	18.077         	1.051
MS.380         	18.04          	1.14
MS.381         	18.005         	1.102
MS.382         	17.97          	1.082
MS.383         	17.932         	1.164
MS.384         	17.897         	1.098
MS.385         	17.862         	1.094
MS.386         	17.825         	1.146
MS.387         	17.79          	1.055
MS.388         	17.755         	1.057
MS.389         	17.72          	1.031
MS.390         	17.685         	1.051
MS.391         	17.647         	1.1
MS.392         	17.612         	1.025
MS.393         	17.577         	1.07
MS.394         	17.542         	1.033
MS.395         	17.507         	0.961
MS.396         	17.472         	1.003
MS.397         	17.438         	0.971
MS.398         	17.403         	0.937
MS.399         	17.368         	1.068
MS.400         	17.333         	1.003
MS.401         	17.3           	0.937
MS.402         	17.265         	0.91
MS.403         	17.23          	0.866
MS.404         	17.195         	0.967
MS.405         	17.163         	0.963
MS.406         	17.128         	0.781
MS.407         	17.092         	0.922
MS.408         	17.057         	0.953
MS.409         	17.025         	0.927
MS.410         	16.99          	0.854
MS.411         	16.958         	0.989
MS.412         	16.922         	0.904
MS.413         	16.89          	0.91
MS.414         	16.855         	0.906
MS.415         	16.823         	0.908
MS.416         	16.788         	0.743
MS.417         	16.755         	0.81
MS.418         	16.72          	0.933
MS.419         	16.688         	0.777
MS.420         	16.655         	0.707
MS.421         	16.62          	0.763
MS.422         	16.587         	0.832
MS.423         	16.555         	0.866
MS.424         	16.522         	0.816
MS.425         	16.487         	0.777
MS.426         	16.455         	0.822
MS.427         	16.422         	0.822
MS.428         	16.39          	0.812
MS.429         	16.358         	0.792
MS.430         	16.325         	0.781
MS.431         	16.292         	0.836
MS.432         	16.26          	0.769
MS.433         	16.227         	0.771
MS.434         	16.195         	0.784
MS.435         	16.163         	0.794
MS.436         	16.13          	0.721
MS.437         	16.097         	0.687
MS.438         	16.065         	0.788
MS.439         	16.032         	0.804
MS.440         	16             	0.773
MS.441         	15.97          	0.703
MS.442         	15.938         	0.711
MS.443         	15.905         	0.691
MS.444         	15.872         	0.749
MS.445         	15.842         	0.679
MS.446         	15.81          	0.709
MS.447         	15.777         	0.691
MS.448         	15.747         	0.723
MS.449         	15.715         	0.659
MS.450         	15.685         	0.673
MS.451         	15.652         	0.735
MS.452         	15.622         	0.703
MS.453         	15.59          	0.691
MS.454         	15.56          	0.739
MS.455         	15.527         	0.691
MS.456         	15.497         	0.685
MS.457         	15.465         	0.669
MS.458         	15.435         	0.667
MS.459         	15.405         	0.618
MS.460         	15.372         	0.643
MS.461         	15.342         	0.647
MS.462         	15.312         	0.677
MS.463         	15.282         	0.683
MS.464         	15.25          	0.659
MS.465         	15.22          	0.661
MS.466         	15.19          	0.649
MS.467         	15.16          	0.655
MS.468         	15.13          	0.651
MS.469         	15.1           	0.636
MS.470         	15.07          	0.554
MS.471         	15.04          	0.622
MS.472         	15.01          	0.53
MS.473         	14.98          	0.61
MS.474         	14.95          	0.618
MS.475         	14.92          	0.645
MS.476         	14.89          	0.588
MS.477         	14.86          	0.548
MS.478         	14.83          	0.576
MS.479         	14.8           	0.558
MS.480         	14.77          	0.457
MS.481         	14.742         	0.459
MS.482         	14.712         	0.471
MS.483         	14.682         	0.506
MS.484         	14.652         	0.504
MS.485         	14.625         	0.459
MS.486         	14.595         	0.431
MS.487         	14.565         	0.449
MS.488         	14.537         	0.518
MS.489         	14.507         	0.413
MS.490         	14.477         	0.445
MS.491         	14.45          	0.471
MS.492         	14.42          	0.437
MS.493         	14.392         	0.405
MS.494         	14.362         	0.391
MS.495         	14.335         	0.391
MS.496         	14.305         	0.403
MS.497         	14.278         	0.387
MS.498         	14.247         	0.387
MS.499         	14.22          	0.375
MS.500         	14.193         	0.409
MS.501         	14.162         	0.371
