File:              	C:\Qtrac\Data\Daniel M Sørensen\MScan multicentre study\Data from centres\Aarhus\Processed data\DMSC00130C.QZD
Name:              	DK.AAR.NC.2.1
Protocol:          	MSCAN-R2
Date:              	30/1/20
Start time:        	13:14:09
Age:               	35
Sex:               	f
Temperature:       	33,5
S/R sites:         	TA
NC/disease:        	Control
Operator:          	DS
Comments:
M-SCAN DATA (10.8-3.5m)
Scanpts: 20, 31, 750, 770
Stim. (mA)     	Amp. (mV)
MS.1           	30             	5.553
MS.2           	30             	5.545
MS.3           	30             	5.515
MS.4           	30             	5.491
MS.5           	30             	5.521
MS.6           	30             	5.537
MS.7           	30             	5.481
MS.8           	30             	5.523
MS.9           	30             	5.515
MS.10          	30             	5.527
MS.11          	30             	5.495
MS.12          	30             	5.483
MS.13          	30             	5.529
MS.14          	30             	5.491
MS.15          	30             	5.539
MS.16          	30             	5.523
MS.17          	30             	5.531
MS.18          	30             	5.495
MS.19          	30             	5.505
MS.20          	30             	5.569
MS.21          	30             	5.535
MS.22          	30             	5.537
MS.23          	30             	5.557
MS.24          	29.88          	5.547
MS.25          	29.82          	5.559
MS.26          	29.76          	5.539
MS.27          	29.702         	5.541
MS.28          	29.642         	5.525
MS.29          	29.582         	5.535
MS.30          	29.522         	5.521
MS.31          	29.465         	5.549
MS.32          	29.405         	5.561
MS.33          	29.347         	5.555
MS.34          	29.287         	5.559
MS.35          	29.23          	5.483
MS.36          	29.172         	5.533
MS.37          	29.112         	5.543
MS.38          	29.055         	5.543
MS.39          	28.997         	5.499
MS.40          	28.94          	5.509
MS.41          	28.882         	5.557
MS.42          	28.823         	5.537
MS.43          	28.765         	5.529
MS.44          	28.707         	5.503
MS.45          	28.65          	5.523
MS.46          	28.595         	5.527
MS.47          	28.537         	5.521
MS.48          	28.48          	5.487
MS.49          	28.422         	5.537
MS.50          	28.365         	5.505
MS.51          	28.31          	5.505
MS.52          	28.252         	5.531
MS.53          	28.198         	5.513
MS.54          	28.14          	5.501
MS.55          	28.085         	5.489
MS.56          	28.028         	5.515
MS.57          	27.972         	5.497
MS.58          	27.915         	5.477
MS.59          	27.86          	5.521
MS.60          	27.805         	5.499
MS.61          	27.75          	5.487
MS.62          	27.692         	5.497
MS.63          	27.637         	5.462
MS.64          	27.582         	5.481
MS.65          	27.528         	5.565
MS.66          	27.472         	5.481
MS.67          	27.417         	5.446
MS.68          	27.362         	5.448
MS.69          	27.307         	5.472
MS.70          	27.255         	5.501
MS.71          	27.2           	5.477
MS.72          	27.145         	5.432
MS.73          	27.09          	5.462
MS.74          	27.037         	5.442
MS.75          	26.983         	5.487
MS.76          	26.927         	5.454
MS.77          	26.875         	5.414
MS.78          	26.82          	5.392
MS.79          	26.767         	5.378
MS.80          	26.715         	5.44
MS.81          	26.66          	5.329
MS.82          	26.608         	5.295
MS.83          	26.555         	5.247
MS.84          	26.502         	5.285
MS.85          	26.448         	5.271
MS.86          	26.395         	5.289
MS.87          	26.342         	5.271
MS.88          	26.29          	5.275
MS.89          	26.237         	5.295
MS.90          	26.185         	5.253
MS.91          	26.132         	5.265
MS.92          	26.08          	5.255
MS.93          	26.028         	5.245
MS.94          	25.977         	5.285
MS.95          	25.925         	5.261
MS.96          	25.872         	5.277
MS.97          	25.82          	5.287
MS.98          	25.77          	5.229
MS.99          	25.717         	5.197
MS.100         	25.667         	5.225
MS.101         	25.615         	5.291
MS.102         	25.565         	5.227
MS.103         	25.512         	5.205
MS.104         	25.462         	5.205
MS.105         	25.413         	5.203
MS.106         	25.36          	5.223
MS.107         	25.31          	5.203
MS.108         	25.26          	5.219
MS.109         	25.21          	5.213
MS.110         	25.157         	5.239
MS.111         	25.108         	5.174
MS.112         	25.057         	5.184
MS.113         	25.007         	5.209
MS.114         	24.957         	5.201
MS.115         	24.907         	5.209
MS.116         	24.858         	5.18
MS.117         	24.807         	5.225
MS.118         	24.76          	5.148
MS.119         	24.71          	5.188
MS.120         	24.66          	5.17
MS.121         	24.61          	5.17
MS.122         	24.562         	5.188
MS.123         	24.512         	5.186
MS.124         	24.465         	5.156
MS.125         	24.415         	5.184
MS.126         	24.365         	5.138
MS.127         	24.317         	5.136
MS.128         	24.27          	5.154
MS.129         	24.22          	5.13
MS.130         	24.172         	5.152
MS.131         	24.122         	5.162
MS.132         	24.075         	5.168
MS.133         	24.028         	5.122
MS.134         	23.98          	5.174
MS.135         	23.932         	5.15
MS.136         	23.882         	5.154
MS.137         	23.835         	5.098
MS.138         	23.788         	5.114
MS.139         	23.74          	5.182
MS.140         	23.692         	5.132
MS.141         	23.645         	5.124
MS.142         	23.597         	5.08
MS.143         	23.552         	5.08
MS.144         	23.505         	5.126
MS.145         	23.457         	5.104
MS.146         	23.41          	5.106
MS.147         	23.365         	5.06
MS.148         	23.317         	5.088
MS.149         	23.27          	5.086
MS.150         	23.225         	5.09
MS.151         	23.177         	5.084
MS.152         	23.132         	5.116
MS.153         	23.085         	5.06
MS.154         	23.04          	5.074
MS.155         	22.993         	5.07
MS.156         	22.948         	5.039
MS.157         	22.903         	5.06
MS.158         	22.855         	5.062
MS.159         	22.81          	5.031
MS.160         	22.765         	5.07
MS.161         	22.72          	5.041
MS.162         	22.672         	5.047
MS.163         	22.627         	5.039
MS.164         	22.582         	5.003
MS.165         	22.538         	5.033
MS.166         	22.493         	5.003
MS.167         	22.448         	4.991
MS.168         	22.403         	5.015
MS.169         	22.358         	4.993
MS.170         	22.312         	4.997
MS.171         	22.27          	5.003
MS.172         	22.225         	4.949
MS.173         	22.18          	5.009
MS.174         	22.135         	4.983
MS.175         	22.092         	4.981
MS.176         	22.047         	4.993
MS.177         	22.002         	4.955
MS.178         	21.96          	4.987
MS.179         	21.915         	4.969
MS.180         	21.872         	4.975
MS.181         	21.827         	4.939
MS.182         	21.785         	4.997
MS.183         	21.74          	4.909
MS.184         	21.698         	4.9
MS.185         	21.655         	4.967
MS.186         	21.61          	4.929
MS.187         	21.567         	4.961
MS.188         	21.525         	4.862
MS.189         	21.483         	4.872
MS.190         	21.438         	4.937
MS.191         	21.395         	4.941
MS.192         	21.352         	4.911
MS.193         	21.31          	4.951
MS.194         	21.267         	4.941
MS.195         	21.225         	4.852
MS.196         	21.182         	4.89
MS.197         	21.14          	4.836
MS.198         	21.097         	4.884
MS.199         	21.055         	4.846
MS.200         	21.015         	4.89
MS.201         	20.972         	4.806
MS.202         	20.93          	4.78
MS.203         	20.887         	4.858
MS.204         	20.847         	4.802
MS.205         	20.805         	4.788
MS.206         	20.762         	4.822
MS.207         	20.722         	4.774
MS.208         	20.68          	4.856
MS.209         	20.64          	4.79
MS.210         	20.597         	4.763
MS.211         	20.557         	4.739
MS.212         	20.515         	4.858
MS.213         	20.475         	4.794
MS.214         	20.435         	4.77
MS.215         	20.392         	4.669
MS.216         	20.352         	4.806
MS.217         	20.312         	4.739
MS.218         	20.27          	4.711
MS.219         	20.23          	4.715
MS.220         	20.19          	4.713
MS.221         	20.15          	4.776
MS.222         	20.11          	4.729
MS.223         	20.07          	4.715
MS.224         	20.03          	4.699
MS.225         	19.99          	4.679
MS.226         	19.95          	4.687
MS.227         	19.91          	4.633
MS.228         	19.87          	4.665
MS.229         	19.83          	4.659
MS.230         	19.79          	4.677
MS.231         	19.75          	4.641
MS.232         	19.712         	4.645
MS.233         	19.672         	4.669
MS.234         	19.632         	4.608
MS.235         	19.592         	4.641
MS.236         	19.555         	4.62
MS.237         	19.515         	4.637
MS.238         	19.475         	4.614
MS.239         	19.438         	4.627
MS.240         	19.397         	4.592
MS.241         	19.36          	4.625
MS.242         	19.32          	4.546
MS.243         	19.282         	4.598
MS.244         	19.245         	4.562
MS.245         	19.205         	4.528
MS.246         	19.167         	4.538
MS.247         	19.13          	4.574
MS.248         	19.09          	4.566
MS.249         	19.052         	4.544
MS.250         	19.015         	4.635
MS.251         	18.977         	4.526
MS.252         	18.938         	4.647
MS.253         	18.9           	4.518
MS.254         	18.862         	4.598
MS.255         	18.825         	4.546
MS.256         	18.788         	4.53
MS.257         	18.75          	4.427
MS.258         	18.712         	4.401
MS.259         	18.675         	4.451
MS.260         	18.637         	4.526
MS.261         	18.6           	4.459
MS.262         	18.562         	4.443
MS.263         	18.528         	4.477
MS.264         	18.49          	4.536
MS.265         	18.452         	4.419
MS.266         	18.415         	4.461
MS.267         	18.378         	4.423
MS.268         	18.342         	4.397
MS.269         	18.305         	4.423
MS.270         	18.27          	4.417
MS.271         	18.233         	4.379
MS.272         	18.195         	4.373
MS.273         	18.16          	4.411
MS.274         	18.122         	4.403
MS.275         	18.087         	4.433
MS.276         	18.05          	4.383
MS.277         	18.015         	4.439
MS.278         	17.98          	4.316
MS.279         	17.942         	4.316
MS.280         	17.907         	4.377
MS.281         	17.87          	4.318
MS.282         	17.835         	4.383
MS.283         	17.8           	4.316
MS.284         	17.765         	4.349
MS.285         	17.73          	4.272
MS.286         	17.692         	4.308
MS.287         	17.657         	4.381
MS.288         	17.622         	4.232
MS.289         	17.587         	4.26
MS.290         	17.552         	4.163
MS.291         	17.517         	4.181
MS.292         	17.483         	4.224
MS.293         	17.448         	4.218
MS.294         	17.413         	4.232
MS.295         	17.378         	4.187
MS.296         	17.342         	4.2
MS.297         	17.307         	4.24
MS.298         	17.275         	4.145
MS.299         	17.24          	4.187
MS.300         	17.205         	4.107
MS.301         	17.17          	3.928
MS.302         	17.135         	4.014
MS.303         	17.102         	3.974
MS.304         	17.067         	3.914
MS.305         	17.032         	4.014
MS.306         	17             	3.909
MS.307         	16.965         	3.956
MS.308         	16.932         	3.863
MS.309         	16.897         	3.976
MS.310         	16.865         	3.903
MS.311         	16.83          	3.857
MS.312         	16.797         	3.803
MS.313         	16.762         	3.674
MS.314         	16.73          	3.815
MS.315         	16.698         	3.766
MS.316         	16.663         	3.69
MS.317         	16.63          	3.684
MS.318         	16.597         	3.599
MS.319         	16.562         	3.815
MS.320         	16.53          	3.644
MS.321         	16.497         	3.841
MS.322         	16.465         	3.724
MS.323         	16.432         	3.71
MS.324         	16.397         	3.543
MS.325         	16.365         	3.638
MS.326         	16.333         	3.656
MS.327         	16.3           	3.561
MS.328         	16.267         	3.495
MS.329         	16.235         	3.47
MS.330         	16.202         	3.507
MS.331         	16.17          	3.549
MS.332         	16.137         	3.474
MS.333         	16.105         	3.472
MS.334         	16.075         	3.422
MS.335         	16.042         	3.472
MS.336         	16.01          	3.499
MS.337         	15.977         	3.537
MS.338         	15.945         	3.436
MS.339         	15.915         	3.301
MS.340         	15.882         	3.291
MS.341         	15.85          	3.281
MS.342         	15.818         	3.269
MS.343         	15.787         	3.321
MS.344         	15.755         	3.082
MS.345         	15.725         	3.124
MS.346         	15.693         	3.303
MS.347         	15.662         	3.215
MS.348         	15.63          	3.241
MS.349         	15.6           	3.176
MS.350         	15.568         	3.233
MS.351         	15.537         	3.146
MS.352         	15.505         	3.017
MS.353         	15.475         	2.989
MS.354         	15.443         	3.207
MS.355         	15.412         	3.092
MS.356         	15.382         	3.207
MS.357         	15.35          	3.108
MS.358         	15.32          	2.921
MS.359         	15.29          	2.794
MS.360         	15.26          	3.134
MS.361         	15.23          	2.963
MS.362         	15.197         	2.989
MS.363         	15.167         	3.078
MS.364         	15.137         	2.707
MS.365         	15.108         	3.078
MS.366         	15.077         	2.894
MS.367         	15.047         	2.755
MS.368         	15.017         	2.616
MS.369         	14.987         	2.824
MS.370         	14.957         	2.737
MS.371         	14.927         	2.671
MS.372         	14.898         	2.665
MS.373         	14.867         	2.657
MS.374         	14.837         	2.604
MS.375         	14.807         	2.598
MS.376         	14.78          	2.6
MS.377         	14.75          	2.512
MS.378         	14.72          	2.59
MS.379         	14.69          	2.504
MS.380         	14.66          	2.471
MS.381         	14.632         	2.443
MS.382         	14.602         	2.463
MS.383         	14.572         	2.467
MS.384         	14.545         	2.445
MS.385         	14.515         	2.504
MS.386         	14.485         	2.449
MS.387         	14.457         	2.455
MS.388         	14.427         	2.467
MS.389         	14.4           	2.334
MS.390         	14.37          	2.363
MS.391         	14.342         	2.324
MS.392         	14.312         	2.349
MS.393         	14.285         	2.306
MS.394         	14.255         	2.248
MS.395         	14.227         	2.232
MS.396         	14.2           	2.228
MS.397         	14.17          	2.179
MS.398         	14.142         	2.189
MS.399         	14.115         	2.123
MS.400         	14.085         	2.179
MS.401         	14.057         	2.085
MS.402         	14.03          	2.095
MS.403         	14.002         	2.228
MS.404         	13.975         	2.087
MS.405         	13.945         	1.998
MS.406         	13.917         	2.151
MS.407         	13.89          	2.099
MS.408         	13.862         	1.992
MS.409         	13.835         	2.097
MS.410         	13.807         	2.105
MS.411         	13.78          	2.02
MS.412         	13.752         	2.01
MS.413         	13.725         	1.944
MS.414         	13.697         	1.861
MS.415         	13.67          	1.903
MS.416         	13.642         	1.986
MS.417         	13.615         	1.887
MS.418         	13.587         	2.065
MS.419         	13.56          	1.859
MS.420         	13.535         	1.768
MS.421         	13.507         	1.831
MS.422         	13.48          	1.849
MS.423         	13.452         	1.758
MS.424         	13.425         	1.768
MS.425         	13.4           	1.722
MS.426         	13.372         	1.754
MS.427         	13.345         	1.758
MS.428         	13.32          	1.68
MS.429         	13.292         	1.728
MS.430         	13.265         	1.72
MS.431         	13.24          	1.734
MS.432         	13.212         	1.694
MS.433         	13.188         	1.656
MS.434         	13.16          	1.623
MS.435         	13.135         	1.553
MS.436         	13.108         	1.662
MS.437         	13.082         	1.623
MS.438         	13.055         	1.583
MS.439         	13.03          	1.629
MS.440         	13.002         	1.603
MS.441         	12.977         	1.583
MS.442         	12.952         	1.533
MS.443         	12.925         	1.565
MS.444         	12.9           	1.531
MS.445         	12.875         	1.521
MS.446         	12.847         	1.503
MS.447         	12.822         	1.501
MS.448         	12.797         	1.537
MS.449         	12.77          	1.501
MS.450         	12.745         	1.424
MS.451         	12.72          	1.505
MS.452         	12.695         	1.358
MS.453         	12.67          	1.38
MS.454         	12.645         	1.392
MS.455         	12.62          	1.404
MS.456         	12.592         	1.4
MS.457         	12.568         	1.335
MS.458         	12.542         	1.245
MS.459         	12.517         	1.295
MS.460         	12.492         	1.349
MS.461         	12.467         	1.239
MS.462         	12.443         	1.38
MS.463         	12.417         	1.374
MS.464         	12.395         	1.297
MS.465         	12.37          	1.362
MS.466         	12.345         	1.283
MS.467         	12.32          	1.259
MS.468         	12.295         	1.229
MS.469         	12.27          	1.178
MS.470         	12.245         	1.263
MS.471         	12.222         	1.219
MS.472         	12.197         	1.277
MS.473         	12.172         	1.19
MS.474         	12.148         	1.241
MS.475         	12.125         	1.291
MS.476         	12.1           	1.213
MS.477         	12.075         	1.184
MS.478         	12.052         	1.211
MS.479         	12.028         	1.128
MS.480         	12.002         	1.196
MS.481         	11.98          	1.146
MS.482         	11.955         	1.265
MS.483         	11.932         	1.148
MS.484         	11.907         	1.021
MS.485         	11.885         	1.035
MS.486         	11.86          	1.088
MS.487         	11.837         	1.213
MS.488         	11.812         	1.07
MS.489         	11.79          	1.049
MS.490         	11.765         	1.045
MS.491         	11.742         	1.029
MS.492         	11.72          	1.005
MS.493         	11.695         	1.039
MS.494         	11.672         	0.983
MS.495         	11.648         	1.053
MS.496         	11.625         	1.003
MS.497         	11.602         	1.07
MS.498         	11.58          	1.017
MS.499         	11.555         	1.011
MS.500         	11.532         	0.914
MS.501         	11.51          	1.031
