File:              	C:\Qtrac\Data\Daniel M Sørensen\MScan multicentre study\Data from centres\Oxford\Processed data\ATC01211C.QZD
Name:              	UK.OXF.NC.9.1
Protocol:          	MSCAN-R2
Date:              	11/12/20
Start time:        	09:07:29
Age:               	35
Sex:               	F
Temperature:       	32.7
S/R sites:         	TA
NC/disease:        	NC
Operator:          	AT
Comments:          	Peroneal N TA 1st
M-SCAN DATA (8.4-1.6m)
Scanpts: 13, 25, 704, 725
Stim. (mA)     	Amp. (mV)
MS.1           	32             	4.898
MS.2           	32             	4.868
MS.3           	32             	4.866
MS.4           	32             	4.828
MS.5           	32             	4.83
MS.6           	32             	4.902
MS.7           	32             	4.852
MS.8           	32             	4.824
MS.9           	32             	4.84
MS.10          	32             	4.852
MS.11          	32             	4.856
MS.12          	32             	4.842
MS.13          	32             	4.824
MS.14          	32             	4.84
MS.15          	32             	4.876
MS.16          	32             	4.832
MS.17          	32             	4.848
MS.18          	32             	4.866
MS.19          	32             	4.87
MS.20          	32             	4.816
MS.21          	32             	4.82
MS.22          	32             	4.826
MS.23          	32             	4.848
MS.24          	31.872         	4.876
MS.25          	31.807         	4.83
MS.26          	31.745         	4.838
MS.27          	31.682         	4.806
MS.28          	31.617         	4.844
MS.29          	31.555         	4.858
MS.30          	31.492         	4.824
MS.31          	31.43          	4.822
MS.32          	31.365         	4.812
MS.33          	31.302         	4.826
MS.34          	31.24          	4.798
MS.35          	31.177         	4.788
MS.36          	31.117         	4.804
MS.37          	31.055         	4.794
MS.38          	30.992         	4.81
MS.39          	30.93          	4.83
MS.40          	30.867         	4.864
MS.41          	30.807         	4.822
MS.42          	30.745         	4.834
MS.43          	30.682         	4.802
MS.44          	30.622         	4.818
MS.45          	30.56          	4.782
MS.46          	30.5           	4.782
MS.47          	30.44          	4.822
MS.48          	30.377         	4.836
MS.49          	30.317         	4.776
MS.50          	30.257         	4.8
MS.51          	30.198         	4.804
MS.52          	30.137         	4.784
MS.53          	30.075         	4.812
MS.54          	30.015         	4.81
MS.55          	29.955         	4.786
MS.56          	29.895         	4.808
MS.57          	29.837         	4.808
MS.58          	29.778         	4.782
MS.59          	29.717         	4.812
MS.60          	29.657         	4.804
MS.61          	29.597         	4.757
MS.62          	29.54          	4.818
MS.63          	29.48          	4.725
MS.64          	29.422         	4.721
MS.65          	29.362         	4.812
MS.66          	29.305         	4.79
MS.67          	29.245         	4.687
MS.68          	29.188         	4.695
MS.69          	29.13          	4.679
MS.70          	29.07          	4.703
MS.71          	29.012         	4.8
MS.72          	28.955         	4.661
MS.73          	28.897         	4.705
MS.74          	28.84          	4.637
MS.75          	28.782         	4.62
MS.76          	28.725         	4.683
MS.77          	28.667         	4.657
MS.78          	28.61          	4.653
MS.79          	28.552         	4.657
MS.80          	28.495         	4.614
MS.81          	28.438         	4.641
MS.82          	28.382         	4.647
MS.83          	28.325         	4.655
MS.84          	28.267         	4.643
MS.85          	28.212         	4.592
MS.86          	28.155         	4.653
MS.87          	28.1           	4.61
MS.88          	28.042         	4.594
MS.89          	27.987         	4.56
MS.90          	27.93          	4.564
MS.91          	27.875         	4.57
MS.92          	27.82          	4.522
MS.93          	27.765         	4.467
MS.94          	27.707         	4.479
MS.95          	27.653         	4.512
MS.96          	27.597         	4.459
MS.97          	27.542         	4.469
MS.98          	27.487         	4.449
MS.99          	27.432         	4.439
MS.100         	27.377         	4.465
MS.101         	27.323         	4.399
MS.102         	27.267         	4.417
MS.103         	27.215         	4.395
MS.104         	27.16          	4.457
MS.105         	27.105         	4.407
MS.106         	27.05          	4.439
MS.107         	26.997         	4.377
MS.108         	26.942         	4.336
MS.109         	26.89          	4.357
MS.110         	26.835         	4.274
MS.111         	26.782         	4.232
MS.112         	26.727         	4.256
MS.113         	26.675         	4.2
MS.114         	26.622         	4.339
MS.115         	26.567         	4.298
MS.116         	26.515         	4.256
MS.117         	26.462         	4.204
MS.118         	26.41          	4.193
MS.119         	26.358         	4.214
MS.120         	26.305         	4.165
MS.121         	26.252         	4.191
MS.122         	26.2           	4.236
MS.123         	26.147         	4.125
MS.124         	26.095         	4.129
MS.125         	26.042         	4.181
MS.126         	25.99          	4.101
MS.127         	25.938         	4.099
MS.128         	25.887         	4.198
MS.129         	25.835         	4.089
MS.130         	25.782         	4.165
MS.131         	25.733         	4.103
MS.132         	25.68          	4.107
MS.133         	25.63          	4.095
MS.134         	25.577         	4.103
MS.135         	25.528         	4.026
MS.136         	25.475         	4.069
MS.137         	25.425         	4.01
MS.138         	25.375         	4.063
MS.139         	25.323         	4.063
MS.140         	25.272         	4.055
MS.141         	25.222         	4.006
MS.142         	25.172         	4.01
MS.143         	25.122         	3.97
MS.144         	25.073         	3.936
MS.145         	25.022         	4.02
MS.146         	24.972         	3.954
MS.147         	24.922         	3.94
MS.148         	24.872         	3.942
MS.149         	24.823         	4.012
MS.150         	24.772         	3.958
MS.151         	24.722         	3.855
MS.152         	24.672         	3.936
MS.153         	24.625         	3.863
MS.154         	24.575         	3.893
MS.155         	24.525         	3.847
MS.156         	24.477         	3.827
MS.157         	24.427         	3.911
MS.158         	24.38          	3.889
MS.159         	24.33          	3.827
MS.160         	24.282         	3.817
MS.161         	24.233         	3.801
MS.162         	24.185         	3.827
MS.163         	24.137         	3.783
MS.164         	24.087         	3.793
MS.165         	24.04          	3.785
MS.166         	23.993         	3.762
MS.167         	23.945         	3.811
MS.168         	23.897         	3.742
MS.169         	23.85          	3.72
MS.170         	23.8           	3.67
MS.171         	23.752         	3.678
MS.172         	23.705         	3.69
MS.173         	23.657         	3.692
MS.174         	23.612         	3.654
MS.175         	23.565         	3.694
MS.176         	23.517         	3.646
MS.177         	23.47          	3.611
MS.178         	23.422         	3.698
MS.179         	23.377         	3.63
MS.180         	23.33          	3.625
MS.181         	23.282         	3.595
MS.182         	23.237         	3.587
MS.183         	23.19          	3.597
MS.184         	23.145         	3.511
MS.185         	23.097         	3.597
MS.186         	23.052         	3.537
MS.187         	23.005         	3.531
MS.188         	22.96          	3.539
MS.189         	22.913         	3.503
MS.190         	22.868         	3.497
MS.191         	22.823         	3.503
MS.192         	22.778         	3.452
MS.193         	22.73          	3.422
MS.194         	22.685         	3.438
MS.195         	22.64          	3.491
MS.196         	22.595         	3.378
MS.197         	22.55          	3.35
MS.198         	22.505         	3.352
MS.199         	22.46          	3.38
MS.200         	22.415         	3.374
MS.201         	22.37          	3.257
MS.202         	22.325         	3.247
MS.203         	22.28          	3.311
MS.204         	22.237         	3.283
MS.205         	22.192         	3.213
MS.206         	22.147         	3.186
MS.207         	22.102         	3.156
MS.208         	22.06          	3.176
MS.209         	22.015         	3.156
MS.210         	21.97          	3.094
MS.211         	21.927         	3.112
MS.212         	21.882         	3.102
MS.213         	21.84          	3.051
MS.214         	21.795         	3.055
MS.215         	21.752         	2.969
MS.216         	21.71          	2.975
MS.217         	21.665         	2.999
MS.218         	21.622         	2.91
MS.219         	21.58          	2.943
MS.220         	21.535         	2.88
MS.221         	21.493         	2.794
MS.222         	21.45          	2.86
MS.223         	21.407         	2.776
MS.224         	21.365         	2.792
MS.225         	21.323         	2.8
MS.226         	21.28          	2.703
MS.227         	21.237         	2.776
MS.228         	21.195         	2.739
MS.229         	21.153         	2.729
MS.230         	21.11          	2.695
MS.231         	21.067         	2.628
MS.232         	21.025         	2.683
MS.233         	20.983         	2.639
MS.234         	20.942         	2.544
MS.235         	20.9           	2.598
MS.236         	20.858         	2.578
MS.237         	20.815         	2.558
MS.238         	20.775         	2.52
MS.239         	20.733         	2.522
MS.240         	20.692         	2.534
MS.241         	20.65          	2.5
MS.242         	20.61          	2.437
MS.243         	20.567         	2.471
MS.244         	20.528         	2.435
MS.245         	20.485         	2.409
MS.246         	20.445         	2.411
MS.247         	20.405         	2.401
MS.248         	20.362         	2.355
MS.249         	20.323         	2.338
MS.250         	20.282         	2.32
MS.251         	20.243         	2.344
MS.252         	20.2           	2.27
MS.253         	20.16          	2.232
MS.254         	20.12          	2.197
MS.255         	20.08          	2.286
MS.256         	20.04          	2.226
MS.257         	20             	2.24
MS.258         	19.96          	2.199
MS.259         	19.92          	2.169
MS.260         	19.88          	2.153
MS.261         	19.84          	2.155
MS.262         	19.8           	2.097
MS.263         	19.762         	2.127
MS.264         	19.722         	2.111
MS.265         	19.682         	2.034
MS.266         	19.642         	2.115
MS.267         	19.605         	2.083
MS.268         	19.565         	2.079
MS.269         	19.525         	2.054
MS.270         	19.487         	2.002
MS.271         	19.448         	2.002
MS.272         	19.41          	2.036
MS.273         	19.37          	2.022
MS.274         	19.333         	1.974
MS.275         	19.292         	1.96
MS.276         	19.255         	1.978
MS.277         	19.215         	1.895
MS.278         	19.177         	1.932
MS.279         	19.14          	1.922
MS.280         	19.1           	1.946
MS.281         	19.062         	1.901
MS.282         	19.025         	1.899
MS.283         	18.987         	1.827
MS.284         	18.948         	1.855
MS.285         	18.91          	1.815
MS.286         	18.872         	1.774
MS.287         	18.835         	1.76
MS.288         	18.797         	1.77
MS.289         	18.76          	1.712
MS.290         	18.722         	1.746
MS.291         	18.685         	1.702
MS.292         	18.647         	1.69
MS.293         	18.61          	1.635
MS.294         	18.573         	1.654
MS.295         	18.538         	1.633
MS.296         	18.5           	1.615
MS.297         	18.462         	1.623
MS.298         	18.425         	1.664
MS.299         	18.387         	1.599
MS.300         	18.352         	1.599
MS.301         	18.315         	1.597
MS.302         	18.278         	1.579
MS.303         	18.243         	1.585
MS.304         	18.205         	1.603
MS.305         	18.17          	1.539
MS.306         	18.132         	1.521
MS.307         	18.097         	1.537
MS.308         	18.06          	1.551
MS.309         	18.025         	1.539
MS.310         	17.987         	1.515
MS.311         	17.952         	1.458
MS.312         	17.917         	1.492
MS.313         	17.88          	1.484
MS.314         	17.845         	1.436
MS.315         	17.81          	1.48
MS.316         	17.775         	1.454
MS.317         	17.737         	1.43
MS.318         	17.702         	1.422
MS.319         	17.667         	1.458
MS.320         	17.632         	1.424
MS.321         	17.597         	1.446
MS.322         	17.562         	1.392
MS.323         	17.528         	1.384
MS.324         	17.493         	1.404
MS.325         	17.458         	1.368
MS.326         	17.422         	1.358
MS.327         	17.387         	1.297
MS.328         	17.352         	1.349
MS.329         	17.317         	1.317
MS.330         	17.282         	1.313
MS.331         	17.247         	1.329
MS.332         	17.215         	1.311
MS.333         	17.18          	1.275
MS.334         	17.145         	1.277
MS.335         	17.11          	1.275
MS.336         	17.077         	1.267
MS.337         	17.042         	1.243
MS.338         	17.01          	1.245
MS.339         	16.975         	1.231
MS.340         	16.94          	1.219
MS.341         	16.907         	1.221
MS.342         	16.872         	1.19
MS.343         	16.84          	1.204
MS.344         	16.805         	1.219
MS.345         	16.772         	1.208
MS.346         	16.74          	1.16
MS.347         	16.705         	1.194
MS.348         	16.672         	1.178
MS.349         	16.637         	1.196
MS.350         	16.605         	1.162
MS.351         	16.573         	1.086
MS.352         	16.54          	1.142
MS.353         	16.505         	1.142
MS.354         	16.472         	1.114
MS.355         	16.44          	1.112
MS.356         	16.407         	1.128
MS.357         	16.375         	1.118
MS.358         	16.342         	1.096
MS.359         	16.31          	1.059
MS.360         	16.278         	1.055
MS.361         	16.245         	1.072
MS.362         	16.212         	1.065
MS.363         	16.18          	1.065
MS.364         	16.147         	1.047
MS.365         	16.115         	1.047
MS.366         	16.083         	1.065
MS.367         	16.05          	1.021
MS.368         	16.017         	1.001
MS.369         	15.987         	1.051
MS.370         	15.955         	1.019
MS.371         	15.922         	0.997
MS.372         	15.89          	0.993
MS.373         	15.86          	1.011
MS.374         	15.827         	0.989
MS.375         	15.795         	0.987
MS.376         	15.765         	0.979
MS.377         	15.733         	0.939
MS.378         	15.7           	0.961
MS.379         	15.67          	0.949
MS.380         	15.637         	0.916
MS.381         	15.608         	0.906
MS.382         	15.575         	0.908
MS.383         	15.545         	0.904
MS.384         	15.515         	0.888
MS.385         	15.483         	0.902
MS.386         	15.452         	0.872
MS.387         	15.42          	0.864
MS.388         	15.39          	0.838
MS.389         	15.36          	0.836
MS.390         	15.33          	0.836
MS.391         	15.297         	0.834
MS.392         	15.267         	0.848
MS.393         	15.237         	0.826
MS.394         	15.207         	0.856
MS.395         	15.177         	0.822
MS.396         	15.145         	0.773
MS.397         	15.115         	0.814
MS.398         	15.085         	0.794
MS.399         	15.055         	0.771
MS.400         	15.025         	0.82
MS.401         	14.995         	0.771
MS.402         	14.965         	0.717
MS.403         	14.935         	0.749
MS.404         	14.905         	0.741
MS.405         	14.875         	0.727
MS.406         	14.845         	0.691
MS.407         	14.818         	0.661
MS.408         	14.787         	0.649
MS.409         	14.757         	0.653
MS.410         	14.727         	0.693
MS.411         	14.697         	0.661
MS.412         	14.67          	0.624
MS.413         	14.64          	0.661
MS.414         	14.61          	0.657
MS.415         	14.58          	0.638
MS.416         	14.552         	0.61
MS.417         	14.523         	0.596
MS.418         	14.495         	0.62
MS.419         	14.465         	0.653
MS.420         	14.435         	0.552
MS.421         	14.407         	0.592
MS.422         	14.377         	0.576
MS.423         	14.35          	0.562
MS.424         	14.32          	0.516
MS.425         	14.292         	0.508
MS.426         	14.265         	0.516
MS.427         	14.235         	0.522
MS.428         	14.207         	0.497
MS.429         	14.177         	0.485
MS.430         	14.15          	0.481
MS.431         	14.122         	0.514
MS.432         	14.095         	0.508
MS.433         	14.065         	0.459
MS.434         	14.037         	0.477
MS.435         	14.01          	0.439
MS.436         	13.983         	0.437
MS.437         	13.952         	0.433
MS.438         	13.925         	0.433
MS.439         	13.898         	0.399
MS.440         	13.87          	0.399
MS.441         	13.842         	0.373
MS.442         	13.815         	0.383
MS.443         	13.787         	0.373
MS.444         	13.76          	0.363
MS.445         	13.733         	0.361
MS.446         	13.705         	0.346
MS.447         	13.677         	0.344
MS.448         	13.65          	0.332
MS.449         	13.622         	0.312
MS.450         	13.595         	0.336
MS.451         	13.568         	0.302
MS.452         	13.54          	0.32
MS.453         	13.515         	0.276
MS.454         	13.487         	0.298
MS.455         	13.46          	0.32
MS.456         	13.432         	0.296
MS.457         	13.407         	0.288
MS.458         	13.38          	0.276
MS.459         	13.352         	0.27
MS.460         	13.325         	0.272
MS.461         	13.3           	0.252
MS.462         	13.273         	0.228
MS.463         	13.247         	0.248
MS.464         	13.22          	0.222
MS.465         	13.193         	0.24
MS.466         	13.167         	0.232
MS.467         	13.14          	0.236
MS.468         	13.115         	0.222
MS.469         	13.087         	0.199
MS.470         	13.062         	0.201
MS.471         	13.035         	0.207
MS.472         	13.01          	0.199
MS.473         	12.985         	0.185
MS.474         	12.957         	0.195
MS.475         	12.932         	0.167
MS.476         	12.907         	0.189
MS.477         	12.88          	0.155
MS.478         	12.855         	0.169
MS.479         	12.83          	0.171
MS.480         	12.802         	0.177
MS.481         	12.778         	0.151
MS.482         	12.752         	0.145
MS.483         	12.727         	0.155
MS.484         	12.702         	0.141
MS.485         	12.677         	0.149
MS.486         	12.65          	0.127
MS.487         	12.625         	0.129
MS.488         	12.6           	0.137
MS.489         	12.575         	0.119
MS.490         	12.55          	0.117
MS.491         	12.525         	0.119
MS.492         	12.5           	0.107
MS.493         	12.475         	0.095
MS.494         	12.45          	0.113
MS.495         	12.425         	0.111
MS.496         	12.4           	0.093
MS.497         	12.375         	0.113
MS.498         	12.35          	0.101
MS.499         	12.327         	0.093
MS.500         	12.302         	0.101
MS.501         	12.278         	0.091
