File:              	C:\Qtrac\Data\Daniel M Sørensen\MScan multicentre study\Data from centres\Oxford\Raw data (sorted for use)\ATC01204F.QZD
Name:              	UK.OXF.NC.2.1
Protocol:          	MSCAN-R2
Date:              	4/12/20
Start time:        	16:54:17
Age:               	29
Sex:               	M
Temperature:       	32.2
S/R sites:         	TA
NC/disease:        	NC
Operator:          	AT
Comments:          	HC Trial 1 Tibial n
M-SCAN DATA (9.1-1.7m)
Scanpts: 12, 21, 677, 692
Stim. (mA)     	Amp. (mV)
MS.1           	20             	4.274
MS.2           	20             	4.268
MS.3           	20             	4.286
MS.4           	20             	4.236
MS.5           	20             	4.25
MS.6           	20             	4.234
MS.7           	20             	4.24
MS.8           	20             	4.234
MS.9           	20             	4.218
MS.10          	20             	4.244
MS.11          	20             	4.21
MS.12          	20             	4.238
MS.13          	20             	4.236
MS.14          	20             	4.216
MS.15          	20             	4.216
MS.16          	20             	4.206
MS.17          	20             	4.212
MS.18          	20             	4.228
MS.19          	20             	4.212
MS.20          	20             	4.232
MS.21          	20             	4.228
MS.22          	20             	4.228
MS.23          	20             	4.224
MS.24          	19.92          	4.244
MS.25          	19.88          	4.234
MS.26          	19.84          	4.224
MS.27          	19.8           	4.252
MS.28          	19.762         	4.244
MS.29          	19.722         	4.236
MS.30          	19.682         	4.226
MS.31          	19.642         	4.193
MS.32          	19.605         	4.242
MS.33          	19.565         	4.226
MS.34          	19.525         	4.234
MS.35          	19.487         	4.218
MS.36          	19.448         	4.234
MS.37          	19.41          	4.238
MS.38          	19.37          	4.254
MS.39          	19.333         	4.2
MS.40          	19.292         	4.244
MS.41          	19.255         	4.2
MS.42          	19.215         	4.256
MS.43          	19.177         	4.244
MS.44          	19.14          	4.198
MS.45          	19.1           	4.191
MS.46          	19.062         	4.198
MS.47          	19.025         	4.21
MS.48          	18.987         	4.224
MS.49          	18.948         	4.161
MS.50          	18.91          	4.214
MS.51          	18.872         	4.195
MS.52          	18.835         	4.234
MS.53          	18.797         	4.151
MS.54          	18.76          	4.206
MS.55          	18.722         	4.157
MS.56          	18.685         	4.157
MS.57          	18.647         	4.125
MS.58          	18.61          	4.173
MS.59          	18.573         	4.157
MS.60          	18.535         	4.137
MS.61          	18.5           	4.153
MS.62          	18.462         	4.143
MS.63          	18.425         	4.147
MS.64          	18.387         	4.125
MS.65          	18.352         	4.149
MS.66          	18.315         	4.153
MS.67          	18.278         	4.139
MS.68          	18.243         	4.147
MS.69          	18.205         	4.133
MS.70          	18.17          	4.125
MS.71          	18.132         	4.133
MS.72          	18.097         	4.101
MS.73          	18.06          	4.153
MS.74          	18.025         	4.107
MS.75          	17.987         	4.113
MS.76          	17.952         	4.129
MS.77          	17.917         	4.109
MS.78          	17.88          	4.129
MS.79          	17.845         	4.111
MS.80          	17.81          	4.097
MS.81          	17.775         	4.101
MS.82          	17.737         	4.111
MS.83          	17.702         	4.097
MS.84          	17.667         	4.083
MS.85          	17.632         	4.101
MS.86          	17.597         	4.107
MS.87          	17.562         	4.111
MS.88          	17.528         	4.087
MS.89          	17.493         	4.095
MS.90          	17.458         	4.073
MS.91          	17.422         	4.077
MS.92          	17.387         	4.101
MS.93          	17.352         	4.059
MS.94          	17.317         	4.042
MS.95          	17.282         	4.063
MS.96          	17.247         	4.04
MS.97          	17.215         	4.085
MS.98          	17.18          	4.044
MS.99          	17.145         	4.099
MS.100         	17.11          	4.02
MS.101         	17.077         	4.028
MS.102         	17.042         	4.059
MS.103         	17.01          	4.024
MS.104         	16.975         	4.02
MS.105         	16.94          	4.022
MS.106         	16.907         	4.057
MS.107         	16.872         	4.018
MS.108         	16.84          	3.998
MS.109         	16.805         	4
MS.110         	16.772         	4.016
MS.111         	16.74          	4.032
MS.112         	16.705         	3.982
MS.113         	16.672         	3.976
MS.114         	16.637         	3.982
MS.115         	16.605         	3.984
MS.116         	16.573         	3.986
MS.117         	16.54          	4.01
MS.118         	16.505         	3.96
MS.119         	16.472         	3.964
MS.120         	16.44          	3.938
MS.121         	16.407         	3.94
MS.122         	16.375         	3.97
MS.123         	16.342         	3.944
MS.124         	16.31          	3.926
MS.125         	16.278         	3.92
MS.126         	16.245         	3.942
MS.127         	16.212         	3.901
MS.128         	16.18          	3.901
MS.129         	16.147         	3.901
MS.130         	16.115         	3.907
MS.131         	16.083         	3.873
MS.132         	16.05          	3.843
MS.133         	16.017         	3.907
MS.134         	15.985         	3.895
MS.135         	15.955         	3.881
MS.136         	15.922         	3.871
MS.137         	15.89          	3.861
MS.138         	15.86          	3.873
MS.139         	15.827         	3.859
MS.140         	15.795         	3.853
MS.141         	15.765         	3.897
MS.142         	15.733         	3.895
MS.143         	15.7           	3.851
MS.144         	15.67          	3.857
MS.145         	15.637         	3.839
MS.146         	15.608         	3.821
MS.147         	15.575         	3.807
MS.148         	15.545         	3.825
MS.149         	15.515         	3.841
MS.150         	15.483         	3.813
MS.151         	15.452         	3.859
MS.152         	15.42          	3.845
MS.153         	15.39          	3.847
MS.154         	15.36          	3.777
MS.155         	15.327         	3.833
MS.156         	15.297         	3.793
MS.157         	15.267         	3.773
MS.158         	15.237         	3.805
MS.159         	15.207         	3.773
MS.160         	15.175         	3.817
MS.161         	15.145         	3.783
MS.162         	15.115         	3.785
MS.163         	15.085         	3.766
MS.164         	15.055         	3.76
MS.165         	15.025         	3.773
MS.166         	14.995         	3.742
MS.167         	14.965         	3.811
MS.168         	14.935         	3.768
MS.169         	14.905         	3.805
MS.170         	14.875         	3.775
MS.171         	14.845         	3.781
MS.172         	14.818         	3.764
MS.173         	14.787         	3.738
MS.174         	14.757         	3.734
MS.175         	14.727         	3.746
MS.176         	14.697         	3.724
MS.177         	14.67          	3.702
MS.178         	14.64          	3.738
MS.179         	14.61          	3.734
MS.180         	14.58          	3.69
MS.181         	14.552         	3.72
MS.182         	14.523         	3.72
MS.183         	14.495         	3.726
MS.184         	14.465         	3.686
MS.185         	14.435         	3.69
MS.186         	14.407         	3.702
MS.187         	14.377         	3.654
MS.188         	14.35          	3.702
MS.189         	14.32          	3.678
MS.190         	14.292         	3.696
MS.191         	14.265         	3.623
MS.192         	14.235         	3.65
MS.193         	14.207         	3.676
MS.194         	14.177         	3.599
MS.195         	14.15          	3.648
MS.196         	14.122         	3.638
MS.197         	14.092         	3.646
MS.198         	14.065         	3.611
MS.199         	14.037         	3.595
MS.200         	14.01          	3.587
MS.201         	13.983         	3.646
MS.202         	13.952         	3.585
MS.203         	13.925         	3.595
MS.204         	13.898         	3.573
MS.205         	13.87          	3.607
MS.206         	13.842         	3.493
MS.207         	13.815         	3.571
MS.208         	13.787         	3.513
MS.209         	13.76          	3.507
MS.210         	13.733         	3.489
MS.211         	13.705         	3.535
MS.212         	13.677         	3.487
MS.213         	13.65          	3.539
MS.214         	13.622         	3.44
MS.215         	13.595         	3.41
MS.216         	13.568         	3.424
MS.217         	13.54          	3.466
MS.218         	13.515         	3.378
MS.219         	13.487         	3.412
MS.220         	13.46          	3.402
MS.221         	13.432         	3.39
MS.222         	13.407         	3.38
MS.223         	13.38          	3.327
MS.224         	13.352         	3.39
MS.225         	13.325         	3.287
MS.226         	13.3           	3.259
MS.227         	13.273         	3.283
MS.228         	13.247         	3.273
MS.229         	13.22          	3.261
MS.230         	13.193         	3.213
MS.231         	13.167         	3.291
MS.232         	13.14          	3.205
MS.233         	13.115         	3.18
MS.234         	13.087         	3.182
MS.235         	13.062         	3.184
MS.236         	13.035         	3.154
MS.237         	13.01          	3.221
MS.238         	12.985         	3.225
MS.239         	12.957         	3.19
MS.240         	12.932         	3.203
MS.241         	12.907         	3.164
MS.242         	12.88          	3.213
MS.243         	12.855         	3.166
MS.244         	12.83          	3.156
MS.245         	12.802         	3.146
MS.246         	12.778         	3.162
MS.247         	12.752         	3.15
MS.248         	12.727         	3.207
MS.249         	12.702         	3.198
MS.250         	12.675         	3.239
MS.251         	12.65          	3.182
MS.252         	12.625         	3.162
MS.253         	12.6           	3.176
MS.254         	12.575         	3.136
MS.255         	12.55          	3.062
MS.256         	12.525         	3.14
MS.257         	12.5           	3.128
MS.258         	12.475         	3.122
MS.259         	12.45          	3.142
MS.260         	12.425         	3.13
MS.261         	12.4           	3.08
MS.262         	12.375         	3.11
MS.263         	12.35          	3.108
MS.264         	12.325         	3.094
MS.265         	12.302         	3.138
MS.266         	12.278         	3.064
MS.267         	12.252         	3.037
MS.268         	12.227         	3.076
MS.269         	12.202         	3.047
MS.270         	12.18          	3.086
MS.271         	12.155         	3.102
MS.272         	12.13          	3.013
MS.273         	12.108         	3.066
MS.274         	12.082         	3.06
MS.275         	12.057         	2.995
MS.276         	12.035         	2.955
MS.277         	12.01          	3.025
MS.278         	11.985         	2.987
MS.279         	11.962         	2.935
MS.280         	11.938         	2.933
MS.281         	11.915         	3.023
MS.282         	11.89          	2.876
MS.283         	11.867         	2.904
MS.284         	11.842         	2.91
MS.285         	11.82          	2.884
MS.286         	11.795         	2.796
MS.287         	11.773         	2.914
MS.288         	11.747         	2.882
MS.289         	11.725         	2.884
MS.290         	11.702         	2.816
MS.291         	11.677         	2.804
MS.292         	11.655         	2.776
MS.293         	11.632         	2.82
MS.294         	11.608         	2.832
MS.295         	11.585         	2.705
MS.296         	11.562         	2.78
MS.297         	11.54          	2.703
MS.298         	11.515         	2.691
MS.299         	11.492         	2.731
MS.300         	11.47          	2.574
MS.301         	11.447         	2.679
MS.302         	11.425         	2.61
MS.303         	11.403         	2.586
MS.304         	11.377         	2.494
MS.305         	11.355         	2.679
MS.306         	11.332         	2.61
MS.307         	11.31          	2.552
MS.308         	11.287         	2.56
MS.309         	11.265         	2.588
MS.310         	11.242         	2.483
MS.311         	11.22          	2.463
MS.312         	11.197         	2.483
MS.313         	11.175         	2.459
MS.314         	11.153         	2.449
MS.315         	11.13          	2.435
MS.316         	11.108         	2.328
MS.317         	11.087         	2.363
MS.318         	11.065         	2.308
MS.319         	11.042         	2.276
MS.320         	11.02          	2.248
MS.321         	10.997         	2.203
MS.322         	10.975         	2.228
MS.323         	10.955         	2.173
MS.324         	10.932         	2.169
MS.325         	10.91          	2.181
MS.326         	10.887         	2.095
MS.327         	10.867         	2.119
MS.328         	10.845         	2.121
MS.329         	10.823         	2.065
MS.330         	10.802         	2.018
MS.331         	10.78          	2.073
MS.332         	10.76          	2.052
MS.333         	10.738         	1.893
MS.334         	10.715         	2.016
MS.335         	10.695         	2.04
MS.336         	10.672         	2.004
MS.337         	10.653         	1.861
MS.338         	10.63          	1.919
MS.339         	10.61          	1.702
MS.340         	10.587         	1.821
MS.341         	10.568         	1.781
MS.342         	10.545         	1.863
MS.343         	10.525         	1.744
MS.344         	10.502         	1.599
MS.345         	10.483         	1.676
MS.346         	10.462         	1.515
MS.347         	10.44          	1.754
MS.348         	10.42          	1.664
MS.349         	10.4           	1.702
MS.350         	10.377         	1.682
MS.351         	10.358         	1.722
MS.352         	10.337         	1.466
MS.353         	10.318         	1.438
MS.354         	10.295         	1.511
MS.355         	10.275         	1.47
MS.356         	10.255         	1.555
MS.357         	10.235         	1.501
MS.358         	10.212         	1.446
MS.359         	10.193         	1.38
MS.360         	10.172         	1.426
MS.361         	10.153         	1.41
MS.362         	10.132         	1.251
MS.363         	10.113         	1.337
MS.364         	10.092         	1.198
MS.365         	10.073         	1.271
MS.366         	10.052         	1.186
MS.367         	10.032         	1.19
MS.368         	10.012         	1.14
MS.369         	9.992          	1.142
MS.370         	9.972          	0.987
MS.371         	9.952          	0.995
MS.372         	9.932          	1.08
MS.373         	9.912          	1.126
MS.374         	9.892          	1.023
MS.375         	9.872          	1.049
MS.376         	9.852          	0.935
MS.377         	9.832          	0.864
MS.378         	9.812          	0.868
MS.379         	9.792          	0.931
MS.380         	9.775          	0.912
MS.381         	9.755          	0.794
MS.382         	9.735          	0.798
MS.383         	9.715          	0.82
MS.384         	9.695          	0.908
MS.385         	9.677          	0.84
MS.386         	9.657          	0.824
MS.387         	9.637          	0.753
MS.388         	9.62           	0.705
MS.389         	9.6            	0.715
MS.390         	9.58           	0.687
MS.391         	9.562          	0.691
MS.392         	9.542          	0.721
MS.393         	9.523          	0.612
MS.394         	9.505          	0.634
MS.395         	9.485          	0.576
MS.396         	9.465          	0.586
MS.397         	9.448          	0.6
MS.398         	9.427          	0.574
MS.399         	9.41           	0.554
MS.400         	9.39           	0.506
MS.401         	9.372          	0.546
MS.402         	9.352          	0.526
MS.403         	9.335          	0.465
MS.404         	9.315          	0.451
MS.405         	9.297          	0.455
MS.406         	9.28           	0.465
MS.407         	9.26           	0.465
MS.408         	9.242          	0.433
MS.409         	9.222          	0.457
MS.410         	9.205          	0.421
MS.411         	9.188          	0.457
MS.412         	9.167          	0.377
MS.413         	9.15           	0.427
MS.414         	9.132          	0.383
MS.415         	9.113          	0.381
MS.416         	9.095          	0.381
MS.417         	9.077          	0.407
MS.418         	9.057          	0.365
MS.419         	9.04           	0.296
MS.420         	9.023          	0.346
MS.421         	9.005          	0.354
MS.422         	8.988          	0.318
MS.423         	8.967          	0.29
MS.424         	8.95           	0.31
MS.425         	8.932          	0.258
MS.426         	8.915          	0.302
MS.427         	8.898          	0.29
MS.428         	8.88           	0.274
MS.429         	8.863          	0.25
MS.430         	8.845          	0.286
MS.431         	8.825          	0.234
MS.432         	8.807          	0.187
MS.433         	8.79           	0.222
MS.434         	8.773          	0.218
MS.435         	8.755          	0.214
MS.436         	8.738          	0.163
MS.437         	8.72           	0.173
MS.438         	8.702          	0.125
MS.439         	8.685          	0.155
MS.440         	8.67           	0.149
MS.441         	8.653          	0.161
MS.442         	8.635          	0.145
MS.443         	8.617          	0.147
MS.444         	8.6            	0.125
MS.445         	8.582          	0.143
MS.446         	8.565          	0.147
MS.447         	8.547          	0.127
MS.448         	8.53           	0.087
MS.449         	8.515          	0.123
MS.450         	8.497          	0.109
MS.451         	8.48           	0.117
MS.452         	8.462          	0.107
MS.453         	8.448          	0.125
MS.454         	8.43           	0.097
MS.455         	8.412          	0.097
MS.456         	8.395          	0.107
MS.457         	8.38           	0.109
MS.458         	8.363          	0.111
MS.459         	8.345          	0.089
MS.460         	8.33           	0.091
MS.461         	8.312          	0.093
MS.462         	8.295          	0.097
MS.463         	8.28           	0.089
MS.464         	8.262          	0.073
MS.465         	8.245          	0.099
MS.466         	8.23           	0.095
MS.467         	8.212          	0.081
MS.468         	8.198          	0.068
MS.469         	8.18           	0.077
MS.470         	8.165          	0.068
MS.471         	8.148          	0.081
MS.472         	8.132          	0.075
MS.473         	8.115          	0.068
MS.474         	8.1            	0.066
MS.475         	8.082          	0.07
MS.476         	8.068          	0.07
MS.477         	8.05           	0.073
MS.478         	8.035          	0.068
MS.479         	8.017          	0.07
MS.480         	8.002          	0.077
MS.481         	7.987          	0.073
MS.482         	7.97           	0.073
MS.483         	7.955          	0.064
MS.484         	7.938          	0.07
MS.485         	7.922          	0.079
MS.486         	7.907          	0.066
MS.487         	7.89           	0.068
MS.488         	7.875          	0.068
MS.489         	7.86           	0.073
MS.490         	7.845          	0.07
MS.491         	7.827          	0.07
MS.492         	7.812          	0.073
MS.493         	7.797          	0.068
MS.494         	7.782          	0.07
MS.495         	7.765          	0.075
MS.496         	7.75           	0.066
MS.497         	7.735          	0.062
MS.498         	7.72           	0.068
MS.499         	7.705          	0.07
MS.500         	7.688          	0.073
