File:              	C:\Qtrac\Data\Daniel M Sørensen\MScan multicentre study\Data from centres\Oxford\Raw data (sorted for use)\ATC01207H.QZD
Name:              	UK.OXF.NC.3.1
Protocol:          	MSCAN-R2
Date:              	7/12/20
Start time:        	14:47:07
Age:               	45
Sex:               	F
Temperature:       	33.6
S/R sites:         	TA
NC/disease:        	NC
Operator:          	AT
Comments:          	HC Peroneal TA 1st trial
M-SCAN DATA (8.7-1.9m)
Scanpts: 45, 53, 638, 647
Stim. (mA)     	Amp. (mV)
MS.1           	26             	3.938
MS.2           	26             	3.926
MS.3           	26             	3.926
MS.4           	26             	3.942
MS.5           	26             	3.95
MS.6           	26             	3.926
MS.7           	26             	3.95
MS.8           	26             	3.916
MS.9           	26             	3.918
MS.10          	26             	3.895
MS.11          	26             	3.901
MS.12          	26             	3.916
MS.13          	26             	3.92
MS.14          	26             	3.95
MS.15          	26             	3.922
MS.16          	26             	3.914
MS.17          	26             	3.926
MS.18          	26             	3.924
MS.19          	26             	3.909
MS.20          	26             	3.938
MS.21          	26             	3.922
MS.22          	26             	3.911
MS.23          	26             	3.932
MS.24          	25.895         	3.92
MS.25          	25.845         	3.946
MS.26          	25.792         	3.93
MS.27          	25.74          	3.928
MS.28          	25.69          	3.891
MS.29          	25.637         	3.946
MS.30          	25.587         	3.936
MS.31          	25.535         	3.934
MS.32          	25.485         	3.92
MS.33          	25.435         	3.93
MS.34          	25.382         	3.944
MS.35          	25.332         	3.93
MS.36          	25.282         	3.922
MS.37          	25.233         	3.938
MS.38          	25.18          	3.938
MS.39          	25.13          	3.956
MS.40          	25.08          	3.948
MS.41          	25.03          	3.972
MS.42          	24.98          	3.942
MS.43          	24.93          	3.974
MS.44          	24.88          	3.938
MS.45          	24.83          	3.926
MS.46          	24.782         	3.952
MS.47          	24.733         	3.97
MS.48          	24.682         	3.958
MS.49          	24.632         	3.956
MS.50          	24.585         	3.924
MS.51          	24.535         	3.948
MS.52          	24.485         	3.96
MS.53          	24.438         	3.956
MS.54          	24.387         	3.982
MS.55          	24.34          	3.932
MS.56          	24.29          	3.946
MS.57          	24.243         	3.924
MS.58          	24.192         	3.95
MS.59          	24.145         	3.924
MS.60          	24.097         	3.94
MS.61          	24.05          	3.958
MS.62          	24             	3.922
MS.63          	23.952         	3.974
MS.64          	23.905         	3.92
MS.65          	23.858         	3.948
MS.66          	23.81          	3.926
MS.67          	23.762         	3.916
MS.68          	23.715         	3.911
MS.69          	23.667         	3.897
MS.70          	23.62          	3.936
MS.71          	23.573         	3.891
MS.72          	23.525         	3.883
MS.73          	23.477         	3.839
MS.74          	23.432         	3.889
MS.75          	23.385         	3.877
MS.76          	23.337         	3.851
MS.77          	23.292         	3.843
MS.78          	23.245         	3.855
MS.79          	23.198         	3.839
MS.80          	23.153         	3.801
MS.81          	23.105         	3.771
MS.82          	23.06          	3.805
MS.83          	23.015         	3.817
MS.84          	22.967         	3.728
MS.85          	22.922         	3.801
MS.86          	22.875         	3.807
MS.87          	22.83          	3.803
MS.88          	22.785         	3.724
MS.89          	22.74          	3.74
MS.90          	22.695         	3.758
MS.91          	22.647         	3.764
MS.92          	22.602         	3.807
MS.93          	22.557         	3.744
MS.94          	22.512         	3.706
MS.95          	22.467         	3.764
MS.96          	22.422         	3.72
MS.97          	22.377         	3.706
MS.98          	22.332         	3.74
MS.99          	22.29          	3.75
MS.100         	22.245         	3.67
MS.101         	22.2           	3.676
MS.102         	22.155         	3.69
MS.103         	22.112         	3.746
MS.104         	22.067         	3.686
MS.105         	22.022         	3.68
MS.106         	21.98          	3.67
MS.107         	21.935         	3.676
MS.108         	21.892         	3.674
MS.109         	21.847         	3.706
MS.110         	21.805         	3.621
MS.111         	21.76          	3.613
MS.112         	21.717         	3.648
MS.113         	21.672         	3.644
MS.114         	21.63          	3.672
MS.115         	21.587         	3.662
MS.116         	21.545         	3.613
MS.117         	21.5           	3.664
MS.118         	21.458         	3.668
MS.119         	21.415         	3.619
MS.120         	21.372         	3.652
MS.121         	21.33          	3.66
MS.122         	21.288         	3.619
MS.123         	21.245         	3.65
MS.124         	21.202         	3.587
MS.125         	21.16          	3.623
MS.126         	21.118         	3.589
MS.127         	21.075         	3.613
MS.128         	21.032         	3.615
MS.129         	20.99          	3.625
MS.130         	20.95          	3.563
MS.131         	20.907         	3.63
MS.132         	20.865         	3.581
MS.133         	20.823         	3.571
MS.134         	20.782         	3.617
MS.135         	20.74          	3.533
MS.136         	20.7           	3.543
MS.137         	20.657         	3.482
MS.138         	20.618         	3.474
MS.139         	20.575         	3.478
MS.140         	20.535         	3.521
MS.141         	20.493         	3.468
MS.142         	20.452         	3.442
MS.143         	20.413         	3.476
MS.144         	20.37          	3.503
MS.145         	20.33          	3.394
MS.146         	20.29          	3.438
MS.147         	20.247         	3.448
MS.148         	20.208         	3.422
MS.149         	20.167         	3.428
MS.150         	20.127         	3.35
MS.151         	20.087         	3.404
MS.152         	20.047         	3.352
MS.153         	20.007         	3.259
MS.154         	19.967         	3.319
MS.155         	19.927         	3.384
MS.156         	19.887         	3.364
MS.157         	19.847         	3.35
MS.158         	19.807         	3.327
MS.159         	19.767         	3.269
MS.160         	19.73          	3.329
MS.161         	19.69          	3.269
MS.162         	19.65          	3.265
MS.163         	19.61          	3.253
MS.164         	19.573         	3.196
MS.165         	19.532         	3.142
MS.166         	19.493         	3.207
MS.167         	19.455         	3.116
MS.168         	19.415         	3.041
MS.169         	19.377         	2.917
MS.170         	19.337         	3.033
MS.171         	19.3           	2.989
MS.172         	19.26          	2.945
MS.173         	19.222         	2.9
MS.174         	19.185         	2.864
MS.175         	19.145         	2.896
MS.176         	19.108         	2.83
MS.177         	19.07          	2.862
MS.178         	19.032         	2.798
MS.179         	18.993         	2.798
MS.180         	18.955         	2.786
MS.181         	18.917         	2.773
MS.182         	18.88          	2.81
MS.183         	18.842         	2.753
MS.184         	18.805         	2.776
MS.185         	18.767         	2.755
MS.186         	18.73          	2.659
MS.187         	18.692         	2.655
MS.188         	18.655         	2.651
MS.189         	18.618         	2.572
MS.190         	18.58          	2.713
MS.191         	18.542         	2.582
MS.192         	18.505         	2.574
MS.193         	18.47          	2.502
MS.194         	18.432         	2.49
MS.195         	18.395         	2.506
MS.196         	18.358         	2.485
MS.197         	18.323         	2.481
MS.198         	18.285         	2.415
MS.199         	18.247         	2.373
MS.200         	18.212         	2.377
MS.201         	18.175         	2.355
MS.202         	18.14          	2.32
MS.203         	18.102         	2.272
MS.204         	18.067         	2.264
MS.205         	18.03          	2.252
MS.206         	17.995         	2.256
MS.207         	17.96          	2.195
MS.208         	17.922         	2.191
MS.209         	17.887         	2.159
MS.210         	17.852         	2.169
MS.211         	17.815         	2.189
MS.212         	17.78          	2.143
MS.213         	17.745         	2.153
MS.214         	17.71          	2.093
MS.215         	17.675         	2.083
MS.216         	17.637         	2.054
MS.217         	17.602         	2.002
MS.218         	17.567         	2.004
MS.219         	17.532         	1.956
MS.220         	17.497         	1.964
MS.221         	17.462         	1.964
MS.222         	17.427         	1.917
MS.223         	17.392         	1.893
MS.224         	17.358         	1.815
MS.225         	17.325         	1.799
MS.226         	17.29          	1.789
MS.227         	17.255         	1.676
MS.228         	17.22          	1.702
MS.229         	17.185         	1.7
MS.230         	17.153         	1.664
MS.231         	17.118         	1.513
MS.232         	17.083         	1.638
MS.233         	17.05          	1.585
MS.234         	17.015         	1.591
MS.235         	16.98          	1.495
MS.236         	16.948         	1.543
MS.237         	16.913         	1.501
MS.238         	16.88          	1.511
MS.239         	16.845         	1.486
MS.240         	16.812         	1.545
MS.241         	16.778         	1.404
MS.242         	16.745         	1.458
MS.243         	16.712         	1.46
MS.244         	16.677         	1.454
MS.245         	16.645         	1.438
MS.246         	16.612         	1.539
MS.247         	16.577         	1.432
MS.248         	16.545         	1.442
MS.249         	16.512         	1.434
MS.250         	16.48          	1.392
MS.251         	16.445         	1.366
MS.252         	16.413         	1.345
MS.253         	16.38          	1.337
MS.254         	16.347         	1.319
MS.255         	16.315         	1.299
MS.256         	16.282         	1.323
MS.257         	16.25          	1.283
MS.258         	16.217         	1.229
MS.259         	16.185         	1.283
MS.260         	16.153         	1.267
MS.261         	16.12          	1.186
MS.262         	16.087         	1.17
MS.263         	16.055         	1.223
MS.264         	16.025         	1.122
MS.265         	15.992         	1.142
MS.266         	15.96          	1.078
MS.267         	15.927         	1.082
MS.268         	15.898         	1.037
MS.269         	15.865         	1.013
MS.270         	15.832         	1.047
MS.271         	15.802         	1.047
MS.272         	15.77          	1.037
MS.273         	15.737         	1.007
MS.274         	15.707         	0.997
MS.275         	15.675         	1.029
MS.276         	15.645         	0.993
MS.277         	15.612         	0.912
MS.278         	15.582         	0.947
MS.279         	15.55          	0.951
MS.280         	15.52          	0.852
MS.281         	15.487         	0.898
MS.282         	15.457         	0.866
MS.283         	15.427         	0.924
MS.284         	15.395         	0.826
MS.285         	15.365         	0.816
MS.286         	15.335         	0.872
MS.287         	15.302         	0.854
MS.288         	15.273         	0.757
MS.289         	15.242         	0.773
MS.290         	15.212         	0.737
MS.291         	15.182         	0.657
MS.292         	15.152         	0.769
MS.293         	15.12          	0.681
MS.294         	15.09          	0.632
MS.295         	15.06          	0.792
MS.296         	15.03          	0.747
MS.297         	15             	0.606
MS.298         	14.97          	0.703
MS.299         	14.94          	0.713
MS.300         	14.91          	0.665
MS.301         	14.88          	0.645
MS.302         	14.852         	0.679
MS.303         	14.822         	0.638
MS.304         	14.792         	0.659
MS.305         	14.762         	0.626
MS.306         	14.733         	0.56
MS.307         	14.702         	0.612
MS.308         	14.675         	0.634
MS.309         	14.645         	0.544
MS.310         	14.615         	0.534
MS.311         	14.587         	0.566
MS.312         	14.557         	0.489
MS.313         	14.527         	0.538
MS.314         	14.5           	0.538
MS.315         	14.47          	0.592
MS.316         	14.443         	0.471
MS.317         	14.412         	0.542
MS.318         	14.382         	0.55
MS.319         	14.355         	0.506
MS.320         	14.325         	0.479
MS.321         	14.297         	0.491
MS.322         	14.27          	0.495
MS.323         	14.24          	0.493
MS.324         	14.212         	0.471
MS.325         	14.182         	0.51
MS.326         	14.155         	0.441
MS.327         	14.127         	0.453
MS.328         	14.1           	0.469
MS.329         	14.07          	0.419
MS.330         	14.042         	0.443
MS.331         	14.015         	0.399
MS.332         	13.987         	0.435
MS.333         	13.957         	0.441
MS.334         	13.93          	0.397
MS.335         	13.903         	0.377
MS.336         	13.875         	0.365
MS.337         	13.847         	0.34
MS.338         	13.82          	0.328
MS.339         	13.792         	0.306
MS.340         	13.765         	0.369
MS.341         	13.737         	0.385
MS.342         	13.71          	0.298
MS.343         	13.682         	0.367
MS.344         	13.655         	0.326
MS.345         	13.627         	0.294
MS.346         	13.6           	0.318
MS.347         	13.572         	0.302
MS.348         	13.545         	0.357
MS.349         	13.52          	0.274
MS.350         	13.492         	0.268
MS.351         	13.465         	0.3
MS.352         	13.438         	0.3
MS.353         	13.41          	0.266
MS.354         	13.385         	0.23
MS.355         	13.358         	0.32
MS.356         	13.33          	0.256
MS.357         	13.305         	0.286
MS.358         	13.278         	0.246
MS.359         	13.252         	0.268
MS.360         	13.225         	0.278
MS.361         	13.197         	0.262
MS.362         	13.172         	0.254
MS.363         	13.145         	0.216
MS.364         	13.12          	0.185
MS.365         	13.092         	0.232
MS.366         	13.068         	0.195
MS.367         	13.04          	0.234
MS.368         	13.015         	0.214
MS.369         	12.99          	0.209
MS.370         	12.962         	0.24
MS.371         	12.938         	0.214
MS.372         	12.91          	0.24
MS.373         	12.885         	0.236
MS.374         	12.86          	0.236
MS.375         	12.835         	0.183
MS.376         	12.807         	0.207
MS.377         	12.782         	0.197
MS.378         	12.757         	0.209
MS.379         	12.733         	0.169
MS.380         	12.705         	0.173
MS.381         	12.68          	0.179
MS.382         	12.655         	0.197
MS.383         	12.63          	0.187
MS.384         	12.605         	0.226
MS.385         	12.58          	0.193
MS.386         	12.555         	0.22
MS.387         	12.53          	0.226
MS.388         	12.505         	0.155
MS.389         	12.48          	0.23
MS.390         	12.455         	0.153
MS.391         	12.43          	0.177
MS.392         	12.405         	0.189
MS.393         	12.38          	0.189
MS.394         	12.355         	0.165
MS.395         	12.33          	0.195
MS.396         	12.305         	0.199
MS.397         	12.282         	0.173
MS.398         	12.257         	0.149
MS.399         	12.233         	0.214
MS.400         	12.207         	0.159
MS.401         	12.182         	0.147
MS.402         	12.16          	0.149
MS.403         	12.135         	0.153
MS.404         	12.11          	0.177
MS.405         	12.087         	0.173
MS.406         	12.062         	0.151
MS.407         	12.037         	0.157
MS.408         	12.015         	0.131
MS.409         	11.99          	0.145
MS.410         	11.967         	0.161
MS.411         	11.943         	0.139
MS.412         	11.917         	0.127
MS.413         	11.895         	0.135
MS.414         	11.87          	0.127
MS.415         	11.847         	0.147
MS.416         	11.822         	0.135
MS.417         	11.8           	0.119
MS.418         	11.778         	0.167
MS.419         	11.752         	0.115
MS.420         	11.73          	0.125
MS.421         	11.705         	0.117
MS.422         	11.682         	0.149
MS.423         	11.66          	0.149
MS.424         	11.635         	0.111
MS.425         	11.613         	0.107
MS.426         	11.59          	0.127
MS.427         	11.568         	0.111
MS.428         	11.542         	0.125
MS.429         	11.52          	0.115
MS.430         	11.497         	0.121
MS.431         	11.475         	0.119
MS.432         	11.45          	0.107
MS.433         	11.427         	0.111
MS.434         	11.405         	0.101
MS.435         	11.382         	0.105
MS.436         	11.36          	0.105
MS.437         	11.337         	0.125
MS.438         	11.315         	0.113
MS.439         	11.292         	0.093
MS.440         	11.27          	0.111
MS.441         	11.247         	0.101
MS.442         	11.225         	0.095
MS.443         	11.202         	0.093
MS.444         	11.18          	0.119
MS.445         	11.157         	0.109
MS.446         	11.135         	0.111
MS.447         	11.113         	0.085
MS.448         	11.09          	0.097
MS.449         	11.068         	0.089
MS.450         	11.047         	0.087
MS.451         	11.025         	0.089
MS.452         	11.002         	0.085
MS.453         	10.98          	0.083
MS.454         	10.957         	0.103
MS.455         	10.938         	0.085
MS.456         	10.915         	0.093
MS.457         	10.892         	0.095
MS.458         	10.87          	0.079
MS.459         	10.85          	0.085
MS.460         	10.827         	0.085
MS.461         	10.805         	0.079
MS.462         	10.785         	0.083
MS.463         	10.762         	0.077
MS.464         	10.742         	0.103
MS.465         	10.72          	0.089
MS.466         	10.698         	0.075
MS.467         	10.677         	0.077
MS.468         	10.655         	0.075
MS.469         	10.635         	0.091
MS.470         	10.613         	0.075
MS.471         	10.592         	0.087
MS.472         	10.57          	0.081
MS.473         	10.55          	0.081
MS.474         	10.528         	0.099
MS.475         	10.507         	0.083
MS.476         	10.488         	0.081
MS.477         	10.465         	0.081
MS.478         	10.445         	0.077
MS.479         	10.425         	0.07
MS.480         	10.403         	0.093
MS.481         	10.382         	0.075
MS.482         	10.363         	0.079
MS.483         	10.34          	0.105
MS.484         	10.32          	0.066
MS.485         	10.3           	0.07
MS.486         	10.28          	0.073
MS.487         	10.257         	0.07
MS.488         	10.238         	0.064
MS.489         	10.217         	0.083
MS.490         	10.198         	0.052
MS.491         	10.177         	0.077
MS.492         	10.157         	0.083
MS.493         	10.135         	0.064
MS.494         	10.115         	0.075
MS.495         	10.095         	0.062
MS.496         	10.075         	0.062
MS.497         	10.055         	0.062
MS.498         	10.035         	0.064
MS.499         	10.015         	0.073
MS.500         	9.995          	0.06
