File:              	C:\Qtrac\Data\Daniel M Sørensen\MScan multicentre study\Data from centres\Oxford\Processed data\ATC01211G.QZD
Name:              	UK.OXF.NC.2.2
Protocol:          	MSCAN-R2
Date:              	11/12/20
Start time:        	17:41:03
Age:               	29
Sex:               	M
Temperature:       	34
S/R sites:         	TA
NC/disease:        	NC
Operator:          	AT
Comments:          	Peroneal N TA 2nd
M-SCAN DATA (9.4-1.5m)
Scanpts: 55, 64, 776, 785
Stim. (mA)     	Amp. (mV)
MS.1           	24             	3.74
MS.2           	24             	3.742
MS.3           	24             	3.74
MS.4           	24             	3.718
MS.5           	24             	3.718
MS.6           	24             	3.706
MS.7           	24             	3.712
MS.8           	24             	3.698
MS.9           	24             	3.696
MS.10          	24             	3.69
MS.11          	24             	3.694
MS.12          	24             	3.696
MS.13          	24             	3.702
MS.14          	24             	3.702
MS.15          	24             	3.692
MS.16          	24             	3.7
MS.17          	24             	3.68
MS.18          	24             	3.69
MS.19          	24             	3.692
MS.20          	24             	3.694
MS.21          	24             	3.696
MS.22          	24             	3.694
MS.23          	24             	3.7
MS.24          	23.905         	3.688
MS.25          	23.858         	3.7
MS.26          	23.807         	3.688
MS.27          	23.76          	3.698
MS.28          	23.712         	3.69
MS.29          	23.665         	3.684
MS.30          	23.62          	3.69
MS.31          	23.573         	3.684
MS.32          	23.525         	3.686
MS.33          	23.477         	3.702
MS.34          	23.43          	3.692
MS.35          	23.385         	3.692
MS.36          	23.337         	3.702
MS.37          	23.29          	3.696
MS.38          	23.245         	3.698
MS.39          	23.198         	3.704
MS.40          	23.153         	3.7
MS.41          	23.105         	3.714
MS.42          	23.06          	3.704
MS.43          	23.012         	3.714
MS.44          	22.967         	3.704
MS.45          	22.92          	3.704
MS.46          	22.875         	3.718
MS.47          	22.83          	3.722
MS.48          	22.785         	3.71
MS.49          	22.737         	3.708
MS.50          	22.692         	3.714
MS.51          	22.647         	3.71
MS.52          	22.602         	3.736
MS.53          	22.557         	3.726
MS.54          	22.512         	3.712
MS.55          	22.467         	3.722
MS.56          	22.422         	3.722
MS.57          	22.377         	3.716
MS.58          	22.332         	3.714
MS.59          	22.288         	3.716
MS.60          	22.243         	3.71
MS.61          	22.2           	3.7
MS.62          	22.155         	3.728
MS.63          	22.11          	3.69
MS.64          	22.067         	3.736
MS.65          	22.022         	3.714
MS.66          	21.977         	3.74
MS.67          	21.935         	3.714
MS.68          	21.89          	3.726
MS.69          	21.847         	3.694
MS.70          	21.802         	3.706
MS.71          	21.76          	3.722
MS.72          	21.715         	3.714
MS.73          	21.672         	3.702
MS.74          	21.63          	3.7
MS.75          	21.585         	3.708
MS.76          	21.542         	3.706
MS.77          	21.5           	3.7
MS.78          	21.458         	3.7
MS.79          	21.415         	3.69
MS.80          	21.372         	3.696
MS.81          	21.327         	3.716
MS.82          	21.285         	3.688
MS.83          	21.243         	3.69
MS.84          	21.2           	3.684
MS.85          	21.157         	3.678
MS.86          	21.118         	3.69
MS.87          	21.075         	3.702
MS.88          	21.032         	3.698
MS.89          	20.99          	3.702
MS.90          	20.948         	3.7
MS.91          	20.907         	3.678
MS.92          	20.865         	3.698
MS.93          	20.823         	3.69
MS.94          	20.78          	3.696
MS.95          	20.74          	3.684
MS.96          	20.698         	3.678
MS.97          	20.657         	3.68
MS.98          	20.615         	3.678
MS.99          	20.575         	3.68
MS.100         	20.532         	3.676
MS.101         	20.493         	3.692
MS.102         	20.452         	3.688
MS.103         	20.41          	3.662
MS.104         	20.37          	3.668
MS.105         	20.33          	3.666
MS.106         	20.288         	3.664
MS.107         	20.247         	3.658
MS.108         	20.208         	3.656
MS.109         	20.167         	3.636
MS.110         	20.127         	3.628
MS.111         	20.087         	3.64
MS.112         	20.047         	3.644
MS.113         	20.007         	3.668
MS.114         	19.967         	3.658
MS.115         	19.927         	3.648
MS.116         	19.887         	3.642
MS.117         	19.847         	3.63
MS.118         	19.807         	3.632
MS.119         	19.767         	3.619
MS.120         	19.727         	3.619
MS.121         	19.69          	3.642
MS.122         	19.65          	3.623
MS.123         	19.61          	3.603
MS.124         	19.57          	3.634
MS.125         	19.532         	3.632
MS.126         	19.493         	3.625
MS.127         	19.455         	3.593
MS.128         	19.415         	3.638
MS.129         	19.377         	3.599
MS.130         	19.337         	3.617
MS.131         	19.3           	3.597
MS.132         	19.26          	3.587
MS.133         	19.222         	3.597
MS.134         	19.182         	3.642
MS.135         	19.145         	3.597
MS.136         	19.108         	3.541
MS.137         	19.067         	3.545
MS.138         	19.03          	3.593
MS.139         	18.993         	3.577
MS.140         	18.955         	3.591
MS.141         	18.917         	3.543
MS.142         	18.88          	3.565
MS.143         	18.842         	3.541
MS.144         	18.802         	3.505
MS.145         	18.765         	3.509
MS.146         	18.727         	3.474
MS.147         	18.69          	3.531
MS.148         	18.655         	3.48
MS.149         	18.618         	3.482
MS.150         	18.58          	3.464
MS.151         	18.542         	3.491
MS.152         	18.505         	3.47
MS.153         	18.467         	3.462
MS.154         	18.432         	3.438
MS.155         	18.395         	3.426
MS.156         	18.358         	3.442
MS.157         	18.32          	3.428
MS.158         	18.285         	3.432
MS.159         	18.247         	3.394
MS.160         	18.212         	3.434
MS.161         	18.175         	3.422
MS.162         	18.137         	3.418
MS.163         	18.102         	3.408
MS.164         	18.067         	3.396
MS.165         	18.03          	3.408
MS.166         	17.995         	3.394
MS.167         	17.958         	3.38
MS.168         	17.922         	3.372
MS.169         	17.887         	3.396
MS.170         	17.85          	3.392
MS.171         	17.815         	3.368
MS.172         	17.78          	3.376
MS.173         	17.745         	3.378
MS.174         	17.708         	3.331
MS.175         	17.672         	3.384
MS.176         	17.637         	3.368
MS.177         	17.602         	3.35
MS.178         	17.567         	3.374
MS.179         	17.532         	3.36
MS.180         	17.497         	3.35
MS.181         	17.462         	3.368
MS.182         	17.427         	3.36
MS.183         	17.392         	3.323
MS.184         	17.358         	3.372
MS.185         	17.323         	3.339
MS.186         	17.288         	3.291
MS.187         	17.255         	3.327
MS.188         	17.22          	3.315
MS.189         	17.185         	3.317
MS.190         	17.15          	3.329
MS.191         	17.118         	3.329
MS.192         	17.083         	3.35
MS.193         	17.047         	3.269
MS.194         	17.015         	3.305
MS.195         	16.98          	3.317
MS.196         	16.948         	3.329
MS.197         	16.913         	3.279
MS.198         	16.878         	3.289
MS.199         	16.845         	3.285
MS.200         	16.812         	3.289
MS.201         	16.778         	3.313
MS.202         	16.745         	3.299
MS.203         	16.71          	3.323
MS.204         	16.677         	3.188
MS.205         	16.645         	3.235
MS.206         	16.61          	3.269
MS.207         	16.577         	3.269
MS.208         	16.545         	3.241
MS.209         	16.512         	3.287
MS.210         	16.477         	3.227
MS.211         	16.445         	3.263
MS.212         	16.413         	3.255
MS.213         	16.38          	3.243
MS.214         	16.347         	3.239
MS.215         	16.315         	3.211
MS.216         	16.282         	3.148
MS.217         	16.25          	3.1
MS.218         	16.217         	3.221
MS.219         	16.185         	3.112
MS.220         	16.153         	3.178
MS.221         	16.12          	3.188
MS.222         	16.087         	3.19
MS.223         	16.055         	3.084
MS.224         	16.022         	3.033
MS.225         	15.992         	3.021
MS.226         	15.96          	3.11
MS.227         	15.927         	3.013
MS.228         	15.895         	3.007
MS.229         	15.865         	3.053
MS.230         	15.832         	3.035
MS.231         	15.8           	2.993
MS.232         	15.77          	2.987
MS.233         	15.737         	2.957
MS.234         	15.705         	3.011
MS.235         	15.675         	2.947
MS.236         	15.642         	2.929
MS.237         	15.612         	2.884
MS.238         	15.58          	2.894
MS.239         	15.55          	2.945
MS.240         	15.52          	2.937
MS.241         	15.487         	2.917
MS.242         	15.457         	2.864
MS.243         	15.425         	2.832
MS.244         	15.395         	2.782
MS.245         	15.365         	2.822
MS.246         	15.332         	2.798
MS.247         	15.302         	2.798
MS.248         	15.273         	2.836
MS.249         	15.242         	2.699
MS.250         	15.212         	2.729
MS.251         	15.18          	2.753
MS.252         	15.15          	2.806
MS.253         	15.12          	2.691
MS.254         	15.09          	2.687
MS.255         	15.06          	2.735
MS.256         	15.03          	2.743
MS.257         	15             	2.655
MS.258         	14.97          	2.701
MS.259         	14.94          	2.576
MS.260         	14.91          	2.641
MS.261         	14.88          	2.612
MS.262         	14.85          	2.564
MS.263         	14.82          	2.566
MS.264         	14.792         	2.467
MS.265         	14.762         	2.534
MS.266         	14.733         	2.431
MS.267         	14.702         	2.379
MS.268         	14.672         	2.292
MS.269         	14.645         	2.395
MS.270         	14.615         	2.334
MS.271         	14.585         	2.32
MS.272         	14.557         	2.286
MS.273         	14.527         	2.284
MS.274         	14.497         	2.302
MS.275         	14.47          	2.242
MS.276         	14.44          	2.161
MS.277         	14.412         	2.246
MS.278         	14.382         	2.147
MS.279         	14.355         	2.191
MS.280         	14.325         	2.141
MS.281         	14.297         	2.181
MS.282         	14.267         	2.127
MS.283         	14.24          	2.06
MS.284         	14.212         	2.042
MS.285         	14.182         	2.022
MS.286         	14.155         	2.032
MS.287         	14.127         	2.042
MS.288         	14.097         	1.922
MS.289         	14.07          	1.964
MS.290         	14.042         	1.99
MS.291         	14.015         	1.877
MS.292         	13.985         	1.873
MS.293         	13.957         	1.948
MS.294         	13.93          	1.928
MS.295         	13.903         	1.811
MS.296         	13.875         	1.776
MS.297         	13.847         	1.797
MS.298         	13.82          	1.682
MS.299         	13.792         	1.764
MS.300         	13.765         	1.785
MS.301         	13.737         	1.676
MS.302         	13.71          	1.654
MS.303         	13.682         	1.648
MS.304         	13.655         	1.631
MS.305         	13.627         	1.64
MS.306         	13.6           	1.579
MS.307         	13.572         	1.66
MS.308         	13.545         	1.593
MS.309         	13.517         	1.541
MS.310         	13.492         	1.537
MS.311         	13.465         	1.555
MS.312         	13.438         	1.474
MS.313         	13.41          	1.517
MS.314         	13.385         	1.464
MS.315         	13.358         	1.484
MS.316         	13.33          	1.446
MS.317         	13.305         	1.428
MS.318         	13.278         	1.44
MS.319         	13.25          	1.478
MS.320         	13.225         	1.468
MS.321         	13.197         	1.37
MS.322         	13.172         	1.412
MS.323         	13.145         	1.374
MS.324         	13.12          	1.347
MS.325         	13.092         	1.303
MS.326         	13.068         	1.323
MS.327         	13.04          	1.261
MS.328         	13.015         	1.319
MS.329         	12.987         	1.208
MS.330         	12.962         	1.223
MS.331         	12.938         	1.237
MS.332         	12.91          	1.245
MS.333         	12.885         	1.251
MS.334         	12.86          	1.208
MS.335         	12.832         	1.156
MS.336         	12.807         	1.16
MS.337         	12.782         	1.223
MS.338         	12.757         	1.126
MS.339         	12.73          	1.144
MS.340         	12.705         	1.068
MS.341         	12.68          	1.096
MS.342         	12.655         	1.068
MS.343         	12.63          	0.977
MS.344         	12.605         	0.908
MS.345         	12.58          	1.011
MS.346         	12.555         	0.914
MS.347         	12.53          	0.904
MS.348         	12.505         	0.85
MS.349         	12.48          	0.896
MS.350         	12.455         	0.906
MS.351         	12.43          	0.818
MS.352         	12.405         	0.89
MS.353         	12.38          	0.83
MS.354         	12.355         	0.749
MS.355         	12.33          	0.779
MS.356         	12.305         	0.759
MS.357         	12.28          	0.8
MS.358         	12.257         	0.796
MS.359         	12.233         	0.695
MS.360         	12.207         	0.695
MS.361         	12.182         	0.717
MS.362         	12.16          	0.689
MS.363         	12.135         	0.671
MS.364         	12.11          	0.731
MS.365         	12.085         	0.673
MS.366         	12.062         	0.653
MS.367         	12.037         	0.677
MS.368         	12.012         	0.592
MS.369         	11.99          	0.713
MS.370         	11.965         	0.552
MS.371         	11.943         	0.624
MS.372         	11.917         	0.544
MS.373         	11.895         	0.594
MS.374         	11.87          	0.552
MS.375         	11.847         	0.592
MS.376         	11.822         	0.55
MS.377         	11.8           	0.552
MS.378         	11.775         	0.584
MS.379         	11.752         	0.479
MS.380         	11.73          	0.433
MS.381         	11.705         	0.435
MS.382         	11.682         	0.415
MS.383         	11.657         	0.453
MS.384         	11.635         	0.495
MS.385         	11.613         	0.439
MS.386         	11.59          	0.409
MS.387         	11.565         	0.435
MS.388         	11.542         	0.439
MS.389         	11.52          	0.354
MS.390         	11.497         	0.369
MS.391         	11.472         	0.322
MS.392         	11.45          	0.383
MS.393         	11.427         	0.328
MS.394         	11.405         	0.361
MS.395         	11.382         	0.292
MS.396         	11.36          	0.304
MS.397         	11.337         	0.31
MS.398         	11.315         	0.312
MS.399         	11.292         	0.34
MS.400         	11.27          	0.314
MS.401         	11.247         	0.282
MS.402         	11.225         	0.292
MS.403         	11.202         	0.304
MS.404         	11.18          	0.226
MS.405         	11.157         	0.236
MS.406         	11.135         	0.248
MS.407         	11.113         	0.232
MS.408         	11.09          	0.258
MS.409         	11.068         	0.228
MS.410         	11.045         	0.23
MS.411         	11.023         	0.288
MS.412         	11.002         	0.234
MS.413         	10.98          	0.222
MS.414         	10.957         	0.23
MS.415         	10.935         	0.195
MS.416         	10.915         	0.236
MS.417         	10.892         	0.207
MS.418         	10.87          	0.232
MS.419         	10.85          	0.199
MS.420         	10.827         	0.193
MS.421         	10.805         	0.224
MS.422         	10.785         	0.218
MS.423         	10.762         	0.185
MS.424         	10.74          	0.228
MS.425         	10.72          	0.205
MS.426         	10.698         	0.171
MS.427         	10.677         	0.207
MS.428         	10.655         	0.189
MS.429         	10.635         	0.173
MS.430         	10.613         	0.139
MS.431         	10.592         	0.175
MS.432         	10.57          	0.179
MS.433         	10.55          	0.177
MS.434         	10.528         	0.189
MS.435         	10.507         	0.193
MS.436         	10.485         	0.161
MS.437         	10.465         	0.141
MS.438         	10.445         	0.119
MS.439         	10.422         	0.133
MS.440         	10.403         	0.155
MS.441         	10.382         	0.103
MS.442         	10.36          	0.181
MS.443         	10.34          	0.143
MS.444         	10.32          	0.177
MS.445         	10.3           	0.123
MS.446         	10.278         	0.121
MS.447         	10.257         	0.103
MS.448         	10.238         	0.147
MS.449         	10.217         	0.101
MS.450         	10.198         	0.103
MS.451         	10.175         	0.105
MS.452         	10.155         	0.093
MS.453         	10.135         	0.099
MS.454         	10.115         	0.109
MS.455         	10.095         	0.101
MS.456         	10.075         	0.099
MS.457         	10.055         	0.089
MS.458         	10.035         	0.095
MS.459         	10.015         	0.097
MS.460         	9.995          	0.07
MS.461         	9.975          	0.091
MS.462         	9.955          	0.081
MS.463         	9.935          	0.091
MS.464         	9.915          	0.089
MS.465         	9.895          	0.081
MS.466         	9.875          	0.085
MS.467         	9.855          	0.079
MS.468         	9.835          	0.099
MS.469         	9.818          	0.079
MS.470         	9.797          	0.087
MS.471         	9.778          	0.087
MS.472         	9.757          	0.07
MS.473         	9.738          	0.079
MS.474         	9.717          	0.075
MS.475         	9.7            	0.089
MS.476         	9.68           	0.097
MS.477         	9.66           	0.075
MS.478         	9.64           	0.085
MS.479         	9.622          	0.073
MS.480         	9.602          	0.073
MS.481         	9.582          	0.093
MS.482         	9.565          	0.073
MS.483         	9.545          	0.073
MS.484         	9.525          	0.079
MS.485         	9.507          	0.073
MS.486         	9.488          	0.07
MS.487         	9.47           	0.075
MS.488         	9.45           	0.077
MS.489         	9.432          	0.075
MS.490         	9.412          	0.073
MS.491         	9.395          	0.068
MS.492         	9.375          	0.077
MS.493         	9.358          	0.073
MS.494         	9.337          	0.079
MS.495         	9.32           	0.075
MS.496         	9.3            	0.073
MS.497         	9.283          	0.073
MS.498         	9.262          	0.075
MS.499         	9.245          	0.075
MS.500         	9.225          	0.073
MS.501         	9.207          	0.077
