File:              	C:\Qtrac\Data\Daniel M Sørensen\MScan multicentre study\Data from centres\Ankara\Processed data\BCC00320C.QZD
Name:              	TR.ANK.NC.2.1
Protocol:          	MSCAN-R2
Date:              	20/3/20
Start time:        	15:29:45
Age:               	54
Sex:               	m
Temperature:
S/R sites:         	TA
NC/disease:        	N
Operator:          	eb
Comments:
M-SCAN DATA (7.6-1m)
Scanpts: 48, 52, 623, 628
Stim. (mA)     	Amp. (mV)
MS.1           	27             	6.002
MS.2           	27             	6.01
MS.3           	27             	6.028
MS.4           	27             	5.951
MS.5           	27             	6.017
MS.6           	27             	5.947
MS.7           	27             	6.014
MS.8           	27             	5.997
MS.9           	27             	6.023
MS.10          	27             	5.991
MS.11          	27             	6.06
MS.12          	27             	5.986
MS.13          	27             	5.98
MS.14          	27             	5.994
MS.15          	27             	6.024
MS.16          	27             	5.991
MS.17          	27             	6.078
MS.18          	27             	6.039
MS.19          	27             	5.994
MS.20          	27             	6.084
MS.21          	27             	6.075
MS.22          	27             	6.102
MS.23          	27             	6.069
MS.24          	26.892         	6.124
MS.25          	26.837         	5.934
MS.26          	26.785         	5.967
MS.27          	26.73          	5.916
MS.28          	26.677         	5.919
MS.29          	26.625         	5.865
MS.30          	26.573         	5.934
MS.31          	26.517         	6.024
MS.32          	26.465         	5.981
MS.33          	26.412         	6.035
MS.34          	26.36          	6.019
MS.35          	26.307         	6.031
MS.36          	26.255         	6.045
MS.37          	26.202         	6.035
MS.38          	26.15          	6.06
MS.39          	26.097         	6.071
MS.40          	26.045         	6.101
MS.41          	25.993         	6.079
MS.42          	25.94          	6.05
MS.43          	25.89          	6.017
MS.44          	25.837         	6.025
MS.45          	25.785         	6.078
MS.46          	25.735         	6.031
MS.47          	25.682         	6.003
MS.48          	25.632         	6.035
MS.49          	25.58          	5.996
MS.50          	25.53          	6.002
MS.51          	25.477         	6.023
MS.52          	25.427         	5.985
MS.53          	25.377         	6.018
MS.54          	25.325         	5.936
MS.55          	25.275         	5.963
MS.56          	25.225         	6.042
MS.57          	25.175         	5.983
MS.58          	25.125         	6.044
MS.59          	25.075         	5.953
MS.60          	25.025         	5.977
MS.61          	24.975         	5.969
MS.62          	24.925         	5.94
MS.63          	24.875         	5.948
MS.64          	24.825         	5.885
MS.65          	24.775         	5.996
MS.66          	24.725         	5.967
MS.67          	24.675         	5.872
MS.68          	24.627         	5.946
MS.69          	24.577         	5.996
MS.70          	24.528         	6.003
MS.71          	24.48          	5.957
MS.72          	24.43          	5.896
MS.73          	24.382         	5.88
MS.74          	24.332         	5.93
MS.75          	24.285         	5.845
MS.76          	24.235         	5.905
MS.77          	24.188         	5.847
MS.78          	24.14          	5.928
MS.79          	24.09          	5.906
MS.80          	24.042         	5.883
MS.81          	23.995         	5.963
MS.82          	23.948         	5.907
MS.83          	23.9           	5.897
MS.84          	23.85          	5.847
MS.85          	23.802         	5.835
MS.86          	23.755         	5.847
MS.87          	23.707         	5.825
MS.88          	23.66          	5.822
MS.89          	23.615         	5.911
MS.90          	23.567         	5.848
MS.91          	23.52          	5.865
MS.92          	23.472         	5.867
MS.93          	23.425         	5.909
MS.94          	23.38          	5.885
MS.95          	23.332         	5.79
MS.96          	23.285         	5.903
MS.97          	23.24          	5.825
MS.98          	23.192         	5.776
MS.99          	23.145         	5.84
MS.100         	23.1           	5.844
MS.101         	23.055         	5.784
MS.102         	23.007         	5.748
MS.103         	22.962         	5.839
MS.104         	22.915         	5.824
MS.105         	22.87          	5.826
MS.106         	22.825         	5.737
MS.107         	22.78          	5.813
MS.108         	22.733         	5.688
MS.109         	22.688         	5.73
MS.110         	22.642         	5.825
MS.111         	22.597         	5.737
MS.112         	22.552         	5.874
MS.113         	22.507         	5.809
MS.114         	22.462         	5.665
MS.115         	22.417         	5.789
MS.116         	22.372         	5.846
MS.117         	22.327         	5.763
MS.118         	22.282         	5.704
MS.119         	22.237         	5.698
MS.120         	22.195         	5.657
MS.121         	22.15          	5.646
MS.122         	22.105         	5.713
MS.123         	22.062         	5.645
MS.124         	22.017         	5.609
MS.125         	21.972         	5.657
MS.126         	21.93          	5.552
MS.127         	21.885         	5.63
MS.128         	21.842         	5.607
MS.129         	21.797         	5.543
MS.130         	21.755         	5.527
MS.131         	21.712         	5.597
MS.132         	21.667         	5.54
MS.133         	21.625         	5.51
MS.134         	21.583         	5.541
MS.135         	21.538         	5.46
MS.136         	21.495         	5.49
MS.137         	21.452         	5.438
MS.138         	21.41          	5.447
MS.139         	21.368         	5.405
MS.140         	21.325         	5.303
MS.141         	21.282         	5.238
MS.142         	21.24          	5.31
MS.143         	21.198         	5.223
MS.144         	21.155         	5.22
MS.145         	21.112         	5.259
MS.146         	21.07          	5.243
MS.147         	21.028         	5.179
MS.148         	20.985         	5.156
MS.149         	20.942         	5.178
MS.150         	20.903         	5.243
MS.151         	20.86          	5.048
MS.152         	20.817         	5.037
MS.153         	20.778         	4.956
MS.154         	20.735         	4.983
MS.155         	20.695         	4.802
MS.156         	20.653         	4.779
MS.157         	20.61          	4.705
MS.158         	20.57          	4.574
MS.159         	20.53          	4.755
MS.160         	20.487         	4.651
MS.161         	20.448         	4.677
MS.162         	20.405         	4.447
MS.163         	20.365         	4.482
MS.164         	20.325         	4.573
MS.165         	20.285         	4.508
MS.166         	20.243         	4.52
MS.167         	20.202         	4.547
MS.168         	20.163         	4.377
MS.169         	20.122         	4.406
MS.170         	20.083         	4.249
MS.171         	20.042         	4.341
MS.172         	20.002         	4.148
MS.173         	19.962         	4.207
MS.174         	19.922         	4.185
MS.175         	19.882         	4.277
MS.176         	19.842         	4.119
MS.177         	19.802         	4.122
MS.178         	19.762         	4.181
MS.179         	19.725         	3.99
MS.180         	19.685         	4.065
MS.181         	19.645         	3.884
MS.182         	19.605         	3.956
MS.183         	19.567         	3.87
MS.184         	19.528         	3.866
MS.185         	19.487         	3.752
MS.186         	19.45          	3.766
MS.187         	19.41          	3.796
MS.188         	19.372         	3.79
MS.189         	19.333         	3.684
MS.190         	19.295         	3.689
MS.191         	19.255         	3.678
MS.192         	19.217         	3.567
MS.193         	19.18          	3.495
MS.194         	19.14          	3.552
MS.195         	19.102         	3.636
MS.196         	19.065         	3.551
MS.197         	19.028         	3.374
MS.198         	18.987         	3.418
MS.199         	18.95          	3.376
MS.200         	18.913         	3.384
MS.201         	18.875         	3.352
MS.202         	18.837         	3.378
MS.203         	18.8           	3.302
MS.204         	18.762         	3.309
MS.205         	18.725         	3.184
MS.206         	18.688         	3.073
MS.207         	18.65          	3.226
MS.208         	18.612         	3.231
MS.209         	18.575         	3.169
MS.210         	18.538         	3.085
MS.211         	18.5           	3.202
MS.212         	18.465         	3.184
MS.213         	18.427         	3.099
MS.214         	18.39          	3.04
MS.215         	18.352         	3.173
MS.216         	18.317         	3.14
MS.217         	18.28          	3.019
MS.218         	18.245         	3.137
MS.219         	18.208         	2.92
MS.220         	18.17          	3.052
MS.221         	18.135         	3.055
MS.222         	18.097         	2.925
MS.223         	18.062         	2.953
MS.224         	18.028         	2.926
MS.225         	17.99          	2.852
MS.226         	17.955         	2.899
MS.227         	17.917         	2.913
MS.228         	17.882         	2.795
MS.229         	17.847         	2.938
MS.230         	17.812         	2.789
MS.231         	17.775         	2.833
MS.232         	17.74          	2.825
MS.233         	17.705         	2.771
MS.234         	17.67          	2.711
MS.235         	17.635         	2.688
MS.236         	17.6           	2.665
MS.237         	17.562         	2.76
MS.238         	17.528         	2.711
MS.239         	17.493         	2.761
MS.240         	17.458         	2.585
MS.241         	17.422         	2.631
MS.242         	17.39          	2.699
MS.243         	17.355         	2.697
MS.244         	17.32          	2.584
MS.245         	17.285         	2.69
MS.246         	17.25          	2.421
MS.247         	17.215         	2.633
MS.248         	17.182         	2.603
MS.249         	17.147         	2.544
MS.250         	17.112         	2.531
MS.251         	17.077         	2.528
MS.252         	17.045         	2.354
MS.253         	17.01          	2.281
MS.254         	16.977         	2.332
MS.255         	16.942         	2.385
MS.256         	16.91          	2.225
MS.257         	16.875         	2.418
MS.258         	16.842         	2.312
MS.259         	16.807         	2.285
MS.260         	16.775         	2.175
MS.261         	16.74          	2.267
MS.262         	16.708         	2.109
MS.263         	16.672         	2.07
MS.264         	16.64          	2.092
MS.265         	16.608         	2.091
MS.266         	16.575         	2.233
MS.267         	16.54          	2.035
MS.268         	16.507         	1.873
MS.269         	16.475         	2.037
MS.270         	16.442         	1.832
MS.271         	16.41          	1.832
MS.272         	16.378         	1.818
MS.273         	16.342         	1.858
MS.274         	16.31          	1.766
MS.275         	16.278         	1.758
MS.276         	16.245         	1.718
MS.277         	16.212         	1.741
MS.278         	16.18          	1.648
MS.279         	16.147         	1.591
MS.280         	16.118         	1.537
MS.281         	16.085         	1.487
MS.282         	16.052         	1.564
MS.283         	16.02          	1.454
MS.284         	15.987         	1.483
MS.285         	15.955         	1.355
MS.286         	15.925         	1.322
MS.287         	15.892         	1.422
MS.288         	15.86          	1.323
MS.289         	15.83          	1.379
MS.290         	15.797         	1.417
MS.291         	15.765         	1.224
MS.292         	15.735         	1.279
MS.293         	15.702         	1.221
MS.294         	15.672         	1.249
MS.295         	15.64          	1.263
MS.296         	15.61          	1.122
MS.297         	15.577         	1.122
MS.298         	15.547         	1.053
MS.299         	15.515         	1.118
MS.300         	15.485         	1.093
MS.301         	15.452         	1.023
MS.302         	15.422         	0.959
MS.303         	15.392         	0.951
MS.304         	15.36          	0.995
MS.305         	15.33          	0.933
MS.306         	15.3           	0.9
MS.307         	15.27          	0.894
MS.308         	15.237         	0.872
MS.309         	15.207         	0.861
MS.310         	15.177         	0.795
MS.311         	15.148         	0.808
MS.312         	15.117         	0.856
MS.313         	15.087         	0.735
MS.314         	15.057         	0.762
MS.315         	15.027         	0.713
MS.316         	14.997         	0.742
MS.317         	14.967         	0.649
MS.318         	14.938         	0.685
MS.319         	14.907         	0.712
MS.320         	14.877         	0.657
MS.321         	14.847         	0.652
MS.322         	14.818         	0.654
MS.323         	14.787         	0.585
MS.324         	14.757         	0.612
MS.325         	14.73          	0.581
MS.326         	14.7           	0.582
MS.327         	14.67          	0.543
MS.328         	14.64          	0.574
MS.329         	14.612         	0.562
MS.330         	14.582         	0.564
MS.331         	14.552         	0.496
MS.332         	14.525         	0.47
MS.333         	14.495         	0.483
MS.334         	14.467         	0.465
MS.335         	14.438         	0.511
MS.336         	14.407         	0.446
MS.337         	14.38          	0.457
MS.338         	14.35          	0.438
MS.339         	14.322         	0.448
MS.340         	14.295         	0.421
MS.341         	14.265         	0.433
MS.342         	14.237         	0.399
MS.343         	14.207         	0.417
MS.344         	14.18          	0.414
MS.345         	14.153         	0.377
MS.346         	14.122         	0.387
MS.347         	14.095         	0.371
MS.348         	14.068         	0.387
MS.349         	14.04          	0.375
MS.350         	14.01          	0.3
MS.351         	13.983         	0.315
MS.352         	13.955         	0.336
MS.353         	13.927         	0.325
MS.354         	13.9           	0.312
MS.355         	13.872         	0.366
MS.356         	13.842         	0.304
MS.357         	13.815         	0.339
MS.358         	13.787         	0.292
MS.359         	13.76          	0.308
MS.360         	13.733         	0.293
MS.361         	13.705         	0.265
MS.362         	13.677         	0.276
MS.363         	13.653         	0.226
MS.364         	13.625         	0.24
MS.365         	13.597         	0.26
MS.366         	13.57          	0.24
MS.367         	13.542         	0.245
MS.368         	13.515         	0.223
MS.369         	13.487         	0.237
MS.370         	13.462         	0.265
MS.371         	13.435         	0.221
MS.372         	13.407         	0.243
MS.373         	13.38          	0.223
MS.374         	13.355         	0.217
MS.375         	13.327         	0.222
MS.376         	13.3           	0.206
MS.377         	13.275         	0.205
MS.378         	13.247         	0.195
MS.379         	13.222         	0.178
MS.380         	13.195         	0.2
MS.381         	13.167         	0.22
MS.382         	13.142         	0.199
MS.383         	13.115         	0.178
MS.384         	13.09          	0.197
MS.385         	13.062         	0.193
MS.386         	13.037         	0.183
MS.387         	13.012         	0.155
MS.388         	12.985         	0.184
MS.389         	12.96          	0.162
MS.390         	12.932         	0.188
MS.391         	12.907         	0.17
MS.392         	12.882         	0.159
MS.393         	12.858         	0.155
MS.394         	12.83          	0.142
MS.395         	12.805         	0.192
MS.396         	12.78          	0.162
MS.397         	12.755         	0.131
MS.398         	12.727         	0.156
MS.399         	12.702         	0.132
MS.400         	12.677         	0.127
MS.401         	12.653         	0.122
MS.402         	12.627         	0.125
MS.403         	12.602         	0.12
MS.404         	12.577         	0.129
MS.405         	12.552         	0.117
MS.406         	12.528         	0.126
MS.407         	12.502         	0.116
MS.408         	12.477         	0.115
MS.409         	12.452         	0.104
MS.410         	12.427         	0.123
MS.411         	12.403         	0.117
MS.412         	12.377         	0.118
MS.413         	12.352         	0.114
MS.414         	12.327         	0.104
MS.415         	12.302         	0.106
MS.416         	12.278         	0.117
MS.417         	12.255         	0.111
MS.418         	12.23          	0.11
MS.419         	12.205         	0.122
MS.420         	12.18          	0.111
MS.421         	12.155         	0.122
MS.422         	12.132         	0.112
MS.423         	12.108         	0.103
MS.424         	12.082         	0.112
MS.425         	12.06          	0.094
MS.426         	12.035         	0.111
MS.427         	12.01          	0.104
MS.428         	11.988         	0.098
MS.429         	11.962         	0.093
MS.430         	11.94          	0.096
MS.431         	11.915         	0.096
MS.432         	11.892         	0.104
MS.433         	11.867         	0.107
MS.434         	11.845         	0.107
MS.435         	11.82          	0.096
MS.436         	11.797         	0.103
MS.437         	11.773         	0.103
MS.438         	11.75          	0.093
MS.439         	11.727         	0.107
MS.440         	11.702         	0.094
MS.441         	11.68          	0.094
MS.442         	11.655         	0.1
MS.443         	11.632         	0.096
MS.444         	11.61          	0.082
MS.445         	11.587         	0.094
MS.446         	11.562         	0.088
MS.447         	11.54          	0.094
MS.448         	11.517         	0.088
MS.449         	11.495         	0.085
MS.450         	11.47          	0.088
MS.451         	11.447         	0.09
MS.452         	11.425         	0.084
MS.453         	11.403         	0.089
MS.454         	11.38          	0.089
MS.455         	11.358         	0.084
MS.456         	11.335         	0.083
MS.457         	11.312         	0.092
MS.458         	11.29          	0.082
MS.459         	11.267         	0.09
MS.460         	11.245         	0.085
MS.461         	11.222         	0.084
MS.462         	11.2           	0.087
MS.463         	11.177         	0.09
MS.464         	11.155         	0.079
MS.465         	11.132         	0.087
MS.466         	11.11          	0.088
MS.467         	11.087         	0.085
MS.468         	11.065         	0.081
MS.469         	11.042         	0.084
MS.470         	11.023         	0.088
MS.471         	11             	0.085
MS.472         	10.977         	0.084
MS.473         	10.955         	0.084
MS.474         	10.932         	0.079
MS.475         	10.912         	0.079
MS.476         	10.89          	0.083
MS.477         	10.867         	0.078
MS.478         	10.847         	0.09
MS.479         	10.825         	0.088
MS.480         	10.802         	0.088
MS.481         	10.782         	0.089
MS.482         	10.76          	0.089
MS.483         	10.738         	0.081
MS.484         	10.717         	0.087
MS.485         	10.695         	0.083
MS.486         	10.675         	0.082
MS.487         	10.653         	0.084
MS.488         	10.632         	0.082
MS.489         	10.61          	0.083
MS.490         	10.59          	0.084
MS.491         	10.568         	0.089
MS.492         	10.547         	0.085
MS.493         	10.525         	0.087
MS.494         	10.505         	0.085
MS.495         	10.485         	0.082
MS.496         	10.462         	0.088
MS.497         	10.443         	0.083
MS.498         	10.42          	0.083
MS.499         	10.4           	0.085
MS.500         	10.38          	0.085
MS.501         	10.36          	0.084
