File:              	C:\Qtrac\Data\Daniel M Sørensen\MScan multicentre study\Data from centres\Aarhus\Processed data\DMSB91206C.QZD
Name:              	DK.AAR.NC.9.1
Protocol:          	MSCAN-R2
Date:              	6/12/19
Start time:        	10:39:51
Age:               	74
Sex:               	m
Temperature:       	32,7
S/R sites:         	TA
NC/disease:        	Control
Operator:          	DS
Comments:
M-SCAN DATA (5.6-0.0m)
Scanpts: 8, 18, 751, 774
Stim. (mA)     	Amp. (mV)
MS.1           	37.5           	4.498
MS.2           	37.5           	4.602
MS.3           	37.35          	4.576
MS.4           	37.2           	4.522
MS.5           	37.127         	4.504
MS.6           	37.052         	4.622
MS.7           	36.978         	4.51
MS.8           	36.905         	4.526
MS.9           	36.83          	4.536
MS.10          	36.757         	4.524
MS.11          	36.685         	4.486
MS.12          	36.61          	4.506
MS.13          	36.537         	4.459
MS.14          	36.465         	4.5
MS.15          	36.392         	4.451
MS.16          	36.32          	4.502
MS.17          	36.247         	4.516
MS.18          	36.175         	4.475
MS.19          	36.103         	4.532
MS.20          	36.03          	4.455
MS.21          	35.958         	4.473
MS.22          	35.885         	4.512
MS.23          	35.815         	4.488
MS.24          	35.743         	4.427
MS.25          	35.67          	4.49
MS.26          	35.6           	4.52
MS.27          	35.528         	4.506
MS.28          	35.458         	4.56
MS.29          	35.388         	4.451
MS.30          	35.315         	4.522
MS.31          	35.245         	4.512
MS.32          	35.175         	4.469
MS.33          	35.105         	4.441
MS.34          	35.035         	4.482
MS.35          	34.965         	4.433
MS.36          	34.895         	4.504
MS.37          	34.825         	4.488
MS.38          	34.755         	4.475
MS.39          	34.685         	4.449
MS.40          	34.618         	4.465
MS.41          	34.548         	4.52
MS.42          	34.478         	4.49
MS.43          	34.41          	4.433
MS.44          	34.34          	4.455
MS.45          	34.272         	4.532
MS.46          	34.205         	4.457
MS.47          	34.135         	4.451
MS.48          	34.068         	4.445
MS.49          	34             	4.443
MS.50          	33.93          	4.443
MS.51          	33.862         	4.463
MS.52          	33.795         	4.514
MS.53          	33.728         	4.453
MS.54          	33.66          	4.405
MS.55          	33.592         	4.425
MS.56          	33.528         	4.423
MS.57          	33.46          	4.401
MS.58          	33.392         	4.397
MS.59          	33.325         	4.427
MS.60          	33.26          	4.439
MS.61          	33.193         	4.365
MS.62          	33.127         	4.387
MS.63          	33.06          	4.349
MS.64          	32.995         	4.32
MS.65          	32.927         	4.421
MS.66          	32.862         	4.336
MS.67          	32.798         	4.395
MS.68          	32.732         	4.395
MS.69          	32.665         	4.355
MS.70          	32.6           	4.288
MS.71          	32.535         	4.351
MS.72          	32.47          	4.341
MS.73          	32.405         	4.322
MS.74          	32.34          	4.359
MS.75          	32.278         	4.349
MS.76          	32.212         	4.296
MS.77          	32.147         	4.294
MS.78          	32.083         	4.314
MS.79          	32.02          	4.318
MS.80          	31.955         	4.336
MS.81          	31.892         	4.341
MS.82          	31.827         	4.399
MS.83          	31.765         	4.33
MS.84          	31.7           	4.222
MS.85          	31.637         	4.278
MS.86          	31.575         	4.276
MS.87          	31.51          	4.238
MS.88          	31.448         	4.22
MS.89          	31.385         	4.236
MS.90          	31.323         	4.28
MS.91          	31.26          	4.216
MS.92          	31.198         	4.244
MS.93          	31.135         	4.274
MS.94          	31.073         	4.238
MS.95          	31.01          	4.282
MS.96          	30.95          	4.242
MS.97          	30.887         	4.193
MS.98          	30.825         	4.202
MS.99          	30.762         	4.29
MS.100         	30.702         	4.244
MS.101         	30.64          	4.185
MS.102         	30.58          	4.228
MS.103         	30.517         	4.268
MS.104         	30.457         	4.163
MS.105         	30.397         	4.204
MS.106         	30.335         	4.218
MS.107         	30.275         	4.169
MS.108         	30.215         	4.206
MS.109         	30.155         	4.24
MS.110         	30.095         	4.191
MS.111         	30.035         	4.206
MS.112         	29.975         	4.23
MS.113         	29.915         	4.165
MS.114         	29.855         	4.173
MS.115         	29.795         	4.21
MS.116         	29.735         	4.141
MS.117         	29.675         	4.185
MS.118         	29.617         	4.198
MS.119         	29.557         	4.171
MS.120         	29.497         	4.159
MS.121         	29.44          	4.093
MS.122         	29.38          	4.117
MS.123         	29.323         	4.107
MS.124         	29.262         	4.139
MS.125         	29.205         	4.139
MS.126         	29.147         	4.101
MS.127         	29.087         	4.079
MS.128         	29.03          	4.101
MS.129         	28.972         	4.109
MS.130         	28.915         	4.034
MS.131         	28.858         	4.117
MS.132         	28.8           	4.028
MS.133         	28.743         	4.036
MS.134         	28.685         	3.932
MS.135         	28.627         	4.042
MS.136         	28.57          	4.01
MS.137         	28.512         	4.083
MS.138         	28.455         	4.105
MS.139         	28.397         	4.067
MS.140         	28.342         	4.052
MS.141         	28.285         	4.006
MS.142         	28.227         	4.02
MS.143         	28.172         	4.061
MS.144         	28.115         	4.075
MS.145         	28.06          	4.048
MS.146         	28.002         	4.087
MS.147         	27.948         	4.038
MS.148         	27.892         	4.105
MS.149         	27.835         	4.008
MS.150         	27.78          	4.061
MS.151         	27.725         	4.042
MS.152         	27.67          	4.004
MS.153         	27.615         	3.946
MS.154         	27.56          	3.964
MS.155         	27.505         	4.012
MS.156         	27.45          	4.044
MS.157         	27.395         	3.93
MS.158         	27.34          	3.926
MS.159         	27.285         	3.932
MS.160         	27.23          	4.002
MS.161         	27.175         	3.911
MS.162         	27.122         	3.962
MS.163         	27.067         	3.946
MS.164         	27.012         	3.869
MS.165         	26.96          	3.895
MS.166         	26.905         	3.942
MS.167         	26.852         	3.805
MS.168         	26.797         	3.956
MS.169         	26.745         	3.901
MS.170         	26.692         	3.92
MS.171         	26.637         	3.893
MS.172         	26.585         	3.924
MS.173         	26.532         	3.837
MS.174         	26.477         	3.809
MS.175         	26.425         	3.857
MS.176         	26.372         	3.783
MS.177         	26.32          	3.877
MS.178         	26.267         	3.809
MS.179         	26.215         	3.865
MS.180         	26.162         	3.863
MS.181         	26.11          	3.787
MS.182         	26.057         	3.795
MS.183         	26.005         	3.758
MS.184         	25.955         	3.771
MS.185         	25.903         	3.72
MS.186         	25.85          	3.787
MS.187         	25.8           	3.766
MS.188         	25.747         	3.815
MS.189         	25.695         	3.764
MS.190         	25.645         	3.726
MS.191         	25.592         	3.726
MS.192         	25.542         	3.76
MS.193         	25.493         	3.728
MS.194         	25.44          	3.748
MS.195         	25.39          	3.734
MS.196         	25.34          	3.73
MS.197         	25.288         	3.698
MS.198         	25.237         	3.764
MS.199         	25.188         	3.748
MS.200         	25.137         	3.775
MS.201         	25.087         	3.777
MS.202         	25.038         	3.762
MS.203         	24.987         	3.752
MS.204         	24.938         	3.702
MS.205         	24.887         	3.742
MS.206         	24.837         	3.662
MS.207         	24.788         	3.716
MS.208         	24.737         	3.692
MS.209         	24.688         	3.724
MS.210         	24.64          	3.726
MS.211         	24.59          	3.734
MS.212         	24.54          	3.646
MS.213         	24.493         	3.69
MS.214         	24.442         	3.589
MS.215         	24.395         	3.694
MS.216         	24.345         	3.702
MS.217         	24.297         	3.678
MS.218         	24.247         	3.466
MS.219         	24.2           	3.541
MS.220         	24.153         	3.692
MS.221         	24.102         	3.74
MS.222         	24.055         	3.579
MS.223         	24.007         	3.726
MS.224         	23.96          	3.581
MS.225         	23.91          	3.744
MS.226         	23.862         	3.621
MS.227         	23.815         	3.543
MS.228         	23.767         	3.686
MS.229         	23.72          	3.577
MS.230         	23.672         	3.595
MS.231         	23.625         	3.515
MS.232         	23.577         	3.533
MS.233         	23.532         	3.585
MS.234         	23.485         	3.644
MS.235         	23.438         	3.722
MS.236         	23.39          	3.535
MS.237         	23.345         	3.404
MS.238         	23.297         	3.543
MS.239         	23.25          	3.428
MS.240         	23.205         	3.484
MS.241         	23.157         	3.573
MS.242         	23.112         	3.497
MS.243         	23.065         	3.531
MS.244         	23.02          	3.557
MS.245         	22.972         	3.666
MS.246         	22.927         	3.42
MS.247         	22.882         	3.654
MS.248         	22.835         	3.466
MS.249         	22.79          	3.525
MS.250         	22.745         	3.434
MS.251         	22.7           	3.422
MS.252         	22.655         	3.571
MS.253         	22.608         	3.408
MS.254         	22.562         	3.408
MS.255         	22.517         	3.422
MS.256         	22.472         	3.448
MS.257         	22.427         	3.432
MS.258         	22.385         	3.4
MS.259         	22.34          	3.43
MS.260         	22.295         	3.426
MS.261         	22.25          	3.414
MS.262         	22.205         	3.46
MS.263         	22.16          	3.404
MS.264         	22.118         	3.362
MS.265         	22.073         	3.335
MS.266         	22.028         	3.412
MS.267         	21.985         	3.38
MS.268         	21.94          	3.372
MS.269         	21.897         	3.495
MS.270         	21.852         	3.358
MS.271         	21.81          	3.291
MS.272         	21.765         	3.442
MS.273         	21.722         	3.362
MS.274         	21.68          	3.315
MS.275         	21.635         	3.315
MS.276         	21.592         	3.396
MS.277         	21.55          	3.404
MS.278         	21.505         	3.362
MS.279         	21.462         	3.352
MS.280         	21.42          	3.319
MS.281         	21.377         	3.458
MS.282         	21.335         	3.319
MS.283         	21.292         	3.424
MS.284         	21.25          	3.462
MS.285         	21.208         	3.362
MS.286         	21.165         	3.428
MS.287         	21.122         	3.422
MS.288         	21.08          	3.372
MS.289         	21.038         	3.422
MS.290         	20.995         	3.424
MS.291         	20.955         	3.358
MS.292         	20.913         	3.404
MS.293         	20.87          	3.436
MS.294         	20.83          	3.356
MS.295         	20.788         	3.341
MS.296         	20.745         	3.418
MS.297         	20.705         	3.462
MS.298         	20.663         	3.352
MS.299         	20.622         	3.39
MS.300         	20.58          	3.422
MS.301         	20.54          	3.392
MS.302         	20.497         	3.366
MS.303         	20.458         	3.321
MS.304         	20.417         	3.404
MS.305         	20.375         	3.422
MS.306         	20.335         	3.38
MS.307         	20.295         	3.414
MS.308         	20.252         	3.388
MS.309         	20.212         	3.414
MS.310         	20.172         	3.376
MS.311         	20.132         	3.404
MS.312         	20.092         	3.42
MS.313         	20.052         	3.36
MS.314         	20.012         	3.368
MS.315         	19.972         	3.392
MS.316         	19.932         	3.323
MS.317         	19.892         	3.368
MS.318         	19.852         	3.356
MS.319         	19.812         	3.388
MS.320         	19.772         	3.311
MS.321         	19.735         	3.348
MS.322         	19.695         	3.35
MS.323         	19.655         	3.344
MS.324         	19.615         	3.293
MS.325         	19.577         	3.38
MS.326         	19.538         	3.331
MS.327         	19.497         	3.321
MS.328         	19.46          	3.323
MS.329         	19.42          	3.37
MS.330         	19.382         	3.331
MS.331         	19.342         	3.327
MS.332         	19.305         	3.333
MS.333         	19.265         	3.295
MS.334         	19.227         	3.307
MS.335         	19.19          	3.335
MS.336         	19.15          	3.362
MS.337         	19.112         	3.285
MS.338         	19.075         	3.241
MS.339         	19.035         	3.243
MS.340         	18.997         	3.325
MS.341         	18.96          	3.251
MS.342         	18.922         	3.253
MS.343         	18.885         	3.126
MS.344         	18.847         	3.219
MS.345         	18.81          	3.297
MS.346         	18.772         	3.14
MS.347         	18.735         	3.203
MS.348         	18.698         	3.207
MS.349         	18.66          	3.243
MS.350         	18.622         	3.243
MS.351         	18.585         	3.104
MS.352         	18.547         	3.14
MS.353         	18.51          	3.035
MS.354         	18.472         	3.12
MS.355         	18.438         	2.751
MS.356         	18.4           	2.969
MS.357         	18.362         	2.997
MS.358         	18.327         	3.144
MS.359         	18.29          	3.07
MS.360         	18.253         	3.269
MS.361         	18.217         	2.884
MS.362         	18.18          	3.041
MS.363         	18.145         	2.86
MS.364         	18.108         	2.975
MS.365         	18.073         	2.822
MS.366         	18.035         	2.971
MS.367         	18             	2.912
MS.368         	17.962         	2.929
MS.369         	17.927         	2.874
MS.370         	17.892         	2.747
MS.371         	17.855         	2.826
MS.372         	17.82          	3.076
MS.373         	17.785         	2.796
MS.374         	17.75          	2.778
MS.375         	17.712         	2.751
MS.376         	17.677         	2.767
MS.377         	17.642         	2.641
MS.378         	17.608         	2.645
MS.379         	17.573         	2.723
MS.380         	17.538         	2.757
MS.381         	17.503         	2.548
MS.382         	17.467         	2.576
MS.383         	17.432         	2.665
MS.384         	17.397         	2.669
MS.385         	17.362         	2.707
MS.386         	17.327         	2.6
MS.387         	17.292         	2.616
MS.388         	17.26          	2.596
MS.389         	17.225         	2.502
MS.390         	17.19          	2.675
MS.391         	17.155         	2.514
MS.392         	17.122         	2.528
MS.393         	17.087         	2.695
MS.394         	17.052         	2.616
MS.395         	17.02          	2.49
MS.396         	16.985         	2.494
MS.397         	16.95          	2.616
MS.398         	16.917         	2.564
MS.399         	16.882         	2.502
MS.400         	16.85          	2.544
MS.401         	16.815         	2.641
MS.402         	16.782         	2.532
MS.403         	16.75          	2.52
MS.404         	16.715         	2.461
MS.405         	16.682         	2.457
MS.406         	16.65          	2.528
MS.407         	16.615         	2.391
MS.408         	16.583         	2.453
MS.409         	16.55          	2.473
MS.410         	16.515         	2.399
MS.411         	16.483         	2.473
MS.412         	16.45          	2.546
MS.413         	16.417         	2.405
MS.414         	16.385         	2.449
MS.415         	16.352         	2.447
MS.416         	16.32          	2.32
MS.417         	16.288         	2.494
MS.418         	16.255         	2.469
MS.419         	16.222         	2.407
MS.420         	16.19          	2.395
MS.421         	16.157         	2.346
MS.422         	16.125         	2.359
MS.423         	16.092         	2.477
MS.424         	16.06          	2.278
MS.425         	16.028         	2.397
MS.426         	15.995         	2.332
MS.427         	15.965         	2.302
MS.428         	15.932         	2.147
MS.429         	15.9           	2.272
MS.430         	15.867         	2.373
MS.431         	15.837         	2.185
MS.432         	15.805         	2.143
MS.433         	15.773         	2.218
MS.434         	15.742         	2.228
MS.435         	15.71          	2.159
MS.436         	15.68          	1.901
MS.437         	15.648         	1.96
MS.438         	15.617         	1.895
MS.439         	15.585         	1.952
MS.440         	15.555         	1.881
MS.441         	15.523         	1.942
MS.442         	15.492         	2.153
MS.443         	15.46          	1.913
MS.444         	15.43          	1.807
MS.445         	15.4           	1.833
MS.446         	15.37          	1.74
MS.447         	15.337         	1.847
MS.448         	15.307         	1.742
MS.449         	15.277         	1.71
MS.450         	15.247         	1.74
MS.451         	15.215         	1.674
MS.452         	15.185         	1.615
MS.453         	15.155         	1.557
MS.454         	15.125         	1.629
MS.455         	15.095         	1.613
MS.456         	15.065         	1.597
MS.457         	15.035         	1.74
MS.458         	15.005         	1.501
MS.459         	14.975         	1.579
MS.460         	14.945         	1.609
MS.461         	14.915         	1.499
MS.462         	14.885         	1.527
MS.463         	14.855         	1.478
MS.464         	14.825         	1.448
MS.465         	14.795         	1.462
MS.466         	14.765         	1.462
MS.467         	14.737         	1.434
MS.468         	14.707         	1.402
MS.469         	14.677         	1.482
MS.470         	14.648         	1.426
MS.471         	14.62          	1.388
MS.472         	14.59          	1.497
MS.473         	14.56          	1.422
MS.474         	14.532         	1.38
MS.475         	14.502         	1.499
MS.476         	14.475         	1.434
MS.477         	14.445         	1.349
MS.478         	14.415         	1.374
MS.479         	14.387         	1.331
MS.480         	14.358         	1.253
MS.481         	14.33          	1.311
MS.482         	14.3           	1.388
MS.483         	14.273         	1.168
MS.484         	14.245         	1.279
MS.485         	14.215         	1.206
MS.486         	14.188         	1.128
MS.487         	14.16          	1.176
MS.488         	14.13          	1.309
MS.489         	14.102         	1.172
MS.490         	14.075         	1.138
MS.491         	14.045         	1.138
MS.492         	14.017         	1.227
MS.493         	13.99          	1.07
MS.494         	13.962         	1.144
MS.495         	13.935         	1.09
MS.496         	13.905         	1.142
MS.497         	13.877         	1.122
MS.498         	13.85          	1.076
MS.499         	13.822         	1.106
MS.500         	13.795         	1.142
MS.501         	13.767         	1.047
