File:              	C:\Qtrac\Data\Daniel M Sørensen\MScan multicentre study\Data from centres\Aarhus\Processed data\DMSB91217C.QZD
Name:              	DK.AAR.NC.8.2
Protocol:          	MSCAN-R2
Date:              	17/12/19
Start time:        	12:09:48
Age:               	75
Sex:               	m
Temperature:       	35,6
S/R sites:         	TA
NC/disease:        	Control
Operator:          	DS
Comments:
M-SCAN DATA (9.4-2.1m)
Scanpts: 12, 18, 756, 777
Stim. (mA)     	Amp. (mV)
MS.1           	36             	5.901
MS.2           	36             	5.942
MS.3           	36             	5.948
MS.4           	36             	5.901
MS.5           	36             	5.93
MS.6           	36             	5.881
MS.7           	36             	5.899
MS.8           	36             	5.877
MS.9           	36             	5.887
MS.10          	36             	5.873
MS.11          	36             	5.893
MS.12          	36             	5.873
MS.13          	36             	5.875
MS.14          	36             	5.91
MS.15          	36             	5.877
MS.16          	36             	5.827
MS.17          	36             	5.833
MS.18          	36             	5.887
MS.19          	36             	5.881
MS.20          	36             	5.839
MS.21          	36             	5.869
MS.22          	36             	5.875
MS.23          	36             	5.934
MS.24          	35.855         	5.885
MS.25          	35.785         	5.839
MS.26          	35.712         	5.801
MS.27          	35.642         	5.891
MS.28          	35.57          	5.827
MS.29          	35.5           	5.899
MS.30          	35.427         	5.901
MS.31          	35.357         	5.883
MS.32          	35.287         	5.857
MS.33          	35.217         	5.833
MS.34          	35.145         	5.887
MS.35          	35.075         	5.811
MS.36          	35.005         	5.883
MS.37          	34.935         	5.91
MS.38          	34.865         	5.897
MS.39          	34.798         	5.895
MS.40          	34.728         	5.805
MS.41          	34.657         	5.897
MS.42          	34.587         	5.924
MS.43          	34.52          	5.881
MS.44          	34.45          	5.885
MS.45          	34.382         	5.769
MS.46          	34.312         	5.869
MS.47          	34.245         	5.974
MS.48          	34.175         	5.962
MS.49          	34.107         	5.859
MS.50          	34.04          	5.819
MS.51          	33.972         	5.879
MS.52          	33.903         	5.938
MS.53          	33.835         	5.901
MS.54          	33.767         	5.841
MS.55          	33.7           	5.883
MS.56          	33.632         	5.867
MS.57          	33.565         	5.889
MS.58          	33.5           	5.924
MS.59          	33.432         	5.889
MS.60          	33.365         	5.837
MS.61          	33.298         	5.847
MS.62          	33.232         	5.899
MS.63          	33.165         	5.853
MS.64          	33.1           	5.857
MS.65          	33.032         	5.813
MS.66          	32.967         	5.837
MS.67          	32.903         	5.875
MS.68          	32.835         	5.843
MS.69          	32.77          	5.823
MS.70          	32.705         	5.829
MS.71          	32.64          	5.803
MS.72          	32.575         	5.829
MS.73          	32.51          	5.847
MS.74          	32.445         	5.837
MS.75          	32.38          	5.825
MS.76          	32.315         	5.825
MS.77          	32.25          	5.813
MS.78          	32.185         	5.799
MS.79          	32.12          	5.789
MS.80          	32.057         	5.823
MS.81          	31.992         	5.813
MS.82          	31.93          	5.789
MS.83          	31.865         	5.813
MS.84          	31.802         	5.811
MS.85          	31.737         	5.811
MS.86          	31.675         	5.779
MS.87          	31.612         	5.791
MS.88          	31.547         	5.803
MS.89          	31.485         	5.773
MS.90          	31.422         	5.771
MS.91          	31.36          	5.791
MS.92          	31.297         	5.732
MS.93          	31.235         	5.746
MS.94          	31.172         	5.765
MS.95          	31.11          	5.756
MS.96          	31.047         	5.73
MS.97          	30.985         	5.728
MS.98          	30.922         	5.74
MS.99          	30.862         	5.684
MS.100         	30.8           	5.708
MS.101         	30.737         	5.688
MS.102         	30.677         	5.68
MS.103         	30.615         	5.682
MS.104         	30.555         	5.652
MS.105         	30.492         	5.642
MS.106         	30.432         	5.662
MS.107         	30.372         	5.648
MS.108         	30.31          	5.638
MS.109         	30.25          	5.622
MS.110         	30.19          	5.583
MS.111         	30.13          	5.571
MS.112         	30.07          	5.615
MS.113         	30.01          	5.481
MS.114         	29.95          	5.563
MS.115         	29.89          	5.547
MS.116         	29.83          	5.587
MS.117         	29.77          	5.513
MS.118         	29.71          	5.519
MS.119         	29.653         	5.511
MS.120         	29.592         	5.507
MS.121         	29.532         	5.454
MS.122         	29.475         	5.513
MS.123         	29.415         	5.428
MS.124         	29.358         	5.511
MS.125         	29.297         	5.515
MS.126         	29.24          	5.493
MS.127         	29.18          	5.378
MS.128         	29.122         	5.344
MS.129         	29.065         	5.38
MS.130         	29.007         	5.398
MS.131         	28.948         	5.442
MS.132         	28.89          	5.327
MS.133         	28.832         	5.414
MS.134         	28.775         	5.331
MS.135         	28.717         	5.323
MS.136         	28.66          	5.358
MS.137         	28.602         	5.309
MS.138         	28.545         	5.273
MS.139         	28.49          	5.241
MS.140         	28.432         	5.223
MS.141         	28.375         	5.203
MS.142         	28.317         	5.263
MS.143         	28.262         	5.243
MS.144         	28.205         	5.283
MS.145         	28.15          	5.233
MS.146         	28.092         	5.221
MS.147         	28.037         	5.182
MS.148         	27.98          	5.225
MS.149         	27.925         	5.199
MS.150         	27.87          	5.158
MS.151         	27.812         	5.217
MS.152         	27.757         	5.168
MS.153         	27.702         	5.106
MS.154         	27.647         	5.122
MS.155         	27.592         	5.126
MS.156         	27.537         	5.082
MS.157         	27.483         	5.058
MS.158         	27.427         	5.039
MS.159         	27.372         	5.045
MS.160         	27.317         	5.052
MS.161         	27.262         	5.1
MS.162         	27.207         	5.07
MS.163         	27.153         	4.987
MS.164         	27.1           	5.019
MS.165         	27.045         	4.987
MS.166         	26.993         	4.896
MS.167         	26.938         	4.923
MS.168         	26.882         	4.947
MS.169         	26.83          	4.812
MS.170         	26.775         	4.959
MS.171         	26.722         	4.816
MS.172         	26.67          	4.832
MS.173         	26.615         	4.927
MS.174         	26.562         	4.878
MS.175         	26.51          	4.878
MS.176         	26.457         	4.784
MS.177         	26.405         	4.828
MS.178         	26.35          	4.82
MS.179         	26.297         	4.778
MS.180         	26.245         	4.8
MS.181         	26.192         	4.784
MS.182         	26.14          	4.745
MS.183         	26.09          	4.81
MS.184         	26.037         	4.772
MS.185         	25.985         	4.618
MS.186         	25.932         	4.743
MS.187         	25.88          	4.713
MS.188         	25.83          	4.715
MS.189         	25.778         	4.691
MS.190         	25.727         	4.709
MS.191         	25.675         	4.633
MS.192         	25.622         	4.534
MS.193         	25.573         	4.608
MS.194         	25.522         	4.496
MS.195         	25.47          	4.377
MS.196         	25.42          	4.655
MS.197         	25.368         	4.49
MS.198         	25.317         	4.504
MS.199         	25.267         	4.5
MS.200         	25.217         	4.274
MS.201         	25.167         	4.371
MS.202         	25.115         	4.278
MS.203         	25.065         	4.167
MS.204         	25.015         	4.407
MS.205         	24.965         	4.33
MS.206         	24.915         	4.298
MS.207         	24.868         	4.163
MS.208         	24.817         	4.212
MS.209         	24.767         	4.01
MS.210         	24.717         	4.046
MS.211         	24.667         	4.115
MS.212         	24.62          	4.107
MS.213         	24.57          	4.159
MS.214         	24.52          	4.111
MS.215         	24.472         	4.093
MS.216         	24.422         	4.055
MS.217         	24.375         	3.942
MS.218         	24.325         	3.96
MS.219         	24.278         	3.914
MS.220         	24.227         	3.992
MS.221         	24.18          	4.067
MS.222         	24.132         	3.998
MS.223         	24.082         	3.956
MS.224         	24.035         	3.849
MS.225         	23.987         	3.976
MS.226         	23.94          	3.807
MS.227         	23.892         	3.722
MS.228         	23.842         	3.738
MS.229         	23.795         	3.815
MS.230         	23.747         	3.819
MS.231         	23.7           	3.71
MS.232         	23.653         	3.704
MS.233         	23.608         	3.634
MS.234         	23.56          	3.736
MS.235         	23.512         	3.577
MS.236         	23.465         	3.63
MS.237         	23.417         	3.632
MS.238         	23.372         	3.65
MS.239         	23.325         	3.489
MS.240         	23.278         	3.628
MS.241         	23.233         	3.46
MS.242         	23.185         	3.466
MS.243         	23.14          	3.406
MS.244         	23.092         	3.321
MS.245         	23.047         	3.333
MS.246         	23             	3.323
MS.247         	22.955         	3.283
MS.248         	22.907         	3.176
MS.249         	22.862         	3.178
MS.250         	22.817         	3.217
MS.251         	22.772         	3.168
MS.252         	22.725         	3.094
MS.253         	22.68          	3.009
MS.254         	22.635         	3.037
MS.255         	22.59          	3.003
MS.256         	22.545         	3.047
MS.257         	22.5           	3.039
MS.258         	22.455         	2.957
MS.259         	22.41          	2.904
MS.260         	22.365         	3.041
MS.261         	22.32          	2.914
MS.262         	22.275         	2.894
MS.263         	22.233         	2.925
MS.264         	22.188         	2.927
MS.265         	22.142         	2.838
MS.266         	22.097         	2.937
MS.267         	22.055         	2.878
MS.268         	22.01          	2.792
MS.269         	21.967         	2.747
MS.270         	21.922         	2.763
MS.271         	21.877         	2.838
MS.272         	21.835         	2.767
MS.273         	21.792         	2.626
MS.274         	21.747         	2.727
MS.275         	21.705         	2.685
MS.276         	21.66          	2.747
MS.277         	21.618         	2.695
MS.278         	21.575         	2.637
MS.279         	21.532         	2.739
MS.280         	21.487         	2.514
MS.281         	21.445         	2.677
MS.282         	21.403         	2.524
MS.283         	21.36          	2.699
MS.284         	21.317         	2.477
MS.285         	21.275         	2.596
MS.286         	21.233         	2.572
MS.287         	21.19          	2.425
MS.288         	21.147         	2.391
MS.289         	21.105         	2.556
MS.290         	21.062         	2.377
MS.291         	21.02          	2.367
MS.292         	20.98          	2.411
MS.293         	20.938         	2.413
MS.294         	20.895         	2.308
MS.295         	20.852         	2.33
MS.296         	20.812         	2.288
MS.297         	20.77          	2.437
MS.298         	20.727         	2.256
MS.299         	20.688         	2.258
MS.300         	20.645         	2.288
MS.301         	20.605         	2.304
MS.302         	20.562         	2.133
MS.303         	20.522         	2.193
MS.304         	20.483         	2.206
MS.305         	20.44          	2.191
MS.306         	20.4           	2.101
MS.307         	20.36          	2.137
MS.308         	20.317         	2.117
MS.309         	20.278         	2.083
MS.310         	20.237         	2.103
MS.311         	20.198         	2.065
MS.312         	20.157         	1.819
MS.313         	20.115         	2.004
MS.314         	20.075         	1.998
MS.315         	20.035         	2.069
MS.316         	19.995         	1.99
MS.317         	19.955         	1.99
MS.318         	19.915         	1.785
MS.319         	19.875         	1.883
MS.320         	19.837         	1.966
MS.321         	19.797         	1.823
MS.322         	19.757         	1.887
MS.323         	19.717         	1.885
MS.324         	19.677         	1.903
MS.325         	19.64          	1.815
MS.326         	19.6           	1.817
MS.327         	19.56          	1.785
MS.328         	19.522         	1.768
MS.329         	19.483         	1.779
MS.330         	19.442         	1.779
MS.331         	19.405         	1.766
MS.332         	19.365         	1.734
MS.333         	19.327         	1.758
MS.334         	19.288         	1.704
MS.335         	19.25          	1.72
MS.336         	19.212         	1.712
MS.337         	19.172         	1.734
MS.338         	19.135         	1.714
MS.339         	19.097         	1.65
MS.340         	19.057         	1.694
MS.341         	19.02          	1.662
MS.342         	18.983         	1.642
MS.343         	18.945         	1.684
MS.344         	18.907         	1.66
MS.345         	18.87          	1.64
MS.346         	18.83          	1.617
MS.347         	18.792         	1.609
MS.348         	18.755         	1.629
MS.349         	18.717         	1.553
MS.350         	18.68          	1.555
MS.351         	18.645         	1.627
MS.352         	18.608         	1.527
MS.353         	18.57          	1.646
MS.354         	18.532         	1.623
MS.355         	18.495         	1.555
MS.356         	18.458         	1.466
MS.357         	18.422         	1.503
MS.358         	18.385         	1.462
MS.359         	18.347         	1.545
MS.360         	18.31          	1.454
MS.361         	18.275         	1.446
MS.362         	18.237         	1.428
MS.363         	18.202         	1.47
MS.364         	18.165         	1.408
MS.365         	18.13          	1.392
MS.366         	18.092         	1.452
MS.367         	18.057         	1.311
MS.368         	18.02          	1.37
MS.369         	17.985         	1.319
MS.370         	17.948         	1.221
MS.371         	17.913         	1.231
MS.372         	17.878         	1.261
MS.373         	17.842         	1.382
MS.374         	17.805         	1.247
MS.375         	17.77          	1.273
MS.376         	17.735         	1.158
MS.377         	17.7           	1.215
MS.378         	17.665         	1.098
MS.379         	17.628         	1.158
MS.380         	17.592         	1.146
MS.381         	17.557         	1.19
MS.382         	17.522         	1.132
MS.383         	17.487         	1.096
MS.384         	17.452         	1.098
MS.385         	17.417         	1.104
MS.386         	17.382         	1.15
MS.387         	17.347         	1.108
MS.388         	17.315         	1.126
MS.389         	17.28          	1.068
MS.390         	17.245         	1.068
MS.391         	17.21          	1.027
MS.392         	17.175         	1.047
MS.393         	17.142         	1.003
MS.394         	17.108         	1.041
MS.395         	17.073         	1.051
MS.396         	17.04          	1.015
MS.397         	17.005         	0.971
MS.398         	16.97          	1.104
MS.399         	16.938         	0.987
MS.400         	16.903         	0.955
MS.401         	16.87          	1.047
MS.402         	16.835         	0.937
MS.403         	16.802         	1.051
MS.404         	16.767         	0.943
MS.405         	16.735         	0.985
MS.406         	16.702         	0.959
MS.407         	16.667         	0.916
MS.408         	16.635         	0.896
MS.409         	16.602         	0.902
MS.410         	16.567         	0.937
MS.411         	16.535         	0.896
MS.412         	16.503         	0.941
MS.413         	16.47          	0.9
MS.414         	16.438         	0.892
MS.415         	16.405         	0.862
MS.416         	16.37          	0.9
MS.417         	16.337         	0.896
MS.418         	16.305         	0.854
MS.419         	16.272         	0.864
MS.420         	16.24          	0.796
MS.421         	16.208         	0.846
MS.422         	16.175         	0.85
MS.423         	16.142         	0.818
MS.424         	16.11          	0.878
MS.425         	16.08          	0.808
MS.426         	16.047         	0.8
MS.427         	16.015         	0.836
MS.428         	15.983         	0.794
MS.429         	15.95          	0.788
MS.430         	15.92          	0.755
MS.431         	15.887         	0.777
MS.432         	15.855         	0.713
MS.433         	15.825         	0.755
MS.434         	15.792         	0.781
MS.435         	15.76          	0.749
MS.436         	15.73          	0.794
MS.437         	15.697         	0.749
MS.438         	15.667         	0.661
MS.439         	15.635         	0.685
MS.440         	15.605         	0.697
MS.441         	15.572         	0.643
MS.442         	15.542         	0.669
MS.443         	15.51          	0.659
MS.444         	15.48          	0.651
MS.445         	15.447         	0.695
MS.446         	15.417         	0.612
MS.447         	15.387         	0.723
MS.448         	15.355         	0.653
MS.449         	15.325         	0.616
MS.450         	15.295         	0.578
MS.451         	15.265         	0.641
MS.452         	15.235         	0.638
MS.453         	15.202         	0.59
MS.454         	15.172         	0.604
MS.455         	15.142         	0.59
MS.456         	15.112         	0.628
MS.457         	15.082         	0.628
MS.458         	15.052         	0.602
MS.459         	15.023         	0.588
MS.460         	14.992         	0.554
MS.461         	14.962         	0.582
MS.462         	14.932         	0.554
MS.463         	14.902         	0.556
MS.464         	14.872         	0.574
MS.465         	14.842         	0.566
MS.466         	14.812         	0.558
MS.467         	14.782         	0.576
MS.468         	14.755         	0.558
MS.469         	14.725         	0.566
MS.470         	14.695         	0.562
MS.471         	14.665         	0.562
MS.472         	14.637         	0.546
MS.473         	14.608         	0.544
MS.474         	14.577         	0.554
MS.475         	14.55          	0.558
MS.476         	14.52          	0.506
MS.477         	14.49          	0.544
MS.478         	14.462         	0.536
MS.479         	14.432         	0.532
MS.480         	14.405         	0.534
MS.481         	14.375         	0.528
MS.482         	14.347         	0.514
MS.483         	14.318         	0.512
MS.484         	14.29          	0.52
MS.485         	14.26          	0.526
MS.486         	14.233         	0.502
MS.487         	14.205         	0.52
MS.488         	14.175         	0.489
MS.489         	14.148         	0.491
MS.490         	14.12          	0.483
MS.491         	14.09          	0.471
MS.492         	14.062         	0.475
MS.493         	14.035         	0.457
MS.494         	14.007         	0.447
MS.495         	13.977         	0.481
MS.496         	13.95          	0.439
MS.497         	13.922         	0.431
MS.498         	13.895         	0.481
MS.499         	13.867         	0.423
MS.500         	13.84          	0.471
MS.501         	13.812         	0.433
