File:              	C:\Qtrac\Data\Daniel M Sørensen\MScan multicentre study\Data from centres\Aarhus\Processed data\DMSC00211C.QZD
Name:              	DK.AAR.NC.2.2
Protocol:          	MSCAN-R2
Date:              	11/2/20
Start time:        	13:55:44
Age:               	35
Sex:               	f
Temperature:       	32,9
S/R sites:         	TA
NC/disease:        	Control
Operator:          	DS
Comments:
M-SCAN DATA (8.4-2m)
Scanpts: 12, 22, 621, 648
Stim. (mA)     	Amp. (mV)
MS.1           	22.5           	5.472
MS.2           	22.5           	5.462
MS.3           	22.5           	5.462
MS.4           	22.5           	5.442
MS.5           	22.5           	5.418
MS.6           	22.5           	5.398
MS.7           	22.5           	5.42
MS.8           	22.5           	5.412
MS.9           	22.5           	5.42
MS.10          	22.5           	5.414
MS.11          	22.5           	5.41
MS.12          	22.5           	5.404
MS.13          	22.5           	5.394
MS.14          	22.5           	5.39
MS.15          	22.5           	5.414
MS.16          	22.5           	5.4
MS.17          	22.5           	5.402
MS.18          	22.5           	5.394
MS.19          	22.5           	5.396
MS.20          	22.5           	5.394
MS.21          	22.5           	5.384
MS.22          	22.5           	5.376
MS.23          	22.5           	5.414
MS.24          	22.41          	5.398
MS.25          	22.365         	5.39
MS.26          	22.32          	5.35
MS.27          	22.275         	5.36
MS.28          	22.233         	5.382
MS.29          	22.188         	5.386
MS.30          	22.142         	5.358
MS.31          	22.097         	5.398
MS.32          	22.055         	5.366
MS.33          	22.01          	5.376
MS.34          	21.967         	5.4
MS.35          	21.922         	5.392
MS.36          	21.877         	5.372
MS.37          	21.835         	5.362
MS.38          	21.792         	5.37
MS.39          	21.747         	5.386
MS.40          	21.705         	5.378
MS.41          	21.66          	5.378
MS.42          	21.618         	5.384
MS.43          	21.575         	5.384
MS.44          	21.532         	5.374
MS.45          	21.487         	5.372
MS.46          	21.445         	5.358
MS.47          	21.403         	5.368
MS.48          	21.36          	5.358
MS.49          	21.317         	5.35
MS.50          	21.275         	5.368
MS.51          	21.233         	5.364
MS.52          	21.19          	5.321
MS.53          	21.147         	5.336
MS.54          	21.105         	5.414
MS.55          	21.062         	5.327
MS.56          	21.02          	5.327
MS.57          	20.98          	5.382
MS.58          	20.938         	5.354
MS.59          	20.895         	5.295
MS.60          	20.852         	5.356
MS.61          	20.812         	5.299
MS.62          	20.77          	5.293
MS.63          	20.727         	5.281
MS.64          	20.688         	5.329
MS.65          	20.645         	5.319
MS.66          	20.605         	5.376
MS.67          	20.562         	5.283
MS.68          	20.522         	5.331
MS.69          	20.483         	5.344
MS.70          	20.44          	5.315
MS.71          	20.4           	5.277
MS.72          	20.36          	5.297
MS.73          	20.317         	5.311
MS.74          	20.278         	5.315
MS.75          	20.237         	5.356
MS.76          	20.198         	5.35
MS.77          	20.155         	5.338
MS.78          	20.115         	5.299
MS.79          	20.075         	5.233
MS.80          	20.035         	5.287
MS.81          	19.995         	5.261
MS.82          	19.955         	5.289
MS.83          	19.915         	5.271
MS.84          	19.875         	5.291
MS.85          	19.837         	5.348
MS.86          	19.797         	5.354
MS.87          	19.757         	5.287
MS.88          	19.717         	5.307
MS.89          	19.677         	5.344
MS.90          	19.64          	5.255
MS.91          	19.6           	5.303
MS.92          	19.56          	5.275
MS.93          	19.522         	5.237
MS.94          	19.483         	5.267
MS.95          	19.442         	5.213
MS.96          	19.405         	5.249
MS.97          	19.365         	5.281
MS.98          	19.327         	5.291
MS.99          	19.288         	5.188
MS.100         	19.25          	5.247
MS.101         	19.212         	5.19
MS.102         	19.172         	5.215
MS.103         	19.135         	5.271
MS.104         	19.097         	5.209
MS.105         	19.057         	5.265
MS.106         	19.02          	5.186
MS.107         	18.983         	5.237
MS.108         	18.945         	5.199
MS.109         	18.907         	5.168
MS.110         	18.87          	5.213
MS.111         	18.83          	5.188
MS.112         	18.792         	5.207
MS.113         	18.755         	5.176
MS.114         	18.717         	5.182
MS.115         	18.68          	5.172
MS.116         	18.645         	5.178
MS.117         	18.608         	5.14
MS.118         	18.57          	5.263
MS.119         	18.532         	5.205
MS.120         	18.495         	5.15
MS.121         	18.458         	5.231
MS.122         	18.422         	5.178
MS.123         	18.385         	5.239
MS.124         	18.347         	5.106
MS.125         	18.31          	5.126
MS.126         	18.275         	5.052
MS.127         	18.237         	5.156
MS.128         	18.202         	5.178
MS.129         	18.165         	5.112
MS.130         	18.13          	5.108
MS.131         	18.092         	5.106
MS.132         	18.057         	5.052
MS.133         	18.02          	5.076
MS.134         	17.985         	5.134
MS.135         	17.948         	5.07
MS.136         	17.913         	4.963
MS.137         	17.878         	5.07
MS.138         	17.84          	5.08
MS.139         	17.805         	5.035
MS.140         	17.77          	4.909
MS.141         	17.735         	4.983
MS.142         	17.7           	4.987
MS.143         	17.663         	5.058
MS.144         	17.628         	4.929
MS.145         	17.592         	4.888
MS.146         	17.557         	4.975
MS.147         	17.522         	4.955
MS.148         	17.487         	4.971
MS.149         	17.452         	4.906
MS.150         	17.417         	4.937
MS.151         	17.382         	4.784
MS.152         	17.347         	4.925
MS.153         	17.315         	4.806
MS.154         	17.28          	4.77
MS.155         	17.245         	4.826
MS.156         	17.21          	4.761
MS.157         	17.175         	4.717
MS.158         	17.142         	4.743
MS.159         	17.108         	4.737
MS.160         	17.073         	4.739
MS.161         	17.04          	4.804
MS.162         	17.005         	4.776
MS.163         	16.97          	4.804
MS.164         	16.938         	4.703
MS.165         	16.903         	4.699
MS.166         	16.87          	4.721
MS.167         	16.835         	4.677
MS.168         	16.802         	4.661
MS.169         	16.767         	4.735
MS.170         	16.735         	4.651
MS.171         	16.702         	4.633
MS.172         	16.667         	4.522
MS.173         	16.635         	4.616
MS.174         	16.602         	4.592
MS.175         	16.567         	4.717
MS.176         	16.535         	4.59
MS.177         	16.503         	4.453
MS.178         	16.47          	4.53
MS.179         	16.438         	4.532
MS.180         	16.405         	4.447
MS.181         	16.37          	4.524
MS.182         	16.337         	4.528
MS.183         	16.305         	4.51
MS.184         	16.272         	4.506
MS.185         	16.24          	4.484
MS.186         	16.208         	4.441
MS.187         	16.175         	4.49
MS.188         	16.142         	4.369
MS.189         	16.11          	4.419
MS.190         	16.08          	4.419
MS.191         	16.047         	4.334
MS.192         	16.015         	4.399
MS.193         	15.983         	4.373
MS.194         	15.95          	4.302
MS.195         	15.92          	4.302
MS.196         	15.887         	4.298
MS.197         	15.855         	4.26
MS.198         	15.822         	4.369
MS.199         	15.792         	4.264
MS.200         	15.76          	4.165
MS.201         	15.73          	4.254
MS.202         	15.697         	4.21
MS.203         	15.667         	4.222
MS.204         	15.635         	4.187
MS.205         	15.602         	4.163
MS.206         	15.572         	4.278
MS.207         	15.542         	4.155
MS.208         	15.51          	4.085
MS.209         	15.48          	4.107
MS.210         	15.447         	4.129
MS.211         	15.417         	4.105
MS.212         	15.387         	4.119
MS.213         	15.355         	4.028
MS.214         	15.325         	4.077
MS.215         	15.295         	3.99
MS.216         	15.265         	4.022
MS.217         	15.233         	4.034
MS.218         	15.202         	3.974
MS.219         	15.172         	4.095
MS.220         	15.142         	4.008
MS.221         	15.112         	4.012
MS.222         	15.082         	4.034
MS.223         	15.052         	4.04
MS.224         	15.023         	3.932
MS.225         	14.992         	3.954
MS.226         	14.962         	3.944
MS.227         	14.932         	3.94
MS.228         	14.902         	3.942
MS.229         	14.872         	3.92
MS.230         	14.842         	3.932
MS.231         	14.812         	3.809
MS.232         	14.782         	3.907
MS.233         	14.755         	3.799
MS.234         	14.725         	3.954
MS.235         	14.695         	3.849
MS.236         	14.665         	3.754
MS.237         	14.637         	3.865
MS.238         	14.608         	3.785
MS.239         	14.577         	3.72
MS.240         	14.55          	3.793
MS.241         	14.52          	3.704
MS.242         	14.49          	3.783
MS.243         	14.462         	3.732
MS.244         	14.432         	3.625
MS.245         	14.405         	3.696
MS.246         	14.375         	3.754
MS.247         	14.347         	3.617
MS.248         	14.318         	3.623
MS.249         	14.29          	3.678
MS.250         	14.26          	3.638
MS.251         	14.233         	3.557
MS.252         	14.205         	3.555
MS.253         	14.175         	3.609
MS.254         	14.148         	3.561
MS.255         	14.12          	3.617
MS.256         	14.09          	3.613
MS.257         	14.062         	3.64
MS.258         	14.035         	3.464
MS.259         	14.007         	3.563
MS.260         	13.977         	3.317
MS.261         	13.95          	3.521
MS.262         	13.922         	3.344
MS.263         	13.895         	3.285
MS.264         	13.867         	3.356
MS.265         	13.84          	3.251
MS.266         	13.812         	3.289
MS.267         	13.785         	3.323
MS.268         	13.757         	3.209
MS.269         	13.73          	3.168
MS.270         	13.702         	3.279
MS.271         	13.675         	3.249
MS.272         	13.648         	3.035
MS.273         	13.62          	2.995
MS.274         	13.592         	3.017
MS.275         	13.565         	3.037
MS.276         	13.537         	2.949
MS.277         	13.51          	3.166
MS.278         	13.485         	3.104
MS.279         	13.457         	3.074
MS.280         	13.43          	2.89
MS.281         	13.403         	3.003
MS.282         	13.377         	2.943
MS.283         	13.35          	2.935
MS.284         	13.322         	2.912
MS.285         	13.297         	2.904
MS.286         	13.27          	2.83
MS.287         	13.242         	2.931
MS.288         	13.217         	2.834
MS.289         	13.19          	2.85
MS.290         	13.165         	2.721
MS.291         	13.137         	2.745
MS.292         	13.112         	2.743
MS.293         	13.085         	2.675
MS.294         	13.06          	2.681
MS.295         	13.032         	2.641
MS.296         	13.007         	2.723
MS.297         	12.983         	2.808
MS.298         	12.955         	2.691
MS.299         	12.93          	2.659
MS.300         	12.903         	2.685
MS.301         	12.877         	2.566
MS.302         	12.852         	2.58
MS.303         	12.827         	2.556
MS.304         	12.8           	2.628
MS.305         	12.775         	2.435
MS.306         	12.75          	2.633
MS.307         	12.725         	2.439
MS.308         	12.7           	2.506
MS.309         	12.672         	2.391
MS.310         	12.648         	2.447
MS.311         	12.622         	2.381
MS.312         	12.597         	2.401
MS.313         	12.572         	2.288
MS.314         	12.547         	2.344
MS.315         	12.523         	2.373
MS.316         	12.497         	2.266
MS.317         	12.472         	2.296
MS.318         	12.447         	2.292
MS.319         	12.422         	2.179
MS.320         	12.398         	2.189
MS.321         	12.372         	2.109
MS.322         	12.347         	2.131
MS.323         	12.322         	2.147
MS.324         	12.3           	2.143
MS.325         	12.275         	2.079
MS.326         	12.25          	2.143
MS.327         	12.225         	2.115
MS.328         	12.2           	2.083
MS.329         	12.177         	2.004
MS.330         	12.153         	1.968
MS.331         	12.127         	1.998
MS.332         	12.102         	1.976
MS.333         	12.08          	1.924
MS.334         	12.055         	1.96
MS.335         	12.032         	1.875
MS.336         	12.007         	1.891
MS.337         	11.983         	1.899
MS.338         	11.96          	1.825
MS.339         	11.935         	1.911
MS.340         	11.912         	1.978
MS.341         	11.887         	1.805
MS.342         	11.865         	1.827
MS.343         	11.84          	1.545
MS.344         	11.818         	1.7
MS.345         	11.792         	1.791
MS.346         	11.77          	1.776
MS.347         	11.745         	1.736
MS.348         	11.722         	1.708
MS.349         	11.7           	1.619
MS.350         	11.675         	1.704
MS.351         	11.653         	1.513
MS.352         	11.63          	1.627
MS.353         	11.605         	1.535
MS.354         	11.582         	1.774
MS.355         	11.56          	1.581
MS.356         	11.537         	1.442
MS.357         	11.512         	1.394
MS.358         	11.49          	1.434
MS.359         	11.467         	1.633
MS.360         	11.445         	1.398
MS.361         	11.422         	1.442
MS.362         	11.4           	1.448
MS.363         	11.375         	1.325
MS.364         	11.352         	1.412
MS.365         	11.33          	1.378
MS.366         	11.307         	1.311
MS.367         	11.285         	1.398
MS.368         	11.262         	1.358
MS.369         	11.24          	1.41
MS.370         	11.217         	1.2
MS.371         	11.195         	1.188
MS.372         	11.172         	1.16
MS.373         	11.15          	1.219
MS.374         	11.127         	1.223
MS.375         	11.108         	1.221
MS.376         	11.085         	1.158
MS.377         	11.062         	1.182
MS.378         	11.04          	1.082
MS.379         	11.017         	1.204
MS.380         	10.995         	1.063
MS.381         	10.975         	1.068
MS.382         	10.952         	0.951
MS.383         	10.93          	0.941
MS.384         	10.907         	0.971
MS.385         	10.887         	1.023
MS.386         	10.865         	1.007
MS.387         	10.842         	0.947
MS.388         	10.82          	0.838
MS.389         	10.8           	0.995
MS.390         	10.778         	0.848
MS.391         	10.757         	0.866
MS.392         	10.735         	0.806
MS.393         	10.712         	0.896
MS.394         	10.693         	0.834
MS.395         	10.67          	0.848
MS.396         	10.65          	0.836
MS.397         	10.627         	0.8
MS.398         	10.608         	0.806
MS.399         	10.585         	0.773
MS.400         	10.565         	0.731
MS.401         	10.542         	0.717
MS.402         	10.523         	0.725
MS.403         	10.502         	0.765
MS.404         	10.48          	0.675
MS.405         	10.46          	0.705
MS.406         	10.438         	0.675
MS.407         	10.417         	0.723
MS.408         	10.398         	0.707
MS.409         	10.375         	0.679
MS.410         	10.355         	0.645
MS.411         	10.335         	0.701
MS.412         	10.315         	0.554
MS.413         	10.292         	0.657
MS.414         	10.273         	0.62
MS.415         	10.252         	0.62
MS.416         	10.233         	0.632
MS.417         	10.212         	0.479
MS.418         	10.19          	0.602
MS.419         	10.17          	0.626
MS.420         	10.15          	0.493
MS.421         	10.13          	0.62
MS.422         	10.11          	0.614
MS.423         	10.09          	0.483
MS.424         	10.07          	0.53
MS.425         	10.05          	0.512
MS.426         	10.03          	0.504
MS.427         	10.01          	0.487
MS.428         	9.99           	0.485
MS.429         	9.97           	0.5
MS.430         	9.95           	0.443
MS.431         	9.93           	0.449
MS.432         	9.91           	0.457
MS.433         	9.89           	0.449
MS.434         	9.87           	0.457
MS.435         	9.85           	0.415
MS.436         	9.83           	0.401
MS.437         	9.81           	0.465
MS.438         	9.792          	0.431
MS.439         	9.773          	0.429
MS.440         	9.752          	0.393
MS.441         	9.733          	0.365
MS.442         	9.712          	0.411
MS.443         	9.695          	0.33
MS.444         	9.675          	0.383
MS.445         	9.655          	0.371
MS.446         	9.635          	0.35
MS.447         	9.617          	0.33
MS.448         	9.597          	0.3
MS.449         	9.577          	0.385
MS.450         	9.56           	0.332
MS.451         	9.54           	0.262
MS.452         	9.52           	0.264
MS.453         	9.502          	0.304
MS.454         	9.483          	0.266
MS.455         	9.465          	0.236
MS.456         	9.445          	0.32
MS.457         	9.427          	0.26
MS.458         	9.407          	0.23
MS.459         	9.387          	0.278
MS.460         	9.37           	0.26
MS.461         	9.352          	0.264
MS.462         	9.332          	0.262
MS.463         	9.315          	0.205
MS.464         	9.295          	0.224
MS.465         	9.278          	0.205
MS.466         	9.257          	0.28
MS.467         	9.24           	0.205
MS.468         	9.222          	0.183
MS.469         	9.202          	0.242
MS.470         	9.185          	0.189
MS.471         	9.165          	0.211
MS.472         	9.148          	0.185
MS.473         	9.13           	0.228
MS.474         	9.113          	0.183
MS.475         	9.092          	0.169
MS.476         	9.075          	0.179
MS.477         	9.057          	0.183
MS.478         	9.037          	0.167
MS.479         	9.02           	0.179
MS.480         	9.002          	0.181
MS.481         	8.985          	0.167
MS.482         	8.967          	0.177
MS.483         	8.948          	0.171
MS.484         	8.93           	0.177
MS.485         	8.912          	0.163
MS.486         	8.895          	0.157
MS.487         	8.877          	0.197
MS.488         	8.86           	0.161
MS.489         	8.842          	0.157
MS.490         	8.825          	0.159
MS.491         	8.807          	0.151
MS.492         	8.79           	0.119
MS.493         	8.773          	0.141
MS.494         	8.755          	0.149
MS.495         	8.738          	0.113
MS.496         	8.72           	0.139
MS.497         	8.702          	0.151
MS.498         	8.685          	0.153
MS.499         	8.667          	0.137
MS.500         	8.65           	0.143
MS.501         	8.632          	0.111
