File:              	C:\Qtrac\Data\Daniel M Sørensen\MScan multicentre study\Data from centres\Ankara\Processed data\HKC10122C.QZD
Name:              	TR.ANK.NC.8.2
Protocol:          	MSCAN-R2
Date:              	22/1/21
Start time:        	17:01:17
Age:               	25
Sex:               	M
Temperature:
S/R sites:         	TA
NC/disease:        	NC
Operator:          	HA
Comments:
M-SCAN DATA (5.8-0.8m)
Scanpts: 16, 20, 521, 542
Stim. (mA)     	Amp. (mV)
MS.1           	21             	3.999
MS.2           	21             	3.989
MS.3           	21             	3.993
MS.4           	21             	3.976
MS.5           	21             	3.948
MS.6           	21             	3.999
MS.7           	21             	4.093
MS.8           	21             	3.969
MS.9           	21             	3.958
MS.10          	21             	3.958
MS.11          	21             	3.949
MS.12          	21             	3.954
MS.13          	21             	3.948
MS.14          	21             	3.959
MS.15          	21             	3.94
MS.16          	21             	3.949
MS.17          	21             	3.967
MS.18          	21             	3.947
MS.19          	21             	3.937
MS.20          	21             	3.939
MS.21          	21             	3.944
MS.22          	21             	3.926
MS.23          	20.958         	3.934
MS.24          	20.915         	3.94
MS.25          	20.875         	3.94
MS.26          	20.833         	3.931
MS.27          	20.79          	3.938
MS.28          	20.75          	3.933
MS.29          	20.708         	3.932
MS.30          	20.667         	3.942
MS.31          	20.625         	3.94
MS.32          	20.585         	3.931
MS.33          	20.542         	3.929
MS.34          	20.502         	3.922
MS.35          	20.46          	3.926
MS.36          	20.42          	3.931
MS.37          	20.38          	3.928
MS.38          	20.337         	3.933
MS.39          	20.297         	3.914
MS.40          	20.257         	3.916
MS.41          	20.217         	3.914
MS.42          	20.177         	3.923
MS.43          	20.137         	3.917
MS.44          	20.095         	3.898
MS.45          	20.055         	3.905
MS.46          	20.015         	3.903
MS.47          	19.975         	3.889
MS.48          	19.935         	3.91
MS.49          	19.895         	3.909
MS.50          	19.858         	3.914
MS.51          	19.817         	3.903
MS.52          	19.778         	3.896
MS.53          	19.737         	3.879
MS.54          	19.698         	3.911
MS.55          	19.66          	3.889
MS.56          	19.62          	3.898
MS.57          	19.58          	3.877
MS.58          	19.54          	3.892
MS.59          	19.502         	3.892
MS.60          	19.462         	3.866
MS.61          	19.425         	3.865
MS.62          	19.385         	3.895
MS.63          	19.347         	3.894
MS.64          	19.307         	3.883
MS.65          	19.27          	3.878
MS.66          	19.23          	3.86
MS.67          	19.192         	3.848
MS.68          	19.155         	3.846
MS.69          	19.115         	3.844
MS.70          	19.077         	3.833
MS.71          	19.04          	3.848
MS.72          	19.002         	3.842
MS.73          	18.962         	3.849
MS.74          	18.925         	3.834
MS.75          	18.887         	3.851
MS.76          	18.85          	3.827
MS.77          	18.812         	3.771
MS.78          	18.775         	3.796
MS.79          	18.737         	3.812
MS.80          	18.7           	3.809
MS.81          	18.663         	3.785
MS.82          	18.625         	3.794
MS.83          	18.587         	3.751
MS.84          	18.55          	3.71
MS.85          	18.515         	3.683
MS.86          	18.477         	3.716
MS.87          	18.44          	3.652
MS.88          	18.403         	3.688
MS.89          	18.368         	3.629
MS.90          	18.33          	3.634
MS.91          	18.292         	3.682
MS.92          	18.257         	3.635
MS.93          	18.22          	3.635
MS.94          	18.182         	3.676
MS.95          	18.147         	3.645
MS.96          	18.11          	3.645
MS.97          	18.075         	3.634
MS.98          	18.04          	3.628
MS.99          	18.003         	3.646
MS.100         	17.967         	3.6
MS.101         	17.93          	3.577
MS.102         	17.895         	3.58
MS.103         	17.86          	3.594
MS.104         	17.823         	3.593
MS.105         	17.788         	3.582
MS.106         	17.753         	3.531
MS.107         	17.717         	3.558
MS.108         	17.682         	3.539
MS.109         	17.645         	3.567
MS.110         	17.61          	3.519
MS.111         	17.575         	3.536
MS.112         	17.54          	3.492
MS.113         	17.505         	3.541
MS.114         	17.47          	3.507
MS.115         	17.435         	3.49
MS.116         	17.4           	3.474
MS.117         	17.365         	3.47
MS.118         	17.333         	3.457
MS.119         	17.297         	3.499
MS.120         	17.262         	3.427
MS.121         	17.227         	3.395
MS.122         	17.192         	3.497
MS.123         	17.16          	3.446
MS.124         	17.125         	3.411
MS.125         	17.09          	3.414
MS.126         	17.057         	3.408
MS.127         	17.022         	3.417
MS.128         	16.987         	3.408
MS.129         	16.955         	3.353
MS.130         	16.92          	3.362
MS.131         	16.887         	3.34
MS.132         	16.852         	3.311
MS.133         	16.82          	3.37
MS.134         	16.785         	3.304
MS.135         	16.753         	3.292
MS.136         	16.717         	3.257
MS.137         	16.685         	3.286
MS.138         	16.653         	3.273
MS.139         	16.618         	3.27
MS.140         	16.585         	3.27
MS.141         	16.552         	3.25
MS.142         	16.52          	3.204
MS.143         	16.485         	3.204
MS.144         	16.452         	3.19
MS.145         	16.42          	3.163
MS.146         	16.387         	3.18
MS.147         	16.355         	3.11
MS.148         	16.323         	3.123
MS.149         	16.29          	3.107
MS.150         	16.257         	3.086
MS.151         	16.225         	3.076
MS.152         	16.192         	3.074
MS.153         	16.16          	3.051
MS.154         	16.128         	3.033
MS.155         	16.095         	3.007
MS.156         	16.062         	3.02
MS.157         	16.03          	3.018
MS.158         	16             	2.997
MS.159         	15.967         	2.955
MS.160         	15.935         	2.944
MS.161         	15.902         	2.875
MS.162         	15.872         	2.87
MS.163         	15.84          	2.944
MS.164         	15.807         	2.926
MS.165         	15.777         	2.899
MS.166         	15.745         	2.904
MS.167         	15.712         	2.887
MS.168         	15.682         	2.864
MS.169         	15.65          	2.798
MS.170         	15.62          	2.804
MS.171         	15.587         	2.861
MS.172         	15.557         	2.83
MS.173         	15.525         	2.822
MS.174         	15.495         	2.762
MS.175         	15.465         	2.728
MS.176         	15.432         	2.712
MS.177         	15.402         	2.764
MS.178         	15.372         	2.727
MS.179         	15.34          	2.701
MS.180         	15.31          	2.709
MS.181         	15.28          	2.771
MS.182         	15.25          	2.657
MS.183         	15.217         	2.6
MS.184         	15.188         	2.596
MS.185         	15.157         	2.644
MS.186         	15.127         	2.574
MS.187         	15.097         	2.557
MS.188         	15.068         	2.589
MS.189         	15.037         	2.587
MS.190         	15.007         	2.52
MS.191         	14.977         	2.501
MS.192         	14.947         	2.565
MS.193         	14.917         	2.529
MS.194         	14.887         	2.509
MS.195         	14.858         	2.522
MS.196         	14.827         	2.467
MS.197         	14.797         	2.485
MS.198         	14.77          	2.48
MS.199         	14.74          	2.502
MS.200         	14.71          	2.449
MS.201         	14.68          	2.461
MS.202         	14.65          	2.421
MS.203         	14.622         	2.433
MS.204         	14.592         	2.396
MS.205         	14.562         	2.407
MS.206         	14.535         	2.456
MS.207         	14.505         	2.393
MS.208         	14.477         	2.355
MS.209         	14.447         	2.336
MS.210         	14.417         	2.317
MS.211         	14.39          	2.283
MS.212         	14.36          	2.262
MS.213         	14.332         	2.311
MS.214         	14.305         	2.319
MS.215         	14.275         	2.305
MS.216         	14.247         	2.251
MS.217         	14.217         	2.203
MS.218         	14.19          	2.247
MS.219         	14.162         	2.235
MS.220         	14.132         	2.117
MS.221         	14.105         	2.191
MS.222         	14.077         	2.122
MS.223         	14.047         	2.114
MS.224         	14.02          	2.069
MS.225         	13.992         	2.058
MS.226         	13.965         	1.979
MS.227         	13.938         	2.006
MS.228         	13.91          	2.059
MS.229         	13.88          	1.949
MS.230         	13.852         	1.901
MS.231         	13.825         	1.962
MS.232         	13.797         	2.006
MS.233         	13.77          	1.875
MS.234         	13.742         	1.879
MS.235         	13.715         	1.825
MS.236         	13.688         	1.952
MS.237         	13.66          	1.893
MS.238         	13.632         	1.816
MS.239         	13.605         	1.924
MS.240         	13.58          	1.799
MS.241         	13.552         	1.782
MS.242         	13.525         	1.81
MS.243         	13.497         	1.764
MS.244         	13.47          	1.742
MS.245         	13.445         	1.703
MS.246         	13.417         	1.849
MS.247         	13.39          	1.744
MS.248         	13.362         	1.633
MS.249         	13.337         	1.677
MS.250         	13.31          	1.741
MS.251         	13.282         	1.672
MS.252         	13.257         	1.771
MS.253         	13.23          	1.636
MS.254         	13.205         	1.615
MS.255         	13.177         	1.621
MS.256         	13.153         	1.638
MS.257         	13.125         	1.625
MS.258         	13.1           	1.639
MS.259         	13.072         	1.587
MS.260         	13.047         	1.536
MS.261         	13.02          	1.511
MS.262         	12.995         	1.622
MS.263         	12.967         	1.603
MS.264         	12.943         	1.497
MS.265         	12.917         	1.508
MS.266         	12.89          	1.445
MS.267         	12.865         	1.5
MS.268         	12.84          	1.52
MS.269         	12.815         	1.434
MS.270         	12.787         	1.436
MS.271         	12.762         	1.4
MS.272         	12.738         	1.395
MS.273         	12.712         	1.37
MS.274         	12.688         	1.309
MS.275         	12.66          	1.381
MS.276         	12.635         	1.312
MS.277         	12.61          	1.382
MS.278         	12.585         	1.246
MS.279         	12.56          	1.255
MS.280         	12.535         	1.293
MS.281         	12.51          	1.31
MS.282         	12.485         	1.27
MS.283         	12.46          	1.283
MS.284         	12.435         	1.256
MS.285         	12.41          	1.188
MS.286         	12.385         	1.246
MS.287         	12.36          	1.136
MS.288         	12.335         	1.252
MS.289         	12.312         	1.201
MS.290         	12.287         	1.19
MS.291         	12.262         	1.111
MS.292         	12.238         	1.061
MS.293         	12.212         	1.067
MS.294         	12.19          	1.089
MS.295         	12.165         	1.046
MS.296         	12.14          	1.06
MS.297         	12.115         	1.073
MS.298         	12.092         	0.991
MS.299         	12.068         	1.096
MS.300         	12.042         	1.066
MS.301         	12.02          	1.022
MS.302         	11.995         	1.028
MS.303         	11.972         	1.024
MS.304         	11.947         	1.021
MS.305         	11.922         	1.018
MS.306         	11.9           	0.983
MS.307         	11.875         	1.027
MS.308         	11.852         	0.938
MS.309         	11.827         	0.978
MS.310         	11.805         	0.959
MS.311         	11.782         	0.935
MS.312         	11.757         	0.964
MS.313         	11.735         	0.906
MS.314         	11.71          	0.908
MS.315         	11.688         	0.924
MS.316         	11.665         	0.984
MS.317         	11.64          	0.952
MS.318         	11.617         	0.909
MS.319         	11.595         	0.925
MS.320         	11.57          	0.865
MS.321         	11.547         	0.867
MS.322         	11.525         	0.874
MS.323         	11.502         	0.846
MS.324         	11.48          	0.874
MS.325         	11.455         	0.868
MS.326         	11.432         	0.878
MS.327         	11.41          	0.819
MS.328         	11.387         	0.844
MS.329         	11.365         	0.819
MS.330         	11.342         	0.803
MS.331         	11.32          	0.852
MS.332         	11.297         	0.793
MS.333         	11.275         	0.845
MS.334         	11.252         	0.747
MS.335         	11.23          	0.724
MS.336         	11.207         	0.697
MS.337         	11.185         	0.731
MS.338         	11.162         	0.699
MS.339         	11.14          	0.736
MS.340         	11.117         	0.709
MS.341         	11.095         	0.706
MS.342         	11.073         	0.721
MS.343         	11.05          	0.614
MS.344         	11.03          	0.638
MS.345         	11.007         	0.671
MS.346         	10.985         	0.671
MS.347         	10.962         	0.603
MS.348         	10.94          	0.629
MS.349         	10.92          	0.635
MS.350         	10.898         	0.57
MS.351         	10.875         	0.614
MS.352         	10.855         	0.643
MS.353         	10.832         	0.547
MS.354         	10.81          	0.514
MS.355         	10.79          	0.532
MS.356         	10.767         	0.516
MS.357         	10.745         	0.479
MS.358         	10.725         	0.472
MS.359         	10.702         	0.458
MS.360         	10.682         	0.458
MS.361         	10.66          	0.403
MS.362         	10.64          	0.474
MS.363         	10.617         	0.452
MS.364         	10.597         	0.353
MS.365         	10.575         	0.42
MS.366         	10.555         	0.453
MS.367         	10.532         	0.411
MS.368         	10.512         	0.381
MS.369         	10.49          	0.382
MS.370         	10.47          	0.328
MS.371         	10.45          	0.293
MS.372         	10.427         	0.366
MS.373         	10.407         	0.32
MS.374         	10.387         	0.305
MS.375         	10.365         	0.312
MS.376         	10.345         	0.327
MS.377         	10.325         	0.352
MS.378         	10.305         	0.343
MS.379         	10.282         	0.322
MS.380         	10.262         	0.267
MS.381         	10.242         	0.303
MS.382         	10.222         	0.308
MS.383         	10.202         	0.361
MS.384         	10.18          	0.322
MS.385         	10.16          	0.338
MS.386         	10.14          	0.273
MS.387         	10.12          	0.298
MS.388         	10.1           	0.284
MS.389         	10.08          	0.277
MS.390         	10.06          	0.314
MS.391         	10.04          	0.271
MS.392         	10.02          	0.234
MS.393         	10             	0.22
MS.394         	9.98           	0.259
MS.395         	9.96           	0.267
MS.396         	9.94           	0.261
MS.397         	9.92           	0.188
MS.398         	9.9            	0.179
MS.399         	9.88           	0.222
MS.400         	9.86           	0.188
MS.401         	9.84           	0.187
MS.402         	9.82           	0.195
MS.403         	9.802          	0.197
MS.404         	9.782          	0.177
MS.405         	9.762          	0.201
MS.406         	9.742          	0.14
MS.407         	9.722          	0.195
MS.408         	9.705          	0.178
MS.409         	9.685          	0.143
MS.410         	9.665          	0.137
MS.411         	9.645          	0.154
MS.412         	9.627          	0.125
MS.413         	9.608          	0.166
MS.414         	9.587          	0.161
MS.415         	9.57           	0.134
MS.416         	9.55           	0.157
MS.417         	9.53           	0.133
MS.418         	9.512          	0.115
MS.419         	9.492          	0.142
MS.420         	9.472          	0.1
MS.421         	9.455          	0.106
MS.422         	9.435          	0.11
MS.423         	9.417          	0.112
MS.424         	9.398          	0.122
MS.425         	9.38           	0.129
MS.426         	9.36           	0.12
MS.427         	9.342          	0.098
MS.428         	9.323          	0.114
MS.429         	9.305          	0.066
MS.430         	9.285          	0.099
MS.431         	9.267          	0.087
MS.432         	9.25           	0.101
MS.433         	9.23           	0.101
MS.434         	9.212          	0.09
MS.435         	9.193          	0.098
MS.436         	9.175          	0.105
MS.437         	9.158          	0.079
MS.438         	9.137          	0.087
MS.439         	9.12           	0.094
MS.440         	9.102          	0.087
MS.441         	9.085          	0.099
MS.442         	9.065          	0.072
MS.443         	9.047          	0.095
MS.444         	9.03           	0.081
MS.445         	9.012          	0.057
MS.446         	8.992          	0.068
MS.447         	8.975          	0.076
MS.448         	8.957          	0.063
MS.449         	8.94           	0.042
MS.450         	8.922          	0.045
MS.451         	8.905          	0.059
MS.452         	8.887          	0.027
MS.453         	8.867          	0.045
MS.454         	8.85           	0.067
MS.455         	8.832          	0.059
MS.456         	8.815          	0.039
MS.457         	8.797          	0.037
MS.458         	8.78           	0.04
MS.459         	8.762          	0.033
MS.460         	8.745          	0.039
MS.461         	8.727          	0.035
MS.462         	8.71           	0.026
MS.463         	8.693          	0.031
MS.464         	8.675          	0.048
MS.465         	8.658          	0.024
MS.466         	8.64           	0.029
MS.467         	8.625          	0.037
MS.468         	8.608          	0.017
MS.469         	8.59           	0.02
MS.470         	8.573          	0.032
MS.471         	8.555          	0.026
MS.472         	8.537          	0.029
MS.473         	8.52           	0.022
MS.474         	8.505          	0.024
MS.475         	8.488          	0.02
MS.476         	8.47           	0.018
MS.477         	8.452          	0.026
MS.478         	8.435          	0.016
MS.479         	8.42           	0.021
MS.480         	8.403          	0.022
MS.481         	8.385          	0.02
MS.482         	8.37           	0.016
MS.483         	8.352          	0.02
MS.484         	8.335          	0.021
MS.485         	8.32           	0.021
MS.486         	8.302          	0.018
MS.487         	8.285          	0.016
MS.488         	8.27           	0.021
MS.489         	8.252          	0.015
MS.490         	8.235          	0.026
MS.491         	8.22           	0.018
MS.492         	8.202          	0.017
MS.493         	8.188          	0.016
MS.494         	8.17           	0.016
MS.495         	8.155          	0.016
MS.496         	8.137          	0.017
MS.497         	8.122          	0.02
MS.498         	8.105          	0.021
MS.499         	8.09           	0.016
MS.500         	8.073          	0.018
MS.501         	8.057          	0.021
