File:              	C:\Qtrac\Data\Daniel M Sørensen\MScan multicentre study\Data from centres\Ankara\Processed data\IAC10113D.QZD
Name:              	TR.ANK.NC.9.1
Protocol:          	MSCAN-R2
Date:              	13/1/21
Start time:        	14:43:23
Age:               	27
Sex:               	m
Temperature:
S/R sites:         	TA
NC/disease:        	NC
Operator:          	eb
Comments:
M-SCAN DATA (7.9-3.2m)
Scanpts: 54, 60, 415, 420
Stim. (mA)     	Amp. (mV)
MS.1           	37.5           	5.477
MS.2           	37.5           	5.527
MS.3           	37.5           	5.549
MS.4           	37.5           	5.523
MS.5           	37.5           	5.47
MS.6           	37.5           	5.529
MS.7           	37.5           	5.521
MS.8           	37.5           	5.521
MS.9           	37.5           	5.515
MS.10          	37.5           	5.519
MS.11          	37.5           	5.495
MS.12          	37.5           	5.537
MS.13          	37.5           	5.541
MS.14          	37.5           	5.555
MS.15          	37.5           	5.517
MS.16          	37.5           	5.547
MS.17          	37.5           	5.517
MS.18          	37.5           	5.579
MS.19          	37.5           	5.575
MS.20          	37.5           	5.609
MS.21          	37.5           	5.595
MS.22          	37.5           	5.555
MS.23          	37.5           	5.567
MS.24          	37.35          	5.553
MS.25          	37.275         	5.537
MS.26          	37.2           	5.547
MS.27          	37.127         	5.583
MS.28          	37.052         	5.539
MS.29          	36.978         	5.531
MS.30          	36.905         	5.587
MS.31          	36.83          	5.555
MS.32          	36.757         	5.563
MS.33          	36.685         	5.549
MS.34          	36.61          	5.543
MS.35          	36.537         	5.563
MS.36          	36.465         	5.593
MS.37          	36.392         	5.533
MS.38          	36.32          	5.577
MS.39          	36.247         	5.543
MS.40          	36.175         	5.549
MS.41          	36.103         	5.557
MS.42          	36.03          	5.535
MS.43          	35.958         	5.537
MS.44          	35.885         	5.537
MS.45          	35.815         	5.527
MS.46          	35.743         	5.523
MS.47          	35.67          	5.561
MS.48          	35.6           	5.571
MS.49          	35.528         	5.587
MS.50          	35.458         	5.567
MS.51          	35.388         	5.593
MS.52          	35.315         	5.587
MS.53          	35.245         	5.555
MS.54          	35.175         	5.583
MS.55          	35.105         	5.563
MS.56          	35.035         	5.583
MS.57          	34.965         	5.571
MS.58          	34.895         	5.605
MS.59          	34.825         	5.569
MS.60          	34.755         	5.591
MS.61          	34.685         	5.587
MS.62          	34.618         	5.561
MS.63          	34.548         	5.537
MS.64          	34.478         	5.563
MS.65          	34.41          	5.559
MS.66          	34.34          	5.551
MS.67          	34.272         	5.557
MS.68          	34.205         	5.593
MS.69          	34.135         	5.537
MS.70          	34.068         	5.527
MS.71          	34             	5.543
MS.72          	33.93          	5.565
MS.73          	33.862         	5.567
MS.74          	33.795         	5.573
MS.75          	33.728         	5.541
MS.76          	33.66          	5.543
MS.77          	33.592         	5.527
MS.78          	33.528         	5.529
MS.79          	33.46          	5.503
MS.80          	33.392         	5.481
MS.81          	33.325         	5.587
MS.82          	33.26          	5.517
MS.83          	33.193         	5.541
MS.84          	33.127         	5.513
MS.85          	33.06          	5.511
MS.86          	32.995         	5.511
MS.87          	32.927         	5.519
MS.88          	32.862         	5.515
MS.89          	32.798         	5.497
MS.90          	32.732         	5.555
MS.91          	32.665         	5.533
MS.92          	32.6           	5.535
MS.93          	32.535         	5.519
MS.94          	32.47          	5.513
MS.95          	32.405         	5.513
MS.96          	32.34          	5.442
MS.97          	32.278         	5.477
MS.98          	32.212         	5.525
MS.99          	32.147         	5.408
MS.100         	32.083         	5.412
MS.101         	32.02          	5.416
MS.102         	31.955         	5.495
MS.103         	31.892         	5.448
MS.104         	31.827         	5.406
MS.105         	31.765         	5.378
MS.106         	31.7           	5.444
MS.107         	31.637         	5.42
MS.108         	31.575         	5.374
MS.109         	31.51          	5.364
MS.110         	31.448         	5.386
MS.111         	31.385         	5.388
MS.112         	31.323         	5.362
MS.113         	31.26          	5.424
MS.114         	31.198         	5.412
MS.115         	31.135         	5.352
MS.116         	31.073         	5.414
MS.117         	31.01          	5.416
MS.118         	30.95          	5.321
MS.119         	30.887         	5.327
MS.120         	30.825         	5.364
MS.121         	30.762         	5.305
MS.122         	30.702         	5.319
MS.123         	30.64          	5.41
MS.124         	30.58          	5.392
MS.125         	30.517         	5.36
MS.126         	30.457         	5.406
MS.127         	30.397         	5.289
MS.128         	30.335         	5.233
MS.129         	30.275         	5.342
MS.130         	30.215         	5.364
MS.131         	30.155         	5.398
MS.132         	30.095         	5.382
MS.133         	30.035         	5.424
MS.134         	29.975         	5.384
MS.135         	29.915         	5.38
MS.136         	29.855         	5.37
MS.137         	29.795         	5.344
MS.138         	29.735         	5.269
MS.139         	29.675         	5.317
MS.140         	29.617         	5.237
MS.141         	29.557         	5.199
MS.142         	29.497         	5.047
MS.143         	29.44          	5.148
MS.144         	29.38          	5.233
MS.145         	29.323         	5.215
MS.146         	29.262         	5.16
MS.147         	29.205         	5.16
MS.148         	29.147         	5.06
MS.149         	29.087         	5.019
MS.150         	29.03          	5.142
MS.151         	28.972         	5.082
MS.152         	28.915         	5.106
MS.153         	28.858         	5.164
MS.154         	28.8           	5.12
MS.155         	28.743         	5.176
MS.156         	28.685         	5.076
MS.157         	28.627         	4.909
MS.158         	28.57          	5.027
MS.159         	28.512         	4.919
MS.160         	28.455         	5.049
MS.161         	28.397         	5.078
MS.162         	28.342         	4.949
MS.163         	28.285         	4.874
MS.164         	28.227         	4.862
MS.165         	28.172         	4.947
MS.166         	28.115         	4.86
MS.167         	28.06          	4.872
MS.168         	28.002         	4.749
MS.169         	27.948         	4.846
MS.170         	27.892         	4.822
MS.171         	27.835         	4.79
MS.172         	27.78          	4.832
MS.173         	27.725         	4.848
MS.174         	27.67          	4.806
MS.175         	27.615         	4.776
MS.176         	27.56          	4.79
MS.177         	27.505         	4.685
MS.178         	27.45          	4.757
MS.179         	27.395         	4.663
MS.180         	27.34          	4.753
MS.181         	27.285         	4.697
MS.182         	27.23          	4.649
MS.183         	27.175         	4.592
MS.184         	27.122         	4.604
MS.185         	27.067         	4.494
MS.186         	27.012         	4.471
MS.187         	26.96          	4.484
MS.188         	26.905         	4.469
MS.189         	26.852         	4.445
MS.190         	26.797         	4.498
MS.191         	26.745         	4.58
MS.192         	26.692         	4.421
MS.193         	26.637         	4.282
MS.194         	26.585         	4.193
MS.195         	26.532         	4.187
MS.196         	26.477         	4.206
MS.197         	26.425         	4.226
MS.198         	26.372         	4.248
MS.199         	26.32          	4.242
MS.200         	26.267         	4.183
MS.201         	26.215         	4.129
MS.202         	26.162         	4.099
MS.203         	26.11          	4.071
MS.204         	26.057         	4.036
MS.205         	26.005         	4.073
MS.206         	25.955         	4.069
MS.207         	25.903         	3.968
MS.208         	25.85          	3.934
MS.209         	25.8           	4.012
MS.210         	25.747         	3.922
MS.211         	25.695         	3.944
MS.212         	25.645         	4.048
MS.213         	25.592         	3.895
MS.214         	25.542         	3.762
MS.215         	25.493         	3.825
MS.216         	25.44          	3.75
MS.217         	25.39          	3.756
MS.218         	25.34          	3.712
MS.219         	25.288         	3.64
MS.220         	25.237         	3.69
MS.221         	25.188         	3.674
MS.222         	25.137         	3.831
MS.223         	25.087         	3.615
MS.224         	25.038         	3.593
MS.225         	24.987         	3.609
MS.226         	24.938         	3.638
MS.227         	24.887         	3.478
MS.228         	24.837         	3.591
MS.229         	24.788         	3.368
MS.230         	24.737         	3.394
MS.231         	24.688         	3.446
MS.232         	24.64          	3.394
MS.233         	24.59          	3.491
MS.234         	24.54          	3.44
MS.235         	24.493         	3.299
MS.236         	24.442         	3.364
MS.237         	24.395         	3.273
MS.238         	24.345         	3.035
MS.239         	24.297         	3.041
MS.240         	24.247         	3.021
MS.241         	24.2           	3.068
MS.242         	24.153         	3.138
MS.243         	24.102         	3.17
MS.244         	24.055         	3.142
MS.245         	24.007         	2.975
MS.246         	23.96          	2.864
MS.247         	23.91          	2.804
MS.248         	23.862         	2.852
MS.249         	23.815         	2.693
MS.250         	23.767         	2.649
MS.251         	23.72          	2.626
MS.252         	23.672         	2.58
MS.253         	23.625         	2.584
MS.254         	23.577         	2.62
MS.255         	23.532         	2.532
MS.256         	23.485         	2.582
MS.257         	23.438         	2.463
MS.258         	23.39          	2.437
MS.259         	23.345         	2.514
MS.260         	23.297         	2.467
MS.261         	23.25          	2.401
MS.262         	23.205         	2.304
MS.263         	23.157         	2.282
MS.264         	23.112         	2.31
MS.265         	23.065         	2.28
MS.266         	23.02          	2.282
MS.267         	22.972         	2.131
MS.268         	22.927         	2.147
MS.269         	22.882         	2.125
MS.270         	22.835         	2.145
MS.271         	22.79          	2.147
MS.272         	22.745         	2.077
MS.273         	22.7           	1.982
MS.274         	22.655         	2.018
MS.275         	22.608         	2.004
MS.276         	22.562         	2.081
MS.277         	22.517         	2.026
MS.278         	22.472         	1.869
MS.279         	22.427         	1.867
MS.280         	22.385         	1.873
MS.281         	22.34          	1.829
MS.282         	22.295         	1.75
MS.283         	22.25          	1.698
MS.284         	22.205         	1.684
MS.285         	22.16          	1.712
MS.286         	22.118         	1.708
MS.287         	22.073         	1.571
MS.288         	22.028         	1.579
MS.289         	21.985         	1.605
MS.290         	21.94          	1.539
MS.291         	21.897         	1.517
MS.292         	21.852         	1.539
MS.293         	21.81          	1.416
MS.294         	21.765         	1.406
MS.295         	21.722         	1.414
MS.296         	21.68          	1.396
MS.297         	21.635         	1.388
MS.298         	21.592         	1.388
MS.299         	21.55          	1.331
MS.300         	21.505         	1.311
MS.301         	21.462         	1.376
MS.302         	21.42          	1.241
MS.303         	21.377         	1.233
MS.304         	21.335         	1.243
MS.305         	21.292         	1.237
MS.306         	21.25          	1.233
MS.307         	21.208         	1.174
MS.308         	21.165         	1.176
MS.309         	21.122         	1.168
MS.310         	21.08          	1.112
MS.311         	21.038         	1.051
MS.312         	20.995         	1.082
MS.313         	20.955         	1.045
MS.314         	20.913         	1.051
MS.315         	20.87          	1.011
MS.316         	20.83          	1.108
MS.317         	20.788         	0.977
MS.318         	20.745         	0.912
MS.319         	20.705         	0.922
MS.320         	20.663         	0.922
MS.321         	20.622         	0.85
MS.322         	20.58          	0.842
MS.323         	20.54          	0.824
MS.324         	20.497         	0.848
MS.325         	20.458         	0.773
MS.326         	20.417         	0.8
MS.327         	20.375         	0.739
MS.328         	20.335         	0.647
MS.329         	20.295         	0.673
MS.330         	20.252         	0.657
MS.331         	20.212         	0.532
MS.332         	20.172         	0.562
MS.333         	20.132         	0.552
MS.334         	20.092         	0.469
MS.335         	20.052         	0.467
MS.336         	20.012         	0.445
MS.337         	19.972         	0.371
MS.338         	19.932         	0.381
MS.339         	19.892         	0.373
MS.340         	19.852         	0.409
MS.341         	19.812         	0.397
MS.342         	19.772         	0.324
MS.343         	19.735         	0.35
MS.344         	19.695         	0.332
MS.345         	19.655         	0.29
MS.346         	19.615         	0.322
MS.347         	19.577         	0.33
MS.348         	19.538         	0.286
MS.349         	19.497         	0.27
MS.350         	19.46          	0.238
MS.351         	19.42          	0.272
MS.352         	19.382         	0.266
MS.353         	19.342         	0.232
MS.354         	19.305         	0.189
MS.355         	19.265         	0.211
MS.356         	19.227         	0.238
MS.357         	19.19          	0.193
MS.358         	19.15          	0.205
MS.359         	19.112         	0.209
MS.360         	19.075         	0.115
MS.361         	19.035         	0.216
MS.362         	18.997         	0.165
MS.363         	18.96          	0.155
MS.364         	18.922         	0.165
MS.365         	18.885         	0.216
MS.366         	18.847         	0.157
MS.367         	18.81          	0.119
MS.368         	18.772         	0.137
MS.369         	18.735         	0.137
MS.370         	18.698         	0.133
MS.371         	18.66          	0.119
MS.372         	18.622         	0.115
MS.373         	18.585         	0.105
MS.374         	18.547         	0.133
MS.375         	18.51          	0.089
MS.376         	18.472         	0.091
MS.377         	18.438         	0.101
MS.378         	18.4           	0.077
MS.379         	18.362         	0.068
MS.380         	18.327         	0.07
MS.381         	18.29          	0.052
MS.382         	18.253         	0.073
MS.383         	18.217         	0.075
MS.384         	18.18          	0.109
MS.385         	18.145         	0.081
MS.386         	18.108         	0.052
MS.387         	18.073         	0.091
MS.388         	18.035         	0.087
MS.389         	18             	0.064
MS.390         	17.962         	0.062
MS.391         	17.927         	0.075
MS.392         	17.892         	0.06
MS.393         	17.855         	0.046
MS.394         	17.82          	0.05
MS.395         	17.785         	0.038
MS.396         	17.75          	0.008
MS.397         	17.712         	-0.006
MS.398         	17.677         	0.02
MS.399         	17.642         	0.018
MS.400         	17.608         	0.000
MS.401         	17.573         	-0.01
MS.402         	17.538         	-0.004
MS.403         	17.503         	0.014
MS.404         	17.467         	0.004
MS.405         	17.432         	0.018
MS.406         	17.397         	0.012
MS.407         	17.362         	-0.008
MS.408         	17.327         	0.002
MS.409         	17.292         	-0.004
MS.410         	17.26          	-0.002
MS.411         	17.225         	0.000
MS.412         	17.19          	0.004
MS.413         	17.155         	0.008
MS.414         	17.122         	0.004
MS.415         	17.087         	0.002
MS.416         	17.052         	0.004
MS.417         	17.02          	0.004
MS.418         	16.985         	0.006
MS.419         	16.95          	-0.002
MS.420         	16.917         	-0.006
MS.421         	16.882         	-0.008
MS.422         	16.85          	-0.002
MS.423         	16.815         	0.002
MS.424         	16.782         	-0.012
MS.425         	16.75          	-0.004
MS.426         	16.715         	-0.004
MS.427         	16.682         	-0.008
MS.428         	16.65          	-0.01
MS.429         	16.615         	-0.01
MS.430         	16.583         	0.002
MS.431         	16.55          	-0.012
MS.432         	16.515         	-0.004
MS.433         	16.483         	0.006
MS.434         	16.45          	0.022
MS.435         	16.417         	0.000
MS.436         	16.385         	0.004
MS.437         	16.352         	0.004
MS.438         	16.32          	-0.002
MS.439         	16.288         	0.01
MS.440         	16.255         	-0.006
MS.441         	16.222         	0.000
MS.442         	16.19          	0.02
MS.443         	16.157         	0.002
MS.444         	16.125         	0.000
MS.445         	16.092         	-0.002
MS.446         	16.06          	0.004
MS.447         	16.028         	0.006
MS.448         	15.995         	-0.006
MS.449         	15.965         	-0.002
MS.450         	15.932         	-0.006
MS.451         	15.9           	-0.014
MS.452         	15.867         	0.002
MS.453         	15.837         	-0.008
MS.454         	15.805         	0.014
MS.455         	15.773         	0.000
MS.456         	15.742         	0.012
MS.457         	15.71          	-0.002
MS.458         	15.68          	-0.01
MS.459         	15.648         	0.016
MS.460         	15.617         	0.01
MS.461         	15.585         	0.038
MS.462         	15.555         	0.006
MS.463         	15.523         	-0.004
MS.464         	15.492         	-0.004
MS.465         	15.46          	0.026
MS.466         	15.43          	0.004
MS.467         	15.4           	0.008
MS.468         	15.37          	0.012
MS.469         	15.337         	0.012
MS.470         	15.307         	-0.006
MS.471         	15.277         	0.012
MS.472         	15.247         	-0.002
MS.473         	15.215         	0.026
MS.474         	15.185         	-0.002
MS.475         	15.155         	0.02
MS.476         	15.125         	-0.004
MS.477         	15.095         	-0.004
MS.478         	15.065         	0.000
MS.479         	15.035         	-0.002
MS.480         	15.005         	0.006
MS.481         	14.975         	0.002
MS.482         	14.945         	0.01
MS.483         	14.915         	0.024
MS.484         	14.885         	-0.006
MS.485         	14.855         	0.002
MS.486         	14.825         	0.022
MS.487         	14.795         	-0.002
MS.488         	14.765         	0.008
MS.489         	14.737         	0.006
MS.490         	14.707         	0.012
MS.491         	14.677         	0.012
MS.492         	14.648         	-0.004
MS.493         	14.62          	0.008
MS.494         	14.59          	-0.006
MS.495         	14.56          	0.026
MS.496         	14.532         	-0.006
MS.497         	14.502         	0.008
MS.498         	14.475         	-0.002
MS.499         	14.445         	0.008
MS.500         	14.415         	0.012
