File:              	C:\Qtrac\Data\Daniel M Sørensen\MScan multicentre study\Data from centres\Ankara\Processed data\IKC10120C.QZD
Name:              	TR.ANK.NC.10.2
Protocol:          	MSCAN-R2
Date:              	20/1/21
Start time:        	15:50:47
Age:               	25
Sex:               	f
Temperature:
S/R sites:         	TA
NC/disease:        	NC
Operator:          	eb
Comments:
M-SCAN DATA (5.7-0.8m)
Scanpts: 5, 13, 468, 474
Stim. (mA)     	Amp. (mV)
MS.1           	22.5           	4.447
MS.2           	22.5           	4.397
MS.3           	22.5           	4.38
MS.4           	22.5           	4.399
MS.5           	22.5           	4.415
MS.6           	22.5           	4.392
MS.7           	22.5           	4.448
MS.8           	22.5           	4.413
MS.9           	22.5           	4.404
MS.10          	22.5           	4.333
MS.11          	22.5           	4.337
MS.12          	22.5           	4.327
MS.13          	22.5           	4.469
MS.14          	22.5           	4.381
MS.15          	22.5           	4.26
MS.16          	22.5           	4.321
MS.17          	22.5           	4.364
MS.18          	22.5           	4.276
MS.19          	22.5           	4.37
MS.20          	22.5           	4.235
MS.21          	22.5           	4.098
MS.22          	22.5           	4.425
MS.23          	22.5           	4.427
MS.24          	22.455         	4.353
MS.25          	22.41          	4.333
MS.26          	22.365         	4.365
MS.27          	22.32          	4.667
MS.28          	22.275         	4.146
MS.29          	22.233         	3.938
MS.30          	22.188         	4.421
MS.31          	22.142         	3.927
MS.32          	22.097         	4.253
MS.33          	22.055         	4.401
MS.34          	22.01          	4.38
MS.35          	21.967         	4.261
MS.36          	21.922         	4.247
MS.37          	21.877         	4.258
MS.38          	21.835         	4.341
MS.39          	21.792         	4.363
MS.40          	21.747         	3.782
MS.41          	21.705         	4.33
MS.42          	21.66          	4.161
MS.43          	21.618         	4.012
MS.44          	21.575         	4.203
MS.45          	21.532         	4.23
MS.46          	21.487         	4.181
MS.47          	21.445         	4.149
MS.48          	21.403         	4.121
MS.49          	21.36          	4.213
MS.50          	21.317         	4.133
MS.51          	21.275         	4.133
MS.52          	21.233         	4.103
MS.53          	21.19          	4.1
MS.54          	21.147         	4.016
MS.55          	21.105         	4.053
MS.56          	21.062         	4.064
MS.57          	21.02          	4.086
MS.58          	20.98          	3.912
MS.59          	20.938         	4.045
MS.60          	20.895         	3.973
MS.61          	20.852         	3.894
MS.62          	20.812         	4.055
MS.63          	20.77          	3.884
MS.64          	20.727         	4.012
MS.65          	20.688         	4.025
MS.66          	20.645         	3.988
MS.67          	20.605         	4
MS.68          	20.562         	3.992
MS.69          	20.522         	4.014
MS.70          	20.483         	3.962
MS.71          	20.44          	3.965
MS.72          	20.4           	3.982
MS.73          	20.36          	3.931
MS.74          	20.317         	3.923
MS.75          	20.278         	3.903
MS.76          	20.237         	3.909
MS.77          	20.198         	3.959
MS.78          	20.157         	3.893
MS.79          	20.115         	3.903
MS.80          	20.075         	3.95
MS.81          	20.035         	3.916
MS.82          	19.995         	3.91
MS.83          	19.955         	3.92
MS.84          	19.915         	3.903
MS.85          	19.875         	3.851
MS.86          	19.837         	3.834
MS.87          	19.797         	3.892
MS.88          	19.757         	3.868
MS.89          	19.717         	3.801
MS.90          	19.677         	3.875
MS.91          	19.64          	3.81
MS.92          	19.6           	3.8
MS.93          	19.56          	3.787
MS.94          	19.522         	3.751
MS.95          	19.483         	3.751
MS.96          	19.442         	3.772
MS.97          	19.405         	3.79
MS.98          	19.365         	3.729
MS.99          	19.327         	3.684
MS.100         	19.288         	3.606
MS.101         	19.25          	3.665
MS.102         	19.212         	3.586
MS.103         	19.172         	3.651
MS.104         	19.135         	3.622
MS.105         	19.097         	3.38
MS.106         	19.057         	3.623
MS.107         	19.02          	3.521
MS.108         	18.983         	3.499
MS.109         	18.945         	3.633
MS.110         	18.907         	3.616
MS.111         	18.87          	3.605
MS.112         	18.83          	3.563
MS.113         	18.792         	3.599
MS.114         	18.755         	3.602
MS.115         	18.717         	3.557
MS.116         	18.68          	3.593
MS.117         	18.645         	3.563
MS.118         	18.608         	3.536
MS.119         	18.57          	3.61
MS.120         	18.532         	3.379
MS.121         	18.495         	3.479
MS.122         	18.458         	3.463
MS.123         	18.422         	3.516
MS.124         	18.385         	3.474
MS.125         	18.347         	3.345
MS.126         	18.312         	3.352
MS.127         	18.275         	3.323
MS.128         	18.237         	3.334
MS.129         	18.202         	3.331
MS.130         	18.165         	3.273
MS.131         	18.13          	3.279
MS.132         	18.092         	3.263
MS.133         	18.057         	3.218
MS.134         	18.02          	3.3
MS.135         	17.985         	3.239
MS.136         	17.948         	3.27
MS.137         	17.913         	3.145
MS.138         	17.878         	3.229
MS.139         	17.842         	3.231
MS.140         	17.805         	3.202
MS.141         	17.77          	3.162
MS.142         	17.735         	3.127
MS.143         	17.7           	3.202
MS.144         	17.665         	3.136
MS.145         	17.628         	3.015
MS.146         	17.592         	3.192
MS.147         	17.557         	3.046
MS.148         	17.522         	3.024
MS.149         	17.487         	3.068
MS.150         	17.452         	3.058
MS.151         	17.417         	3.102
MS.152         	17.382         	3.037
MS.153         	17.347         	3.008
MS.154         	17.315         	3.027
MS.155         	17.28          	3.019
MS.156         	17.245         	2.96
MS.157         	17.21          	2.883
MS.158         	17.175         	2.867
MS.159         	17.142         	2.876
MS.160         	17.108         	2.791
MS.161         	17.073         	2.804
MS.162         	17.04          	2.769
MS.163         	17.005         	2.931
MS.164         	16.97          	2.822
MS.165         	16.938         	2.764
MS.166         	16.903         	2.802
MS.167         	16.87          	2.74
MS.168         	16.835         	2.721
MS.169         	16.802         	2.765
MS.170         	16.767         	2.736
MS.171         	16.735         	2.64
MS.172         	16.702         	2.812
MS.173         	16.667         	2.631
MS.174         	16.635         	2.633
MS.175         	16.602         	2.69
MS.176         	16.567         	2.561
MS.177         	16.535         	2.598
MS.178         	16.503         	2.488
MS.179         	16.47          	2.576
MS.180         	16.438         	2.523
MS.181         	16.405         	2.528
MS.182         	16.37          	2.537
MS.183         	16.337         	2.494
MS.184         	16.305         	2.396
MS.185         	16.272         	2.34
MS.186         	16.24          	2.313
MS.187         	16.208         	2.466
MS.188         	16.175         	2.372
MS.189         	16.142         	2.343
MS.190         	16.11          	2.167
MS.191         	16.08          	2.242
MS.192         	16.047         	2.308
MS.193         	16.015         	2.288
MS.194         	15.983         	2.328
MS.195         	15.95          	2.09
MS.196         	15.92          	2.384
MS.197         	15.887         	2.235
MS.198         	15.855         	2.346
MS.199         	15.825         	2.347
MS.200         	15.792         	2.151
MS.201         	15.76          	2.225
MS.202         	15.73          	2.297
MS.203         	15.697         	2.115
MS.204         	15.667         	2.166
MS.205         	15.635         	2.169
MS.206         	15.605         	2.104
MS.207         	15.572         	2.104
MS.208         	15.542         	2.047
MS.209         	15.51          	1.951
MS.210         	15.48          	2.041
MS.211         	15.447         	1.936
MS.212         	15.417         	1.997
MS.213         	15.387         	1.808
MS.214         	15.355         	1.937
MS.215         	15.325         	1.865
MS.216         	15.295         	1.909
MS.217         	15.265         	1.804
MS.218         	15.235         	1.72
MS.219         	15.202         	1.741
MS.220         	15.172         	1.67
MS.221         	15.142         	1.659
MS.222         	15.112         	1.774
MS.223         	15.082         	1.65
MS.224         	15.052         	1.606
MS.225         	15.023         	1.676
MS.226         	14.992         	1.637
MS.227         	14.962         	1.63
MS.228         	14.932         	1.481
MS.229         	14.902         	1.597
MS.230         	14.872         	1.586
MS.231         	14.842         	1.556
MS.232         	14.812         	1.499
MS.233         	14.782         	1.576
MS.234         	14.755         	1.401
MS.235         	14.725         	1.482
MS.236         	14.695         	1.394
MS.237         	14.665         	1.399
MS.238         	14.637         	1.443
MS.239         	14.608         	1.422
MS.240         	14.577         	1.447
MS.241         	14.55          	1.4
MS.242         	14.52          	1.227
MS.243         	14.49          	1.4
MS.244         	14.462         	1.299
MS.245         	14.432         	1.399
MS.246         	14.405         	1.265
MS.247         	14.375         	1.249
MS.248         	14.347         	1.162
MS.249         	14.318         	1.184
MS.250         	14.29          	1.232
MS.251         	14.26          	1.223
MS.252         	14.233         	1.168
MS.253         	14.205         	1.172
MS.254         	14.175         	1.107
MS.255         	14.148         	1.119
MS.256         	14.12          	1.108
MS.257         	14.09          	1.118
MS.258         	14.062         	1.133
MS.259         	14.035         	1.047
MS.260         	14.007         	1.079
MS.261         	13.977         	1.066
MS.262         	13.95          	0.944
MS.263         	13.922         	0.934
MS.264         	13.895         	1.007
MS.265         	13.867         	0.947
MS.266         	13.84          	0.989
MS.267         	13.812         	0.901
MS.268         	13.785         	0.969
MS.269         	13.757         	1.062
MS.270         	13.73          	0.983
MS.271         	13.702         	0.98
MS.272         	13.675         	0.823
MS.273         	13.648         	0.858
MS.274         	13.62          	0.847
MS.275         	13.592         	0.892
MS.276         	13.565         	0.973
MS.277         	13.537         	0.771
MS.278         	13.51          	0.956
MS.279         	13.485         	0.836
MS.280         	13.457         	0.793
MS.281         	13.43          	0.753
MS.282         	13.403         	0.854
MS.283         	13.377         	0.731
MS.284         	13.35          	0.773
MS.285         	13.322         	0.72
MS.286         	13.297         	0.663
MS.287         	13.27          	0.704
MS.288         	13.242         	0.631
MS.289         	13.217         	0.675
MS.290         	13.19          	0.645
MS.291         	13.165         	0.684
MS.292         	13.137         	0.596
MS.293         	13.112         	0.588
MS.294         	13.085         	0.619
MS.295         	13.06          	0.575
MS.296         	13.032         	0.533
MS.297         	13.007         	0.566
MS.298         	12.983         	0.542
MS.299         	12.955         	0.596
MS.300         	12.93          	0.575
MS.301         	12.903         	0.458
MS.302         	12.877         	0.529
MS.303         	12.852         	0.555
MS.304         	12.827         	0.518
MS.305         	12.8           	0.446
MS.306         	12.775         	0.494
MS.307         	12.75          	0.398
MS.308         	12.725         	0.404
MS.309         	12.7           	0.365
MS.310         	12.672         	0.391
MS.311         	12.648         	0.348
MS.312         	12.622         	0.414
MS.313         	12.597         	0.393
MS.314         	12.572         	0.383
MS.315         	12.547         	0.345
MS.316         	12.523         	0.36
MS.317         	12.497         	0.36
MS.318         	12.472         	0.347
MS.319         	12.447         	0.312
MS.320         	12.422         	0.336
MS.321         	12.398         	0.295
MS.322         	12.372         	0.355
MS.323         	12.347         	0.303
MS.324         	12.322         	0.295
MS.325         	12.3           	0.305
MS.326         	12.275         	0.319
MS.327         	12.25          	0.255
MS.328         	12.225         	0.264
MS.329         	12.2           	0.253
MS.330         	12.177         	0.305
MS.331         	12.153         	0.221
MS.332         	12.127         	0.214
MS.333         	12.102         	0.236
MS.334         	12.08          	0.215
MS.335         	12.055         	0.214
MS.336         	12.032         	0.244
MS.337         	12.007         	0.226
MS.338         	11.983         	0.188
MS.339         	11.96          	0.201
MS.340         	11.935         	0.194
MS.341         	11.912         	0.206
MS.342         	11.887         	0.229
MS.343         	11.865         	0.184
MS.344         	11.84          	0.199
MS.345         	11.818         	0.192
MS.346         	11.792         	0.173
MS.347         	11.77          	0.186
MS.348         	11.745         	0.197
MS.349         	11.722         	0.15
MS.350         	11.7           	0.166
MS.351         	11.675         	0.159
MS.352         	11.653         	0.157
MS.353         	11.63          	0.161
MS.354         	11.605         	0.176
MS.355         	11.582         	0.156
MS.356         	11.56          	0.165
MS.357         	11.537         	0.144
MS.358         	11.512         	0.159
MS.359         	11.49          	0.17
MS.360         	11.467         	0.137
MS.361         	11.445         	0.15
MS.362         	11.422         	0.116
MS.363         	11.4           	0.149
MS.364         	11.375         	0.153
MS.365         	11.352         	0.128
MS.366         	11.33          	0.133
MS.367         	11.307         	0.105
MS.368         	11.285         	0.128
MS.369         	11.262         	0.087
MS.370         	11.24          	0.078
MS.371         	11.217         	0.099
MS.372         	11.195         	0.089
MS.373         	11.172         	0.073
MS.374         	11.15          	0.135
MS.375         	11.127         	0.112
MS.376         	11.108         	0.096
MS.377         	11.085         	0.104
MS.378         	11.062         	0.079
MS.379         	11.04          	0.083
MS.380         	11.017         	0.079
MS.381         	10.995         	0.089
MS.382         	10.975         	0.099
MS.383         	10.952         	0.07
MS.384         	10.93          	0.087
MS.385         	10.907         	0.068
MS.386         	10.887         	0.067
MS.387         	10.865         	0.048
MS.388         	10.842         	0.057
MS.389         	10.823         	0.057
MS.390         	10.8           	0.042
MS.391         	10.778         	0.038
MS.392         	10.757         	0.051
MS.393         	10.735         	0.044
MS.394         	10.712         	0.07
MS.395         	10.693         	0.046
MS.396         	10.67          	0.044
MS.397         	10.65          	0.045
MS.398         	10.627         	0.057
MS.399         	10.608         	0.037
MS.400         	10.585         	0.039
MS.401         	10.565         	0.034
MS.402         	10.542         	0.035
MS.403         	10.523         	0.04
MS.404         	10.502         	0.038
MS.405         	10.48          	0.038
MS.406         	10.46          	0.033
MS.407         	10.438         	0.038
MS.408         	10.417         	0.037
MS.409         	10.398         	0.039
MS.410         	10.375         	0.039
MS.411         	10.355         	0.038
MS.412         	10.335         	0.035
MS.413         	10.315         	0.033
MS.414         	10.292         	0.038
MS.415         	10.273         	0.033
MS.416         	10.252         	0.038
MS.417         	10.233         	0.035
MS.418         	10.212         	0.034
MS.419         	10.19          	0.035
MS.420         	10.17          	0.038
MS.421         	10.15          	0.029
MS.422         	10.13          	0.034
MS.423         	10.11          	0.034
MS.424         	10.09          	0.034
MS.425         	10.07          	0.033
MS.426         	10.05          	0.04
MS.427         	10.03          	0.031
MS.428         	10.01          	0.028
MS.429         	9.99           	0.027
MS.430         	9.97           	0.027
MS.431         	9.95           	0.034
MS.432         	9.93           	0.028
MS.433         	9.91           	0.031
MS.434         	9.89           	0.034
MS.435         	9.87           	0.028
MS.436         	9.85           	0.031
MS.437         	9.83           	0.035
MS.438         	9.81           	0.028
MS.439         	9.792          	0.033
MS.440         	9.773          	0.024
MS.441         	9.752          	0.034
MS.442         	9.733          	0.034
MS.443         	9.712          	0.033
MS.444         	9.695          	0.027
MS.445         	9.675          	0.029
MS.446         	9.655          	0.029
MS.447         	9.635          	0.028
MS.448         	9.617          	0.028
MS.449         	9.597          	0.024
MS.450         	9.577          	0.026
MS.451         	9.56           	0.029
MS.452         	9.54           	0.028
MS.453         	9.52           	0.027
MS.454         	9.502          	0.031
MS.455         	9.483          	0.026
MS.456         	9.465          	0.034
MS.457         	9.445          	0.026
MS.458         	9.427          	0.023
MS.459         	9.407          	0.031
MS.460         	9.39           	0.026
MS.461         	9.37           	0.031
MS.462         	9.352          	0.028
MS.463         	9.332          	0.023
MS.464         	9.315          	0.031
MS.465         	9.295          	0.026
MS.466         	9.278          	0.026
MS.467         	9.257          	0.026
MS.468         	9.24           	0.027
MS.469         	9.222          	0.026
MS.470         	9.202          	0.026
MS.471         	9.185          	0.022
MS.472         	9.165          	0.026
MS.473         	9.148          	0.026
MS.474         	9.13           	0.029
MS.475         	9.113          	0.028
MS.476         	9.092          	0.026
MS.477         	9.075          	0.027
MS.478         	9.057          	0.029
MS.479         	9.037          	0.027
MS.480         	9.02           	0.027
MS.481         	9.002          	0.026
MS.482         	8.985          	0.028
MS.483         	8.967          	0.024
MS.484         	8.95           	0.024
MS.485         	8.93           	0.026
MS.486         	8.912          	0.027
MS.487         	8.895          	0.024
MS.488         	8.877          	0.024
MS.489         	8.86           	0.023
MS.490         	8.842          	0.024
MS.491         	8.825          	0.026
MS.492         	8.807          	0.028
MS.493         	8.79           	0.027
MS.494         	8.773          	0.026
MS.495         	8.755          	0.024
MS.496         	8.738          	0.026
MS.497         	8.72           	0.024
MS.498         	8.702          	0.023
MS.499         	8.685          	0.028
MS.500         	8.667          	0.022
MS.501         	8.65           	0.027
