File:              	C:\Qtrac\Data\Daniel M Sørensen\MScan multicentre study\Data from centres\Roskilde\Folders with NC-examinations\ROS_N3b\MBC00311C.QZD
Name:              	DK.ROS.NC.3.2
Protocol:          	MSCAN-R2
Date:              	11/3/20
Start time:        	12:13:38
Age:               	22
Sex:               	f
Temperature:       	39.8
S/R sites:         	Per-TA
NC/disease:        	NC
Operator:          	MB
Comments:
M-SCAN DATA (6-1.4m)
Scanpts: 13, 18, 351, 362
Stim. (mA)     	Amp. (mV)
MS.1           	27             	4.216
MS.2           	27             	4.204
MS.3           	27             	4.181
MS.4           	27             	4.183
MS.5           	27             	4.155
MS.6           	27             	4.143
MS.7           	27             	4.161
MS.8           	27             	4.147
MS.9           	27             	4.119
MS.10          	27             	4.137
MS.11          	27             	4.153
MS.12          	27             	4.141
MS.13          	27             	4.129
MS.14          	27             	4.133
MS.15          	27             	4.167
MS.16          	27             	4.133
MS.17          	27             	4.131
MS.18          	27             	4.149
MS.19          	27             	4.117
MS.20          	27             	4.151
MS.21          	27             	4.117
MS.22          	27             	4.127
MS.23          	27             	4.113
MS.24          	26.892         	4.109
MS.25          	26.837         	4.105
MS.26          	26.785         	4.099
MS.27          	26.73          	4.123
MS.28          	26.677         	4.087
MS.29          	26.625         	4.095
MS.30          	26.573         	4.089
MS.31          	26.517         	4.073
MS.32          	26.465         	4.071
MS.33          	26.412         	4.052
MS.34          	26.36          	4.046
MS.35          	26.307         	4.038
MS.36          	26.255         	4.028
MS.37          	26.202         	4.03
MS.38          	26.15          	4.038
MS.39          	26.097         	4.026
MS.40          	26.045         	3.978
MS.41          	25.993         	3.998
MS.42          	25.94          	3.984
MS.43          	25.89          	3.942
MS.44          	25.837         	3.96
MS.45          	25.785         	3.948
MS.46          	25.735         	3.938
MS.47          	25.682         	3.918
MS.48          	25.632         	3.911
MS.49          	25.58          	3.863
MS.50          	25.53          	3.916
MS.51          	25.477         	3.847
MS.52          	25.427         	3.863
MS.53          	25.377         	3.92
MS.54          	25.325         	3.851
MS.55          	25.275         	3.821
MS.56          	25.225         	3.811
MS.57          	25.175         	3.787
MS.58          	25.125         	3.851
MS.59          	25.075         	3.823
MS.60          	25.025         	3.825
MS.61          	24.975         	3.823
MS.62          	24.925         	3.779
MS.63          	24.875         	3.793
MS.64          	24.825         	3.773
MS.65          	24.775         	3.764
MS.66          	24.725         	3.785
MS.67          	24.675         	3.766
MS.68          	24.627         	3.714
MS.69          	24.577         	3.746
MS.70          	24.528         	3.736
MS.71          	24.48          	3.716
MS.72          	24.43          	3.7
MS.73          	24.382         	3.666
MS.74          	24.332         	3.621
MS.75          	24.285         	3.646
MS.76          	24.235         	3.63
MS.77          	24.188         	3.664
MS.78          	24.14          	3.63
MS.79          	24.09          	3.654
MS.80          	24.042         	3.577
MS.81          	23.995         	3.609
MS.82          	23.948         	3.603
MS.83          	23.9           	3.545
MS.84          	23.85          	3.527
MS.85          	23.802         	3.509
MS.86          	23.755         	3.581
MS.87          	23.707         	3.523
MS.88          	23.66          	3.497
MS.89          	23.615         	3.47
MS.90          	23.567         	3.424
MS.91          	23.52          	3.424
MS.92          	23.472         	3.43
MS.93          	23.425         	3.36
MS.94          	23.38          	3.446
MS.95          	23.332         	3.46
MS.96          	23.285         	3.426
MS.97          	23.24          	3.289
MS.98          	23.192         	3.327
MS.99          	23.145         	3.283
MS.100         	23.1           	3.295
MS.101         	23.055         	3.271
MS.102         	23.007         	3.287
MS.103         	22.962         	3.267
MS.104         	22.915         	3.247
MS.105         	22.87          	3.223
MS.106         	22.825         	3.243
MS.107         	22.78          	3.205
MS.108         	22.733         	3.168
MS.109         	22.688         	3.14
MS.110         	22.642         	3.098
MS.111         	22.597         	3.053
MS.112         	22.552         	3.029
MS.113         	22.507         	2.977
MS.114         	22.462         	3.142
MS.115         	22.417         	3.029
MS.116         	22.372         	3.074
MS.117         	22.327         	2.983
MS.118         	22.282         	2.888
MS.119         	22.237         	2.912
MS.120         	22.195         	2.872
MS.121         	22.15          	2.898
MS.122         	22.105         	2.949
MS.123         	22.062         	2.931
MS.124         	22.017         	2.908
MS.125         	21.972         	2.838
MS.126         	21.93          	2.85
MS.127         	21.885         	2.769
MS.128         	21.842         	2.713
MS.129         	21.797         	2.802
MS.130         	21.755         	2.81
MS.131         	21.712         	2.759
MS.132         	21.667         	2.63
MS.133         	21.625         	2.675
MS.134         	21.583         	2.514
MS.135         	21.538         	2.61
MS.136         	21.495         	2.659
MS.137         	21.452         	2.522
MS.138         	21.41          	2.546
MS.139         	21.368         	2.475
MS.140         	21.325         	2.473
MS.141         	21.282         	2.435
MS.142         	21.24          	2.455
MS.143         	21.198         	2.447
MS.144         	21.155         	2.483
MS.145         	21.112         	2.338
MS.146         	21.07          	2.32
MS.147         	21.028         	2.312
MS.148         	20.985         	2.262
MS.149         	20.942         	2.268
MS.150         	20.903         	2.25
MS.151         	20.86          	2.22
MS.152         	20.817         	2.218
MS.153         	20.778         	2.23
MS.154         	20.735         	2.099
MS.155         	20.695         	2.135
MS.156         	20.653         	2.159
MS.157         	20.61          	2.101
MS.158         	20.57          	2.046
MS.159         	20.53          	2.014
MS.160         	20.487         	1.976
MS.161         	20.448         	2.028
MS.162         	20.405         	1.919
MS.163         	20.365         	2.038
MS.164         	20.325         	1.972
MS.165         	20.285         	1.903
MS.166         	20.243         	1.827
MS.167         	20.202         	1.809
MS.168         	20.163         	1.909
MS.169         	20.122         	1.77
MS.170         	20.083         	1.72
MS.171         	20.042         	1.791
MS.172         	20.002         	1.68
MS.173         	19.962         	1.619
MS.174         	19.922         	1.623
MS.175         	19.882         	1.476
MS.176         	19.842         	1.517
MS.177         	19.802         	1.591
MS.178         	19.762         	1.424
MS.179         	19.725         	1.517
MS.180         	19.685         	1.458
MS.181         	19.645         	1.545
MS.182         	19.605         	1.464
MS.183         	19.567         	1.354
MS.184         	19.528         	1.364
MS.185         	19.487         	1.418
MS.186         	19.45          	1.301
MS.187         	19.41          	1.204
MS.188         	19.372         	1.152
MS.189         	19.333         	1.279
MS.190         	19.295         	1.182
MS.191         	19.255         	1.172
MS.192         	19.217         	1.156
MS.193         	19.18          	1.065
MS.194         	19.14          	1.106
MS.195         	19.102         	1.108
MS.196         	19.065         	1.098
MS.197         	19.028         	1.104
MS.198         	18.987         	1.122
MS.199         	18.95          	1.063
MS.200         	18.913         	1.037
MS.201         	18.875         	1.049
MS.202         	18.837         	0.949
MS.203         	18.8           	0.904
MS.204         	18.762         	0.963
MS.205         	18.725         	0.9
MS.206         	18.688         	0.854
MS.207         	18.65          	0.804
MS.208         	18.612         	0.838
MS.209         	18.575         	0.84
MS.210         	18.538         	0.765
MS.211         	18.5           	0.804
MS.212         	18.465         	0.747
MS.213         	18.427         	0.729
MS.214         	18.39          	0.687
MS.215         	18.352         	0.749
MS.216         	18.317         	0.622
MS.217         	18.28          	0.61
MS.218         	18.245         	0.628
MS.219         	18.208         	0.608
MS.220         	18.17          	0.665
MS.221         	18.135         	0.552
MS.222         	18.097         	0.558
MS.223         	18.062         	0.53
MS.224         	18.028         	0.491
MS.225         	17.99          	0.483
MS.226         	17.955         	0.506
MS.227         	17.917         	0.427
MS.228         	17.882         	0.504
MS.229         	17.847         	0.516
MS.230         	17.812         	0.455
MS.231         	17.775         	0.413
MS.232         	17.74          	0.371
MS.233         	17.705         	0.344
MS.234         	17.67          	0.481
MS.235         	17.635         	0.354
MS.236         	17.6           	0.361
MS.237         	17.562         	0.379
MS.238         	17.528         	0.354
MS.239         	17.493         	0.354
MS.240         	17.458         	0.346
MS.241         	17.422         	0.334
MS.242         	17.39          	0.246
MS.243         	17.355         	0.268
MS.244         	17.32          	0.302
MS.245         	17.285         	0.278
MS.246         	17.25          	0.28
MS.247         	17.215         	0.246
MS.248         	17.182         	0.224
MS.249         	17.147         	0.203
MS.250         	17.112         	0.234
MS.251         	17.077         	0.185
MS.252         	17.045         	0.242
MS.253         	17.01          	0.201
MS.254         	16.977         	0.214
MS.255         	16.942         	0.185
MS.256         	16.91          	0.175
MS.257         	16.875         	0.183
MS.258         	16.842         	0.189
MS.259         	16.807         	0.157
MS.260         	16.775         	0.161
MS.261         	16.74          	0.159
MS.262         	16.708         	0.123
MS.263         	16.672         	0.151
MS.264         	16.64          	0.131
MS.265         	16.608         	0.139
MS.266         	16.575         	0.129
MS.267         	16.54          	0.127
MS.268         	16.507         	0.099
MS.269         	16.475         	0.123
MS.270         	16.442         	0.147
MS.271         	16.41          	0.093
MS.272         	16.378         	0.089
MS.273         	16.342         	0.085
MS.274         	16.31          	0.105
MS.275         	16.278         	0.097
MS.276         	16.245         	0.091
MS.277         	16.212         	0.062
MS.278         	16.18          	0.073
MS.279         	16.147         	0.087
MS.280         	16.118         	0.068
MS.281         	16.085         	0.05
MS.282         	16.052         	0.073
MS.283         	16.02          	0.093
MS.284         	15.987         	0.077
MS.285         	15.955         	0.062
MS.286         	15.925         	0.06
MS.287         	15.892         	0.044
MS.288         	15.86          	0.042
MS.289         	15.83          	0.04
MS.290         	15.797         	0.032
MS.291         	15.765         	0.03
MS.292         	15.735         	0.036
MS.293         	15.702         	0.04
MS.294         	15.672         	0.038
MS.295         	15.64          	0.004
MS.296         	15.61          	0.014
MS.297         	15.577         	0.026
MS.298         	15.547         	0.002
MS.299         	15.515         	0.018
MS.300         	15.485         	0.01
MS.301         	15.452         	0.008
MS.302         	15.422         	-0.004
MS.303         	15.392         	-0.004
MS.304         	15.36          	-0.006
MS.305         	15.33          	-0.018
MS.306         	15.3           	-0.006
MS.307         	15.27          	-0.014
MS.308         	15.237         	-0.014
MS.309         	15.207         	-0.014
MS.310         	15.177         	0.01
MS.311         	15.148         	-0.022
MS.312         	15.117         	-0.03
MS.313         	15.087         	-0.002
MS.314         	15.057         	-0.018
MS.315         	15.027         	-0.012
MS.316         	14.997         	-0.014
MS.317         	14.967         	-0.018
MS.318         	14.938         	-0.032
MS.319         	14.907         	-0.02
MS.320         	14.877         	-0.034
MS.321         	14.847         	-0.038
MS.322         	14.818         	-0.016
MS.323         	14.787         	-0.036
MS.324         	14.757         	-0.024
MS.325         	14.73          	-0.034
MS.326         	14.7           	-0.026
MS.327         	14.67          	-0.034
MS.328         	14.64          	-0.038
MS.329         	14.612         	-0.034
MS.330         	14.582         	-0.038
MS.331         	14.552         	-0.038
MS.332         	14.525         	-0.024
MS.333         	14.495         	-0.038
MS.334         	14.467         	-0.034
MS.335         	14.438         	-0.032
MS.336         	14.407         	-0.036
MS.337         	14.38          	-0.032
MS.338         	14.35          	-0.034
MS.339         	14.322         	-0.036
MS.340         	14.295         	-0.038
MS.341         	14.265         	-0.038
MS.342         	14.237         	-0.036
MS.343         	14.207         	-0.036
MS.344         	14.18          	-0.038
MS.345         	14.153         	-0.032
MS.346         	14.122         	-0.036
MS.347         	14.095         	-0.036
MS.348         	14.068         	-0.032
MS.349         	14.04          	-0.034
MS.350         	14.01          	-0.04
MS.351         	13.983         	-0.032
MS.352         	13.955         	-0.034
MS.353         	13.927         	-0.032
MS.354         	13.9           	-0.034
MS.355         	13.872         	-0.032
MS.356         	13.842         	-0.04
MS.357         	13.815         	-0.036
MS.358         	13.787         	-0.032
MS.359         	13.76          	-0.032
MS.360         	13.733         	-0.038
MS.361         	13.705         	-0.034
MS.362         	13.677         	-0.036
MS.363         	13.653         	-0.038
MS.364         	13.625         	-0.038
MS.365         	13.597         	-0.04
MS.366         	13.57          	-0.03
MS.367         	13.542         	-0.032
MS.368         	13.515         	-0.03
MS.369         	13.487         	-0.036
MS.370         	13.462         	-0.038
MS.371         	13.435         	-0.032
MS.372         	13.407         	-0.034
MS.373         	13.38          	-0.038
MS.374         	13.355         	-0.034
MS.375         	13.327         	-0.034
MS.376         	13.3           	-0.03
MS.377         	13.275         	-0.034
MS.378         	13.247         	-0.038
MS.379         	13.222         	-0.034
MS.380         	13.195         	-0.034
MS.381         	13.167         	-0.04
MS.382         	13.142         	-0.036
MS.383         	13.115         	-0.032
MS.384         	13.09          	-0.034
MS.385         	13.062         	-0.034
MS.386         	13.037         	-0.034
MS.387         	13.012         	-0.036
MS.388         	12.985         	-0.036
MS.389         	12.96          	-0.032
MS.390         	12.932         	-0.034
MS.391         	12.907         	-0.028
MS.392         	12.882         	-0.034
MS.393         	12.858         	-0.032
MS.394         	12.83          	-0.032
MS.395         	12.805         	-0.036
MS.396         	12.78          	-0.032
MS.397         	12.755         	-0.036
MS.398         	12.727         	-0.038
MS.399         	12.702         	-0.034
MS.400         	12.677         	-0.034
MS.401         	12.653         	-0.032
MS.402         	12.627         	-0.032
MS.403         	12.602         	-0.028
MS.404         	12.577         	-0.036
MS.405         	12.552         	-0.028
MS.406         	12.528         	-0.036
MS.407         	12.502         	-0.032
MS.408         	12.477         	-0.034
MS.409         	12.452         	-0.032
MS.410         	12.427         	-0.036
MS.411         	12.403         	-0.03
MS.412         	12.377         	-0.036
MS.413         	12.352         	-0.038
MS.414         	12.327         	-0.026
MS.415         	12.302         	-0.03
MS.416         	12.278         	-0.032
MS.417         	12.255         	-0.028
MS.418         	12.23          	-0.032
MS.419         	12.205         	-0.03
MS.420         	12.18          	-0.032
MS.421         	12.155         	-0.032
MS.422         	12.132         	-0.03
MS.423         	12.108         	-0.028
MS.424         	12.082         	-0.034
MS.425         	12.06          	-0.032
MS.426         	12.035         	-0.026
MS.427         	12.01          	-0.03
MS.428         	11.988         	-0.03
MS.429         	11.962         	-0.03
MS.430         	11.94          	-0.028
MS.431         	11.915         	-0.028
MS.432         	11.892         	-0.028
MS.433         	11.867         	-0.03
MS.434         	11.845         	-0.032
MS.435         	11.82          	-0.028
MS.436         	11.797         	-0.026
MS.437         	11.773         	-0.03
MS.438         	11.75          	-0.03
MS.439         	11.727         	-0.03
MS.440         	11.702         	-0.026
MS.441         	11.68          	-0.032
MS.442         	11.655         	-0.032
MS.443         	11.632         	-0.028
MS.444         	11.61          	-0.028
MS.445         	11.587         	-0.03
MS.446         	11.562         	-0.028
MS.447         	11.54          	-0.026
MS.448         	11.517         	-0.028
MS.449         	11.495         	-0.026
MS.450         	11.47          	-0.034
MS.451         	11.447         	-0.028
MS.452         	11.425         	-0.03
MS.453         	11.403         	-0.032
MS.454         	11.38          	-0.03
MS.455         	11.358         	-0.026
MS.456         	11.335         	-0.028
MS.457         	11.312         	-0.028
MS.458         	11.29          	-0.03
MS.459         	11.267         	-0.032
MS.460         	11.245         	-0.028
MS.461         	11.222         	-0.032
MS.462         	11.2           	-0.026
MS.463         	11.177         	-0.026
MS.464         	11.155         	-0.028
MS.465         	11.132         	-0.032
MS.466         	11.11          	-0.03
MS.467         	11.087         	-0.03
MS.468         	11.065         	-0.03
MS.469         	11.042         	-0.032
MS.470         	11.023         	-0.026
MS.471         	11             	-0.024
MS.472         	10.977         	-0.028
MS.473         	10.955         	-0.03
MS.474         	10.932         	-0.026
MS.475         	10.912         	-0.028
MS.476         	10.89          	-0.026
MS.477         	10.867         	-0.024
MS.478         	10.847         	-0.028
MS.479         	10.825         	-0.028
MS.480         	10.802         	-0.034
MS.481         	10.782         	-0.03
MS.482         	10.76          	-0.022
MS.483         	10.738         	-0.028
MS.484         	10.717         	-0.03
MS.485         	10.695         	-0.03
MS.486         	10.675         	-0.028
MS.487         	10.653         	-0.026
MS.488         	10.632         	-0.026
MS.489         	10.61          	-0.026
MS.490         	10.59          	-0.032
MS.491         	10.568         	-0.028
MS.492         	10.547         	-0.024
MS.493         	10.525         	-0.024
MS.494         	10.505         	-0.028
MS.495         	10.485         	-0.028
MS.496         	10.462         	-0.03
