File:              	C:\Qtrac\Data\Daniel M Sørensen\MScan multicentre study\Data from centres\Roskilde\Folders with NC-examinations\ROS_N10a\MBC00616C.QZD
Name:              	DK.ROS.NC.10.1
Protocol:          	MSCAN-R2
Date:              	16/6/20
Start time:        	18:35:56
Age:               	44
Sex:               	f
Temperature:       	37.3
S/R sites:         	Peroneal-TA
NC/disease:        	NC
Operator:          	MB
Comments:
M-SCAN DATA (6.8-1.4m)
Scanpts: 17, 24, 563, 585
Stim. (mA)     	Amp. (mV)
MS.1           	15             	5.154
MS.2           	15             	5.154
MS.3           	15             	5.142
MS.4           	15             	5.138
MS.5           	15             	5.11
MS.6           	15             	5.112
MS.7           	15             	5.12
MS.8           	15             	5.116
MS.9           	15             	5.124
MS.10          	15             	5.118
MS.11          	15             	5.148
MS.12          	15             	5.108
MS.13          	15             	5.108
MS.14          	15             	5.12
MS.15          	15             	5.124
MS.16          	15             	5.13
MS.17          	15             	5.106
MS.18          	15             	5.102
MS.19          	15             	5.116
MS.20          	15             	5.104
MS.21          	15             	5.122
MS.22          	15             	5.108
MS.23          	15             	5.122
MS.24          	14.94          	5.114
MS.25          	14.91          	5.088
MS.26          	14.88          	5.106
MS.27          	14.85          	5.074
MS.28          	14.82          	5.096
MS.29          	14.792         	5.084
MS.30          	14.762         	5.082
MS.31          	14.733         	5.076
MS.32          	14.702         	5.084
MS.33          	14.672         	5.092
MS.34          	14.645         	5.094
MS.35          	14.615         	5.09
MS.36          	14.585         	5.098
MS.37          	14.557         	5.066
MS.38          	14.527         	5.054
MS.39          	14.497         	5.066
MS.40          	14.47          	5.098
MS.41          	14.44          	5.09
MS.42          	14.412         	5.074
MS.43          	14.382         	5.056
MS.44          	14.355         	5.068
MS.45          	14.325         	5.064
MS.46          	14.297         	5.094
MS.47          	14.267         	5.068
MS.48          	14.24          	5.037
MS.49          	14.212         	5.076
MS.50          	14.182         	5.086
MS.51          	14.155         	5.088
MS.52          	14.127         	5.076
MS.53          	14.097         	5.056
MS.54          	14.07          	5.06
MS.55          	14.042         	5.054
MS.56          	14.015         	5.07
MS.57          	13.985         	5.058
MS.58          	13.957         	5.049
MS.59          	13.93          	5.049
MS.60          	13.903         	5.056
MS.61          	13.875         	5.049
MS.62          	13.847         	5.06
MS.63          	13.82          	5.06
MS.64          	13.792         	5.086
MS.65          	13.765         	5.043
MS.66          	13.737         	5.054
MS.67          	13.71          	5.039
MS.68          	13.682         	5.094
MS.69          	13.655         	5.076
MS.70          	13.627         	5.07
MS.71          	13.6           	5.072
MS.72          	13.572         	5.047
MS.73          	13.545         	5.074
MS.74          	13.517         	5.06
MS.75          	13.492         	5.06
MS.76          	13.465         	5.054
MS.77          	13.438         	5.082
MS.78          	13.41          	5.062
MS.79          	13.385         	5.021
MS.80          	13.358         	5.056
MS.81          	13.33          	5.037
MS.82          	13.305         	5.052
MS.83          	13.278         	5.047
MS.84          	13.25          	5.064
MS.85          	13.225         	5.068
MS.86          	13.197         	5.043
MS.87          	13.172         	5.043
MS.88          	13.145         	5.052
MS.89          	13.12          	5.033
MS.90          	13.092         	5.045
MS.91          	13.068         	5.029
MS.92          	13.04          	5.035
MS.93          	13.015         	5.029
MS.94          	12.987         	5.015
MS.95          	12.962         	5.003
MS.96          	12.938         	4.993
MS.97          	12.91          	4.973
MS.98          	12.885         	5.007
MS.99          	12.86          	4.993
MS.100         	12.832         	5.011
MS.101         	12.807         	4.999
MS.102         	12.782         	4.983
MS.103         	12.757         	4.983
MS.104         	12.73          	4.989
MS.105         	12.705         	4.967
MS.106         	12.68          	4.955
MS.107         	12.655         	4.977
MS.108         	12.63          	4.951
MS.109         	12.605         	4.959
MS.110         	12.58          	4.979
MS.111         	12.555         	4.981
MS.112         	12.53          	4.977
MS.113         	12.505         	4.949
MS.114         	12.48          	4.959
MS.115         	12.455         	4.959
MS.116         	12.43          	4.911
MS.117         	12.405         	4.957
MS.118         	12.38          	4.915
MS.119         	12.355         	4.959
MS.120         	12.33          	4.906
MS.121         	12.305         	4.933
MS.122         	12.28          	4.904
MS.123         	12.257         	4.917
MS.124         	12.233         	4.892
MS.125         	12.207         	4.904
MS.126         	12.182         	4.878
MS.127         	12.157         	4.882
MS.128         	12.135         	4.898
MS.129         	12.11          	4.886
MS.130         	12.085         	4.896
MS.131         	12.062         	4.904
MS.132         	12.037         	4.86
MS.133         	12.012         	4.866
MS.134         	11.99          	4.872
MS.135         	11.965         	4.888
MS.136         	11.943         	4.888
MS.137         	11.917         	4.935
MS.138         	11.895         	4.882
MS.139         	11.87          	4.89
MS.140         	11.847         	4.85
MS.141         	11.822         	4.882
MS.142         	11.8           	4.842
MS.143         	11.775         	4.866
MS.144         	11.752         	4.866
MS.145         	11.73          	4.836
MS.146         	11.705         	4.886
MS.147         	11.682         	4.778
MS.148         	11.657         	4.739
MS.149         	11.635         	4.812
MS.150         	11.613         	4.776
MS.151         	11.59          	4.784
MS.152         	11.565         	4.693
MS.153         	11.542         	4.763
MS.154         	11.52          	4.731
MS.155         	11.497         	4.737
MS.156         	11.472         	4.737
MS.157         	11.45          	4.727
MS.158         	11.427         	4.741
MS.159         	11.405         	4.709
MS.160         	11.382         	4.661
MS.161         	11.36          	4.737
MS.162         	11.337         	4.703
MS.163         	11.315         	4.703
MS.164         	11.292         	4.697
MS.165         	11.27          	4.701
MS.166         	11.247         	4.635
MS.167         	11.225         	4.625
MS.168         	11.202         	4.637
MS.169         	11.18          	4.693
MS.170         	11.157         	4.604
MS.171         	11.135         	4.645
MS.172         	11.113         	4.631
MS.173         	11.09          	4.59
MS.174         	11.068         	4.606
MS.175         	11.045         	4.627
MS.176         	11.023         	4.633
MS.177         	11.002         	4.564
MS.178         	10.98          	4.608
MS.179         	10.957         	4.566
MS.180         	10.935         	4.602
MS.181         	10.915         	4.556
MS.182         	10.892         	4.612
MS.183         	10.87          	4.514
MS.184         	10.847         	4.643
MS.185         	10.827         	4.596
MS.186         	10.805         	4.558
MS.187         	10.785         	4.52
MS.188         	10.762         	4.558
MS.189         	10.74          	4.473
MS.190         	10.72          	4.508
MS.191         	10.698         	4.457
MS.192         	10.677         	4.467
MS.193         	10.655         	4.56
MS.194         	10.635         	4.419
MS.195         	10.613         	4.504
MS.196         	10.592         	4.455
MS.197         	10.57          	4.49
MS.198         	10.55          	4.473
MS.199         	10.528         	4.471
MS.200         	10.507         	4.498
MS.201         	10.485         	4.494
MS.202         	10.465         	4.461
MS.203         	10.445         	4.439
MS.204         	10.422         	4.471
MS.205         	10.403         	4.407
MS.206         	10.382         	4.401
MS.207         	10.36          	4.363
MS.208         	10.34          	4.431
MS.209         	10.32          	4.373
MS.210         	10.3           	4.343
MS.211         	10.278         	4.349
MS.212         	10.257         	4.413
MS.213         	10.238         	4.367
MS.214         	10.217         	4.208
MS.215         	10.198         	4.238
MS.216         	10.175         	4.353
MS.217         	10.155         	4.185
MS.218         	10.135         	4.179
MS.219         	10.115         	4.228
MS.220         	10.095         	4.187
MS.221         	10.075         	4.23
MS.222         	10.055         	4.139
MS.223         	10.035         	4.296
MS.224         	10.015         	4.157
MS.225         	9.995          	4.157
MS.226         	9.975          	4.191
MS.227         	9.955          	4.125
MS.228         	9.935          	4.107
MS.229         	9.915          	4.016
MS.230         	9.895          	4.046
MS.231         	9.875          	4.024
MS.232         	9.855          	4.012
MS.233         	9.835          	4.01
MS.234         	9.818          	3.952
MS.235         	9.797          	4.004
MS.236         	9.778          	3.978
MS.237         	9.757          	3.952
MS.238         	9.738          	3.936
MS.239         	9.717          	3.958
MS.240         	9.7            	3.885
MS.241         	9.68           	3.93
MS.242         	9.66           	3.835
MS.243         	9.64           	3.841
MS.244         	9.622          	3.803
MS.245         	9.602          	3.787
MS.246         	9.582          	3.841
MS.247         	9.565          	3.817
MS.248         	9.545          	3.893
MS.249         	9.525          	3.789
MS.250         	9.507          	3.714
MS.251         	9.488          	3.738
MS.252         	9.47           	3.752
MS.253         	9.45           	3.678
MS.254         	9.432          	3.819
MS.255         	9.412          	3.702
MS.256         	9.395          	3.634
MS.257         	9.375          	3.678
MS.258         	9.358          	3.623
MS.259         	9.337          	3.621
MS.260         	9.32           	3.563
MS.261         	9.3            	3.704
MS.262         	9.283          	3.613
MS.263         	9.262          	3.601
MS.264         	9.245          	3.478
MS.265         	9.225          	3.489
MS.266         	9.207          	3.527
MS.267         	9.19           	3.456
MS.268         	9.17           	3.472
MS.269         	9.153          	3.48
MS.270         	9.135          	3.444
MS.271         	9.115          	3.42
MS.272         	9.097          	3.404
MS.273         	9.08           	3.348
MS.274         	9.062          	3.398
MS.275         	9.042          	3.329
MS.276         	9.025          	3.341
MS.277         	9.007          	3.386
MS.278         	8.99           	3.309
MS.279         	8.972          	3.352
MS.280         	8.952          	3.315
MS.281         	8.935          	3.331
MS.282         	8.917          	3.271
MS.283         	8.9            	3.249
MS.284         	8.882          	3.283
MS.285         	8.865          	3.279
MS.286         	8.847          	3.243
MS.287         	8.83           	3.192
MS.288         	8.812          	3.281
MS.289         	8.795          	3.192
MS.290         	8.775          	3.164
MS.291         	8.757          	3.132
MS.292         	8.74           	3.162
MS.293         	8.722          	3.166
MS.294         	8.707          	3.116
MS.295         	8.69           	3.072
MS.296         	8.672          	3.068
MS.297         	8.655          	3.007
MS.298         	8.637          	2.979
MS.299         	8.62           	3.033
MS.300         	8.602          	2.999
MS.301         	8.585          	2.967
MS.302         	8.568          	2.927
MS.303         	8.55           	2.967
MS.304         	8.535          	2.929
MS.305         	8.517          	2.91
MS.306         	8.5            	2.858
MS.307         	8.483          	2.931
MS.308         	8.465          	2.892
MS.309         	8.45           	2.933
MS.310         	8.432          	2.834
MS.311         	8.415          	2.872
MS.312         	8.398          	2.842
MS.313         	8.382          	2.854
MS.314         	8.365          	2.816
MS.315         	8.347          	2.747
MS.316         	8.332          	2.824
MS.317         	8.315          	2.836
MS.318         	8.297          	2.804
MS.319         	8.283          	2.794
MS.320         	8.265          	2.745
MS.321         	8.247          	2.735
MS.322         	8.233          	2.659
MS.323         	8.215          	2.765
MS.324         	8.2            	2.596
MS.325         	8.182          	2.602
MS.326         	8.167          	2.606
MS.327         	8.15           	2.588
MS.328         	8.135          	2.568
MS.329         	8.117          	2.5
MS.330         	8.102          	2.467
MS.331         	8.085          	2.485
MS.332         	8.07           	2.469
MS.333         	8.052          	2.425
MS.334         	8.037          	2.443
MS.335         	8.02           	2.34
MS.336         	8.005          	2.385
MS.337         	7.99           	2.391
MS.338         	7.972          	2.375
MS.339         	7.957          	2.353
MS.340         	7.94           	2.344
MS.341         	7.925          	2.405
MS.342         	7.91           	2.266
MS.343         	7.892          	2.256
MS.344         	7.878          	2.353
MS.345         	7.862          	2.193
MS.346         	7.847          	2.171
MS.347         	7.83           	2.141
MS.348         	7.815          	2.185
MS.349         	7.8            	2.103
MS.350         	7.785          	2.099
MS.351         	7.767          	2.095
MS.352         	7.753          	2.103
MS.353         	7.737          	2.083
MS.354         	7.722          	2.099
MS.355         	7.707          	2.06
MS.356         	7.69           	2.06
MS.357         	7.675          	2.085
MS.358         	7.66           	2.012
MS.359         	7.645          	2.01
MS.360         	7.63           	1.942
MS.361         	7.615          	1.95
MS.362         	7.6            	1.978
MS.363         	7.585          	1.93
MS.364         	7.57           	1.924
MS.365         	7.555          	1.932
MS.366         	7.537          	1.907
MS.367         	7.523          	1.901
MS.368         	7.507          	1.805
MS.369         	7.492          	1.877
MS.370         	7.477          	1.821
MS.371         	7.462          	1.893
MS.372         	7.447          	1.803
MS.373         	7.435          	1.762
MS.374         	7.42           	1.801
MS.375         	7.405          	1.758
MS.376         	7.39           	1.7
MS.377         	7.375          	1.71
MS.378         	7.36           	1.71
MS.379         	7.345          	1.66
MS.380         	7.33           	1.607
MS.381         	7.315          	1.587
MS.382         	7.302          	1.642
MS.383         	7.287          	1.692
MS.384         	7.273          	1.545
MS.385         	7.257          	1.644
MS.386         	7.242          	1.571
MS.387         	7.227          	1.583
MS.388         	7.215          	1.549
MS.389         	7.2            	1.474
MS.390         	7.185          	1.45
MS.391         	7.17           	1.376
MS.392         	7.157          	1.45
MS.393         	7.142          	1.386
MS.394         	7.128          	1.422
MS.395         	7.115          	1.331
MS.396         	7.1            	1.38
MS.397         	7.085          	1.349
MS.398         	7.072          	1.341
MS.399         	7.057          	1.339
MS.400         	7.043          	1.309
MS.401         	7.03           	1.269
MS.402         	7.015          	1.249
MS.403         	7              	1.255
MS.404         	6.987          	1.257
MS.405         	6.972          	1.182
MS.406         	6.96           	1.162
MS.407         	6.945          	1.134
MS.408         	6.932          	1.15
MS.409         	6.918          	1.086
MS.410         	6.902          	1.043
MS.411         	6.89           	1.122
MS.412         	6.875          	1.001
MS.413         	6.862          	1.021
MS.414         	6.847          	1.041
MS.415         	6.835          	1.023
MS.416         	6.822          	0.979
MS.417         	6.807          	1.007
MS.418         	6.795          	0.987
MS.419         	6.78           	0.933
MS.420         	6.767          	0.894
MS.421         	6.753          	0.931
MS.422         	6.74           	0.876
MS.423         	6.727          	0.838
MS.424         	6.712          	0.88
MS.425         	6.7            	0.773
MS.426         	6.685          	0.784
MS.427         	6.672          	0.788
MS.428         	6.66           	0.715
MS.429         	6.645          	0.723
MS.430         	6.632          	0.711
MS.431         	6.62           	0.687
MS.432         	6.608          	0.705
MS.433         	6.592          	0.717
MS.434         	6.58           	0.657
MS.435         	6.567          	0.63
MS.436         	6.555          	0.58
MS.437         	6.54           	0.618
MS.438         	6.527          	0.576
MS.439         	6.515          	0.62
MS.440         	6.503          	0.52
MS.441         	6.487          	0.56
MS.442         	6.475          	0.572
MS.443         	6.462          	0.546
MS.444         	6.45           	0.574
MS.445         	6.438          	0.493
MS.446         	6.425          	0.572
MS.447         	6.41           	0.522
MS.448         	6.398          	0.473
MS.449         	6.385          	0.439
MS.450         	6.372          	0.425
MS.451         	6.36           	0.477
MS.452         	6.347          	0.421
MS.453         	6.335          	0.389
MS.454         	6.322          	0.334
MS.455         	6.31           	0.336
MS.456         	6.297          	0.34
MS.457         	6.285          	0.242
MS.458         	6.273          	0.264
MS.459         	6.26           	0.268
MS.460         	6.247          	0.266
MS.461         	6.235          	0.256
MS.462         	6.222          	0.286
MS.463         	6.21           	0.27
MS.464         	6.197          	0.246
MS.465         	6.185          	0.262
MS.466         	6.172          	0.216
MS.467         	6.16           	0.216
MS.468         	6.148          	0.205
MS.469         	6.135          	0.22
MS.470         	6.122          	0.195
MS.471         	6.11           	0.179
MS.472         	6.097          	0.169
MS.473         	6.088          	0.173
MS.474         	6.075          	0.165
MS.475         	6.062          	0.151
MS.476         	6.05           	0.143
MS.477         	6.037          	0.195
MS.478         	6.025          	0.151
MS.479         	6.012          	0.135
MS.480         	6.003          	0.121
MS.481         	5.99           	0.173
MS.482         	5.977          	0.097
MS.483         	5.965          	0.093
MS.484         	5.955          	0.105
MS.485         	5.942          	0.091
MS.486         	5.93           	0.113
MS.487         	5.918          	0.097
MS.488         	5.907          	0.123
MS.489         	5.895          	0.083
MS.490         	5.882          	0.083
MS.491         	5.87           	0.095
MS.492         	5.86           	0.056
MS.493         	5.847          	0.085
MS.494         	5.835          	0.06
MS.495         	5.825          	0.091
MS.496         	5.812          	0.064
MS.497         	5.8            	0.042
MS.498         	5.79           	0.006
MS.499         	5.777          	0.044
MS.500         	5.767          	0.034
