File:              	C:\Qtrac\Data\Daniel M Sørensen\MScan multicentre study\Data from centres\Roskilde\Folders with NC-examinations\ROS_N6b\MBC00429C.QZD
Name:              	DK.ROS.NC.6.2
Protocol:          	MSCAN-R2
Date:              	29/4/20
Start time:        	15:09:09
Age:               	72
Sex:               	F
Temperature:       	34.3
S/R sites:         	Peroneal-TA
NC/disease:        	NC
Operator:          	MB
Comments:
M-SCAN DATA (7.7-1.2m)
Scanpts: 14, 24, 679, 701
Stim. (mA)     	Amp. (mV)
MS.1           	18             	5.692
MS.2           	18             	5.71
MS.3           	18             	5.694
MS.4           	18             	5.684
MS.5           	18             	5.678
MS.6           	18             	5.686
MS.7           	18             	5.674
MS.8           	18             	5.662
MS.9           	18             	5.676
MS.10          	18             	5.684
MS.11          	18             	5.676
MS.12          	18             	5.68
MS.13          	18             	5.676
MS.14          	18             	5.644
MS.15          	18             	5.664
MS.16          	18             	5.666
MS.17          	18             	5.68
MS.18          	18             	5.666
MS.19          	18             	5.658
MS.20          	18             	5.654
MS.21          	18             	5.654
MS.22          	18             	5.67
MS.23          	18             	5.654
MS.24          	17.927         	5.642
MS.25          	17.892         	5.65
MS.26          	17.858         	5.66
MS.27          	17.82          	5.63
MS.28          	17.785         	5.648
MS.29          	17.75          	5.654
MS.30          	17.715         	5.642
MS.31          	17.68          	5.656
MS.32          	17.642         	5.636
MS.33          	17.608         	5.642
MS.34          	17.573         	5.622
MS.35          	17.538         	5.638
MS.36          	17.503         	5.624
MS.37          	17.467         	5.617
MS.38          	17.432         	5.628
MS.39          	17.397         	5.636
MS.40          	17.362         	5.622
MS.41          	17.33          	5.62
MS.42          	17.295         	5.624
MS.43          	17.26          	5.613
MS.44          	17.225         	5.611
MS.45          	17.19          	5.605
MS.46          	17.157         	5.607
MS.47          	17.122         	5.624
MS.48          	17.087         	5.622
MS.49          	17.052         	5.62
MS.50          	17.02          	5.605
MS.51          	16.985         	5.62
MS.52          	16.952         	5.611
MS.53          	16.917         	5.605
MS.54          	16.885         	5.609
MS.55          	16.85          	5.605
MS.56          	16.817         	5.605
MS.57          	16.782         	5.603
MS.58          	16.75          	5.603
MS.59          	16.715         	5.613
MS.60          	16.682         	5.611
MS.61          	16.65          	5.599
MS.62          	16.615         	5.607
MS.63          	16.583         	5.593
MS.64          	16.55          	5.591
MS.65          	16.517         	5.579
MS.66          	16.483         	5.603
MS.67          	16.45          	5.599
MS.68          	16.417         	5.591
MS.69          	16.385         	5.597
MS.70          	16.352         	5.581
MS.71          	16.32          	5.599
MS.72          	16.288         	5.573
MS.73          	16.255         	5.571
MS.74          	16.222         	5.583
MS.75          	16.19          	5.557
MS.76          	16.157         	5.593
MS.77          	16.125         	5.579
MS.78          	16.092         	5.585
MS.79          	16.06          	5.577
MS.80          	16.028         	5.561
MS.81          	15.997         	5.557
MS.82          	15.965         	5.557
MS.83          	15.932         	5.569
MS.84          	15.9           	5.571
MS.85          	15.87          	5.519
MS.86          	15.837         	5.507
MS.87          	15.805         	5.567
MS.88          	15.775         	5.559
MS.89          	15.742         	5.565
MS.90          	15.71          	5.549
MS.91          	15.68          	5.551
MS.92          	15.648         	5.513
MS.93          	15.617         	5.497
MS.94          	15.585         	5.539
MS.95          	15.555         	5.497
MS.96          	15.523         	5.547
MS.97          	15.492         	5.495
MS.98          	15.462         	5.501
MS.99          	15.43          	5.493
MS.100         	15.4           	5.489
MS.101         	15.37          	5.493
MS.102         	15.337         	5.487
MS.103         	15.307         	5.491
MS.104         	15.277         	5.491
MS.105         	15.247         	5.491
MS.106         	15.217         	5.491
MS.107         	15.185         	5.479
MS.108         	15.155         	5.489
MS.109         	15.125         	5.487
MS.110         	15.095         	5.472
MS.111         	15.065         	5.485
MS.112         	15.035         	5.493
MS.113         	15.005         	5.479
MS.114         	14.975         	5.466
MS.115         	14.945         	5.46
MS.116         	14.915         	5.466
MS.117         	14.885         	5.477
MS.118         	14.855         	5.477
MS.119         	14.825         	5.468
MS.120         	14.795         	5.47
MS.121         	14.767         	5.46
MS.122         	14.737         	5.46
MS.123         	14.707         	5.466
MS.124         	14.677         	5.46
MS.125         	14.65          	5.456
MS.126         	14.62          	5.406
MS.127         	14.59          	5.412
MS.128         	14.562         	5.384
MS.129         	14.532         	5.448
MS.130         	14.502         	5.396
MS.131         	14.475         	5.408
MS.132         	14.445         	5.404
MS.133         	14.417         	5.43
MS.134         	14.387         	5.408
MS.135         	14.36          	5.376
MS.136         	14.33          	5.344
MS.137         	14.302         	5.34
MS.138         	14.273         	5.406
MS.139         	14.245         	5.346
MS.140         	14.215         	5.35
MS.141         	14.188         	5.402
MS.142         	14.16          	5.333
MS.143         	14.13          	5.352
MS.144         	14.102         	5.366
MS.145         	14.075         	5.34
MS.146         	14.047         	5.325
MS.147         	14.017         	5.36
MS.148         	13.99          	5.34
MS.149         	13.962         	5.344
MS.150         	13.935         	5.38
MS.151         	13.907         	5.378
MS.152         	13.88          	5.321
MS.153         	13.85          	5.325
MS.154         	13.822         	5.336
MS.155         	13.795         	5.34
MS.156         	13.767         	5.321
MS.157         	13.74          	5.309
MS.158         	13.712         	5.309
MS.159         	13.685         	5.325
MS.160         	13.657         	5.323
MS.161         	13.632         	5.299
MS.162         	13.605         	5.321
MS.163         	13.577         	5.319
MS.164         	13.55          	5.319
MS.165         	13.523         	5.253
MS.166         	13.495         	5.309
MS.167         	13.467         	5.307
MS.168         	13.443         	5.301
MS.169         	13.415         	5.301
MS.170         	13.387         	5.303
MS.171         	13.362         	5.293
MS.172         	13.335         	5.221
MS.173         	13.307         	5.211
MS.174         	13.282         	5.235
MS.175         	13.255         	5.213
MS.176         	13.227         	5.275
MS.177         	13.202         	5.201
MS.178         	13.175         	5.235
MS.179         	13.15          	5.172
MS.180         	13.122         	5.188
MS.181         	13.097         	5.174
MS.182         	13.07          	5.201
MS.183         	13.045         	5.207
MS.184         	13.017         	5.19
MS.185         	12.992         	5.168
MS.186         	12.967         	5.152
MS.187         	12.94          	5.188
MS.188         	12.915         	5.17
MS.189         	12.89          	5.152
MS.190         	12.862         	5.142
MS.191         	12.837         	5.176
MS.192         	12.812         	5.188
MS.193         	12.785         	5.178
MS.194         	12.76          	5.154
MS.195         	12.735         	5.098
MS.196         	12.71          	5.106
MS.197         	12.685         	5.094
MS.198         	12.66          	5.154
MS.199         	12.632         	5.126
MS.200         	12.608         	5.108
MS.201         	12.582         	5.116
MS.202         	12.557         	5.124
MS.203         	12.532         	5.102
MS.204         	12.507         	5.07
MS.205         	12.483         	5.06
MS.206         	12.457         	5.045
MS.207         	12.432         	5.076
MS.208         	12.407         	5.066
MS.209         	12.382         	4.965
MS.210         	12.36          	5.013
MS.211         	12.335         	5.197
MS.212         	12.31          	5.054
MS.213         	12.285         	5.098
MS.214         	12.26          	5.102
MS.215         	12.235         	4.935
MS.216         	12.212         	5.066
MS.217         	12.188         	5.088
MS.218         	12.162         	5.021
MS.219         	12.137         	5.043
MS.220         	12.115         	4.979
MS.221         	12.09          	5.084
MS.222         	12.065         	5.128
MS.223         	12.042         	5.047
MS.224         	12.017         	5.043
MS.225         	11.992         	5.045
MS.226         	11.97          	5.056
MS.227         	11.945         	4.995
MS.228         	11.922         	5.043
MS.229         	11.898         	5.07
MS.230         	11.875         	5.005
MS.231         	11.85          	5.009
MS.232         	11.827         	4.921
MS.233         	11.802         	5.076
MS.234         	11.78          	5.003
MS.235         	11.755         	4.816
MS.236         	11.733         	4.878
MS.237         	11.71          	4.953
MS.238         	11.685         	4.989
MS.239         	11.662         	5.003
MS.240         	11.64          	4.874
MS.241         	11.615         	4.824
MS.242         	11.592         	4.8
MS.243         	11.57          	4.701
MS.244         	11.547         	4.864
MS.245         	11.523         	4.904
MS.246         	11.5           	4.836
MS.247         	11.477         	4.832
MS.248         	11.455         	4.709
MS.249         	11.432         	4.705
MS.250         	11.407         	4.677
MS.251         	11.385         	4.608
MS.252         	11.363         	4.639
MS.253         	11.34          	4.691
MS.254         	11.318         	4.818
MS.255         	11.295         	4.576
MS.256         	11.273         	4.647
MS.257         	11.25          	4.586
MS.258         	11.227         	4.574
MS.259         	11.205         	4.6
MS.260         	11.182         	4.473
MS.261         	11.16          	4.562
MS.262         	11.137         	4.566
MS.263         	11.115         	4.54
MS.264         	11.092         	4.524
MS.265         	11.073         	4.461
MS.266         	11.05          	4.588
MS.267         	11.028         	4.463
MS.268         	11.005         	4.361
MS.269         	10.983         	4.445
MS.270         	10.962         	4.399
MS.271         	10.94          	4.336
MS.272         	10.917         	4.409
MS.273         	10.895         	4.395
MS.274         	10.875         	4.441
MS.275         	10.852         	4.465
MS.276         	10.83          	4.373
MS.277         	10.81          	4.343
MS.278         	10.787         	4.387
MS.279         	10.765         	4.328
MS.280         	10.745         	4.272
MS.281         	10.722         	4.369
MS.282         	10.702         	4.304
MS.283         	10.68          	4.316
MS.284         	10.657         	4.316
MS.285         	10.637         	4.345
MS.286         	10.615         	4.268
MS.287         	10.595         	4.296
MS.288         	10.573         	4.23
MS.289         	10.552         	4.242
MS.290         	10.532         	4.214
MS.291         	10.51          	4.248
MS.292         	10.49          	4.218
MS.293         	10.467         	4.179
MS.294         	10.448         	4.141
MS.295         	10.427         	4.187
MS.296         	10.405         	4.25
MS.297         	10.385         	4.159
MS.298         	10.365         	4.191
MS.299         	10.342         	4.139
MS.300         	10.323         	4.149
MS.301         	10.302         	4.159
MS.302         	10.282         	4.161
MS.303         	10.26          	4.125
MS.304         	10.24          	4.131
MS.305         	10.22          	4.042
MS.306         	10.2           	4.169
MS.307         	10.18          	4.022
MS.308         	10.16          	4.052
MS.309         	10.14          	4.099
MS.310         	10.117         	4.022
MS.311         	10.097         	3.994
MS.312         	10.077         	4.024
MS.313         	10.057         	3.948
MS.314         	10.037         	4.014
MS.315         	10.017         	3.942
MS.316         	9.997          	3.932
MS.317         	9.977          	3.954
MS.318         	9.957          	3.857
MS.319         	9.938          	3.845
MS.320         	9.917          	3.877
MS.321         	9.898          	3.885
MS.322         	9.877          	3.897
MS.323         	9.86           	3.783
MS.324         	9.84           	3.811
MS.325         	9.82           	3.879
MS.326         	9.8            	3.829
MS.327         	9.78           	3.833
MS.328         	9.76           	3.771
MS.329         	9.74           	3.758
MS.330         	9.722          	3.849
MS.331         	9.702          	3.74
MS.332         	9.682          	3.787
MS.333         	9.662          	3.676
MS.334         	9.645          	3.7
MS.335         	9.625          	3.601
MS.336         	9.605          	3.638
MS.337         	9.587          	3.621
MS.338         	9.568          	3.66
MS.339         	9.547          	3.69
MS.340         	9.53           	3.541
MS.341         	9.51           	3.595
MS.342         	9.49           	3.591
MS.343         	9.472          	3.468
MS.344         	9.452          	3.579
MS.345         	9.435          	3.533
MS.346         	9.415          	3.448
MS.347         	9.398          	3.493
MS.348         	9.377          	3.519
MS.349         	9.36           	3.507
MS.350         	9.34           	3.472
MS.351         	9.323          	3.446
MS.352         	9.302          	3.468
MS.353         	9.285          	3.366
MS.354         	9.265          	3.348
MS.355         	9.247          	3.39
MS.356         	9.23           	3.321
MS.357         	9.21           	3.315
MS.358         	9.193          	3.394
MS.359         	9.175          	3.37
MS.360         	9.155          	3.295
MS.361         	9.137          	3.267
MS.362         	9.12           	3.277
MS.363         	9.1            	3.219
MS.364         	9.082          	3.219
MS.365         	9.065          	3.158
MS.366         	9.047          	3.196
MS.367         	9.028          	3.221
MS.368         	9.01           	3.221
MS.369         	8.992          	3.162
MS.370         	8.975          	3.19
MS.371         	8.957          	3.13
MS.372         	8.938          	3.152
MS.373         	8.92           	3.108
MS.374         	8.903          	3.148
MS.375         	8.885          	3.146
MS.376         	8.867          	3.084
MS.377         	8.85           	3.07
MS.378         	8.832          	3.062
MS.379         	8.815          	3.066
MS.380         	8.797          	3.084
MS.381         	8.78           	2.975
MS.382         	8.762          	3.082
MS.383         	8.745          	3.001
MS.384         	8.727          	2.957
MS.385         	8.71           	2.991
MS.386         	8.693          	2.947
MS.387         	8.675          	2.9
MS.388         	8.658          	2.9
MS.389         	8.64           	2.85
MS.390         	8.622          	2.977
MS.391         	8.605          	2.88
MS.392         	8.587          	2.796
MS.393         	8.57           	2.765
MS.394         	8.552          	2.691
MS.395         	8.537          	2.771
MS.396         	8.52           	2.679
MS.397         	8.502          	2.79
MS.398         	8.485          	2.735
MS.399         	8.467          	2.616
MS.400         	8.452          	2.705
MS.401         	8.435          	2.721
MS.402         	8.417          	2.582
MS.403         	8.4            	2.492
MS.404         	8.385          	2.514
MS.405         	8.367          	2.598
MS.406         	8.35           	2.574
MS.407         	8.335          	2.558
MS.408         	8.318          	2.492
MS.409         	8.3            	2.562
MS.410         	8.285          	2.536
MS.411         	8.267          	2.56
MS.412         	8.252          	2.461
MS.413         	8.235          	2.473
MS.414         	8.217          	2.427
MS.415         	8.202          	2.419
MS.416         	8.185          	2.314
MS.417         	8.17           	2.381
MS.418         	8.153          	2.383
MS.419         	8.137          	2.377
MS.420         	8.12           	2.373
MS.421         	8.105          	2.342
MS.422         	8.087          	2.262
MS.423         	8.073          	2.334
MS.424         	8.055          	2.349
MS.425         	8.04           	2.222
MS.426         	8.023          	2.242
MS.427         	8.007          	2.284
MS.428         	7.992          	2.187
MS.429         	7.975          	2.32
MS.430         	7.96           	2.242
MS.431         	7.942          	2.246
MS.432         	7.927          	2.199
MS.433         	7.912          	2.22
MS.434         	7.895          	1.996
MS.435         	7.88           	2.101
MS.436         	7.865          	2.067
MS.437         	7.85           	2.141
MS.438         	7.832          	2.067
MS.439         	7.817          	1.944
MS.440         	7.802          	2.008
MS.441         	7.787          	1.984
MS.442         	7.77           	2.01
MS.443         	7.755          	1.922
MS.444         	7.74           	2.01
MS.445         	7.725          	1.885
MS.446         	7.71           	1.865
MS.447         	7.692          	1.752
MS.448         	7.677          	1.839
MS.449         	7.662          	1.817
MS.450         	7.648          	1.724
MS.451         	7.632          	1.809
MS.452         	7.617          	1.682
MS.453         	7.602          	1.66
MS.454         	7.587          	1.724
MS.455         	7.572          	1.692
MS.456         	7.555          	1.621
MS.457         	7.54           	1.66
MS.458         	7.525          	1.621
MS.459         	7.51           	1.569
MS.460         	7.495          	1.583
MS.461         	7.48           	1.571
MS.462         	7.465          	1.593
MS.463         	7.45           	1.543
MS.464         	7.438          	1.549
MS.465         	7.422          	1.521
MS.466         	7.407          	1.454
MS.467         	7.392          	1.46
MS.468         	7.378          	1.482
MS.469         	7.362          	1.464
MS.470         	7.347          	1.434
MS.471         	7.332          	1.462
MS.472         	7.317          	1.388
MS.473         	7.302          	1.366
MS.474         	7.29           	1.329
MS.475         	7.275          	1.378
MS.476         	7.26           	1.356
MS.477         	7.245          	1.345
MS.478         	7.23           	1.275
MS.479         	7.217          	1.247
MS.480         	7.202          	1.307
MS.481         	7.188          	1.325
MS.482         	7.172          	1.255
MS.483         	7.16           	1.251
MS.484         	7.145          	1.229
MS.485         	7.13           	1.245
MS.486         	7.115          	1.217
MS.487         	7.102          	1.168
MS.488         	7.087          	1.265
MS.489         	7.072          	1.09
MS.490         	7.06           	1.114
MS.491         	7.045          	1.08
MS.492         	7.032          	1.1
MS.493         	7.017          	1.074
MS.494         	7.003          	1.029
MS.495         	6.99           	1.037
MS.496         	6.975          	1.011
MS.497         	6.962          	0.991
MS.498         	6.947          	0.955
MS.499         	6.932          	1.011
MS.500         	6.92           	0.902
MS.501         	6.905          	0.997
