File:              	C:\Qtrac\Data\Daniel M Sørensen\MScan multicentre study\Data from centres\Toronto\Processed data\MSCC01216F.QZD
Name:              	CA.TOR.NC.10.2
Protocol:          	MSCAN-R2
Date:              	16/12/20
Start time:        	14:50:40
Age:               	49
Sex:               	M
Temperature:       	29.9
S/R sites:         	TA
NC/disease:        	NC
Operator:          	LP
Comments:          	MFF60ON
M-SCAN DATA (8.3-3m)
Scanpts: 51, 56, 482, 487
Stim. (mA)     	Amp. (mV)
MS.1           	13             	5.135
MS.2           	13             	5.135
MS.3           	13             	5.114
MS.4           	13             	5.077
MS.5           	13             	5.06
MS.6           	13             	5.034
MS.7           	13             	5.043
MS.8           	13             	5.044
MS.9           	13             	5.027
MS.10          	13             	5.028
MS.11          	13             	5.046
MS.12          	13             	5.021
MS.13          	13             	5.049
MS.14          	13             	5.001
MS.15          	13             	5.029
MS.16          	13             	5.012
MS.17          	13             	5.033
MS.18          	13             	5.004
MS.19          	13             	5.023
MS.20          	13             	5.027
MS.21          	13             	4.996
MS.22          	13             	5.024
MS.23          	13             	5.006
MS.24          	12.947         	4.989
MS.25          	12.922         	5.022
MS.26          	12.898         	5.016
MS.27          	12.87          	5.012
MS.28          	12.845         	5.023
MS.29          	12.82          	4.998
MS.30          	12.792         	4.999
MS.31          	12.767         	4.993
MS.32          	12.742         	4.985
MS.33          	12.717         	4.983
MS.34          	12.693         	5.02
MS.35          	12.667         	5.013
MS.36          	12.64          	4.996
MS.37          	12.615         	4.995
MS.38          	12.59          	4.993
MS.39          	12.565         	4.979
MS.40          	12.54          	4.983
MS.41          	12.515         	4.99
MS.42          	12.49          	4.995
MS.43          	12.465         	4.998
MS.44          	12.44          	4.982
MS.45          	12.415         	4.99
MS.46          	12.39          	5.004
MS.47          	12.365         	5.001
MS.48          	12.34          	4.982
MS.49          	12.318         	4.969
MS.50          	12.292         	4.976
MS.51          	12.267         	4.977
MS.52          	12.242         	4.979
MS.53          	12.217         	4.988
MS.54          	12.195         	4.965
MS.55          	12.17          	4.962
MS.56          	12.145         	4.958
MS.57          	12.12          	4.98
MS.58          	12.097         	4.957
MS.59          	12.072         	4.978
MS.60          	12.047         	4.96
MS.61          	12.025         	4.955
MS.62          	12             	4.961
MS.63          	11.977         	4.963
MS.64          	11.952         	4.991
MS.65          	11.927         	4.963
MS.66          	11.905         	4.952
MS.67          	11.88          	4.978
MS.68          	11.858         	4.98
MS.69          	11.832         	4.982
MS.70          	11.81          	4.973
MS.71          	11.787         	4.977
MS.72          	11.762         	4.962
MS.73          	11.74          	4.984
MS.74          	11.715         	4.978
MS.75          	11.693         	4.972
MS.76          	11.67          	4.983
MS.77          	11.645         	4.966
MS.78          	11.622         	4.973
MS.79          	11.6           	4.955
MS.80          	11.575         	4.951
MS.81          	11.552         	4.948
MS.82          	11.53          	4.951
MS.83          	11.507         	4.96
MS.84          	11.485         	4.948
MS.85          	11.46          	4.94
MS.86          	11.438         	5.007
MS.87          	11.415         	4.932
MS.88          	11.392         	5.001
MS.89          	11.37          	4.934
MS.90          	11.347         	4.917
MS.91          	11.325         	4.948
MS.92          	11.302         	4.945
MS.93          	11.28          	4.927
MS.94          	11.257         	4.929
MS.95          	11.235         	4.928
MS.96          	11.212         	5.011
MS.97          	11.19          	4.946
MS.98          	11.167         	4.93
MS.99          	11.145         	4.949
MS.100         	11.122         	5.01
MS.101         	11.1           	5.011
MS.102         	11.077         	5.002
MS.103         	11.055         	4.993
MS.104         	11.032         	5
MS.105         	11.012         	5.001
MS.106         	10.99          	5.013
MS.107         	10.967         	4.968
MS.108         	10.945         	4.871
MS.109         	10.925         	5
MS.110         	10.903         	5.029
MS.111         	10.88          	5.009
MS.112         	10.858         	4.869
MS.113         	10.837         	4.965
MS.114         	10.815         	4.978
MS.115         	10.792         	4.946
MS.116         	10.773         	4.969
MS.117         	10.75          	4.965
MS.118         	10.73          	4.999
MS.119         	10.707         	4.922
MS.120         	10.685         	4.894
MS.121         	10.665         	4.906
MS.122         	10.642         	4.871
MS.123         	10.622         	4.883
MS.124         	10.6           	4.834
MS.125         	10.58          	4.915
MS.126         	10.557         	4.838
MS.127         	10.537         	4.835
MS.128         	10.517         	4.825
MS.129         	10.495         	4.858
MS.130         	10.475         	4.779
MS.131         	10.452         	4.783
MS.132         	10.432         	4.736
MS.133         	10.412         	4.836
MS.134         	10.39          	4.861
MS.135         	10.37          	4.695
MS.136         	10.35          	4.724
MS.137         	10.33          	4.692
MS.138         	10.307         	4.713
MS.139         	10.287         	4.683
MS.140         	10.267         	4.752
MS.141         	10.247         	4.653
MS.142         	10.225         	4.67
MS.143         	10.205         	4.635
MS.144         	10.185         	4.634
MS.145         	10.165         	4.651
MS.146         	10.145         	4.664
MS.147         	10.125         	4.607
MS.148         	10.105         	4.68
MS.149         	10.085         	4.592
MS.150         	10.065         	4.678
MS.151         	10.042         	4.568
MS.152         	10.023         	4.6
MS.153         	10.002         	4.708
MS.154         	9.983          	4.574
MS.155         	9.962          	4.564
MS.156         	9.945          	4.556
MS.157         	9.925          	4.572
MS.158         	9.905          	4.53
MS.159         	9.885          	4.553
MS.160         	9.865          	4.517
MS.161         	9.845          	4.529
MS.162         	9.825          	4.539
MS.163         	9.805          	4.54
MS.164         	9.785          	4.536
MS.165         	9.767          	4.456
MS.166         	9.747          	4.432
MS.167         	9.727          	4.413
MS.168         	9.707          	4.406
MS.169         	9.688          	4.478
MS.170         	9.67           	4.476
MS.171         	9.65           	4.496
MS.172         	9.63           	4.429
MS.173         	9.613          	4.456
MS.174         	9.592          	4.43
MS.175         	9.573          	4.399
MS.176         	9.555          	4.373
MS.177         	9.535          	4.377
MS.178         	9.515          	4.404
MS.179         	9.497          	4.364
MS.180         	9.477          	4.325
MS.181         	9.46           	4.348
MS.182         	9.44           	4.338
MS.183         	9.42           	4.236
MS.184         	9.403          	4.249
MS.185         	9.382          	4.353
MS.186         	9.365          	4.314
MS.187         	9.345          	4.315
MS.188         	9.327          	4.259
MS.189         	9.307          	4.174
MS.190         	9.29           	4.16
MS.191         	9.273          	4.141
MS.192         	9.252          	4.126
MS.193         	9.235          	4.136
MS.194         	9.215          	4.022
MS.195         	9.198          	4.071
MS.196         	9.18           	4.016
MS.197         	9.16           	4.125
MS.198         	9.142          	4.081
MS.199         	9.125          	3.972
MS.200         	9.105          	3.926
MS.201         	9.087          	3.995
MS.202         	9.07           	3.976
MS.203         	9.052          	4.126
MS.204         	9.033          	4.088
MS.205         	9.015          	3.966
MS.206         	8.997          	3.95
MS.207         	8.98           	3.894
MS.208         	8.962          	3.866
MS.209         	8.943          	3.918
MS.210         	8.925          	3.928
MS.211         	8.908          	3.843
MS.212         	8.89           	3.883
MS.213         	8.872          	3.917
MS.214         	8.855          	3.839
MS.215         	8.837          	3.696
MS.216         	8.82           	3.744
MS.217         	8.802          	3.751
MS.218         	8.785          	3.704
MS.219         	8.767          	3.782
MS.220         	8.75           	3.7
MS.221         	8.733          	3.616
MS.222         	8.715          	3.726
MS.223         	8.698          	3.701
MS.224         	8.68           	3.694
MS.225         	8.662          	3.557
MS.226         	8.645          	3.585
MS.227         	8.627          	3.669
MS.228         	8.61           	3.545
MS.229         	8.592          	3.572
MS.230         	8.575          	3.488
MS.231         	8.557          	3.53
MS.232         	8.542          	3.508
MS.233         	8.525          	3.507
MS.234         	8.507          	3.485
MS.235         	8.49           	3.445
MS.236         	8.472          	3.517
MS.237         	8.457          	3.363
MS.238         	8.44           	3.44
MS.239         	8.422          	3.43
MS.240         	8.405          	3.441
MS.241         	8.39           	3.391
MS.242         	8.372          	3.384
MS.243         	8.355          	3.391
MS.244         	8.34           	3.313
MS.245         	8.323          	3.292
MS.246         	8.305          	3.171
MS.247         	8.29           	3.186
MS.248         	8.273          	3.168
MS.249         	8.255          	3.076
MS.250         	8.24           	3.148
MS.251         	8.222          	3.176
MS.252         	8.207          	3.004
MS.253         	8.19           	2.933
MS.254         	8.175          	2.97
MS.255         	8.158          	3.015
MS.256         	8.142          	3.014
MS.257         	8.125          	2.872
MS.258         	8.11           	2.849
MS.259         	8.092          	2.88
MS.260         	8.077          	2.958
MS.261         	8.06           	2.832
MS.262         	8.045          	2.776
MS.263         	8.028          	2.77
MS.264         	8.012          	2.82
MS.265         	7.995          	2.751
MS.266         	7.98           	2.749
MS.267         	7.965          	2.723
MS.268         	7.947          	2.737
MS.269         	7.932          	2.638
MS.270         	7.918          	2.717
MS.271         	7.9            	2.539
MS.272         	7.885          	2.565
MS.273         	7.87           	2.622
MS.274         	7.852          	2.51
MS.275         	7.837          	2.515
MS.276         	7.822          	2.465
MS.277         	7.807          	2.413
MS.278         	7.79           	2.424
MS.279         	7.775          	2.354
MS.280         	7.76           	2.422
MS.281         	7.745          	2.454
MS.282         	7.727          	2.306
MS.283         	7.712          	2.35
MS.284         	7.697          	2.189
MS.285         	7.682          	2.345
MS.286         	7.668          	2.292
MS.287         	7.652          	2.361
MS.288         	7.637          	2.207
MS.289         	7.622          	2.272
MS.290         	7.605          	2.151
MS.291         	7.59           	2.134
MS.292         	7.575          	2.185
MS.293         	7.56           	2.14
MS.294         	7.545          	2.098
MS.295         	7.53           	2.122
MS.296         	7.515          	2.031
MS.297         	7.5            	2.002
MS.298         	7.485          	2.035
MS.299         	7.47           	2.1
MS.300         	7.455          	1.979
MS.301         	7.44           	1.874
MS.302         	7.425          	1.868
MS.303         	7.41           	1.853
MS.304         	7.395          	1.76
MS.305         	7.382          	1.682
MS.306         	7.367          	1.847
MS.307         	7.352          	1.854
MS.308         	7.337          	1.648
MS.309         	7.322          	1.61
MS.310         	7.307          	1.653
MS.311         	7.293          	1.73
MS.312         	7.277          	1.461
MS.313         	7.265          	1.586
MS.314         	7.25           	1.44
MS.315         	7.235          	1.484
MS.316         	7.22           	1.428
MS.317         	7.205          	1.39
MS.318         	7.192          	1.345
MS.319         	7.177          	1.382
MS.320         	7.162          	1.283
MS.321         	7.15           	1.288
MS.322         	7.135          	1.328
MS.323         	7.12           	1.189
MS.324         	7.105          	1.265
MS.325         	7.092          	1.24
MS.326         	7.077          	1.216
MS.327         	7.062          	1.149
MS.328         	7.05           	1.226
MS.329         	7.035          	1.134
MS.330         	7.023          	1.044
MS.331         	7.007          	0.996
MS.332         	6.992          	1.202
MS.333         	6.98           	1.044
MS.334         	6.965          	0.975
MS.335         	6.952          	1.002
MS.336         	6.938          	0.879
MS.337         	6.922          	0.961
MS.338         	6.91           	0.929
MS.339         	6.895          	0.837
MS.340         	6.882          	0.847
MS.341         	6.867          	0.83
MS.342         	6.855          	0.807
MS.343         	6.84           	0.786
MS.344         	6.827          	0.72
MS.345         	6.815          	0.814
MS.346         	6.8            	0.736
MS.347         	6.787          	0.673
MS.348         	6.773          	0.699
MS.349         	6.76           	0.662
MS.350         	6.745          	0.69
MS.351         	6.733          	0.64
MS.352         	6.72           	0.658
MS.353         	6.705          	0.645
MS.354         	6.692          	0.59
MS.355         	6.68           	0.54
MS.356         	6.665          	0.536
MS.357         	6.652          	0.524
MS.358         	6.64           	0.537
MS.359         	6.625          	0.554
MS.360         	6.612          	0.463
MS.361         	6.6            	0.502
MS.362         	6.585          	0.475
MS.363         	6.572          	0.511
MS.364         	6.56           	0.435
MS.365         	6.547          	0.508
MS.366         	6.532          	0.41
MS.367         	6.52           	0.426
MS.368         	6.507          	0.376
MS.369         	6.495          	0.447
MS.370         	6.483          	0.372
MS.371         	6.467          	0.402
MS.372         	6.455          	0.356
MS.373         	6.442          	0.339
MS.374         	6.43           	0.363
MS.375         	6.418          	0.355
MS.376         	6.405          	0.436
MS.377         	6.392          	0.341
MS.378         	6.378          	0.385
MS.379         	6.365          	0.437
MS.380         	6.352          	0.376
MS.381         	6.34           	0.356
MS.382         	6.327          	0.38
MS.383         	6.315          	0.372
MS.384         	6.302          	0.363
MS.385         	6.29           	0.281
MS.386         	6.277          	0.354
MS.387         	6.265          	0.303
MS.388         	6.253          	0.319
MS.389         	6.24           	0.32
MS.390         	6.227          	0.281
MS.391         	6.215          	0.349
MS.392         	6.202          	0.319
MS.393         	6.19           	0.198
MS.394         	6.177          	0.295
MS.395         	6.165          	0.226
MS.396         	6.152          	0.267
MS.397         	6.14           	0.254
MS.398         	6.128          	0.142
MS.399         	6.115          	0.175
MS.400         	6.105          	0.16
MS.401         	6.092          	0.2
MS.402         	6.08           	0.216
MS.403         	6.067          	0.19
MS.404         	6.055          	0.173
MS.405         	6.043          	0.148
MS.406         	6.03           	0.219
MS.407         	6.02           	0.206
MS.408         	6.007          	0.143
MS.409         	5.995          	0.173
MS.410         	5.983          	0.161
MS.411         	5.97           	0.173
MS.412         	5.96           	0.125
MS.413         	5.947          	0.153
MS.414         	5.935          	0.179
MS.415         	5.922          	0.179
MS.416         	5.912          	0.15
MS.417         	5.9            	0.145
MS.418         	5.887          	0.118
MS.419         	5.878          	0.103
MS.420         	5.865          	0.128
MS.421         	5.852          	0.121
MS.422         	5.842          	0.164
MS.423         	5.83           	0.087
MS.424         	5.817          	0.131
MS.425         	5.807          	0.106
MS.426         	5.795          	0.083
MS.427         	5.782          	0.099
MS.428         	5.773          	0.065
MS.429         	5.76           	0.063
MS.430         	5.747          	0.103
MS.431         	5.737          	0.063
MS.432         	5.725          	0.076
MS.433         	5.715          	0.093
MS.434         	5.702          	0.057
MS.435         	5.692          	0.056
MS.436         	5.68           	0.037
MS.437         	5.668          	0.057
MS.438         	5.657          	0.046
MS.439         	5.645          	0.076
MS.440         	5.635          	0.037
MS.441         	5.622          	0.071
MS.442         	5.612          	0.05
MS.443         	5.6            	0.057
MS.444         	5.59           	0.057
MS.445         	5.577          	0.051
MS.446         	5.567          	0.066
MS.447         	5.557          	0.057
MS.448         	5.545          	0.065
MS.449         	5.535          	0.05
MS.450         	5.523          	0.043
MS.451         	5.512          	0.065
MS.452         	5.5            	0.04
MS.453         	5.49           	0.051
MS.454         	5.48           	0.033
MS.455         	5.467          	0.028
MS.456         	5.457          	0.057
MS.457         	5.447          	0.028
MS.458         	5.435          	0.057
MS.459         	5.425          	0.028
MS.460         	5.415          	0.048
MS.461         	5.402          	0.057
MS.462         	5.392          	0.031
MS.463         	5.382          	0.026
MS.464         	5.37           	0.024
MS.465         	5.36           	0.057
MS.466         	5.35           	0.027
MS.467         	5.338          	0.028
MS.468         	5.327          	0.063
MS.469         	5.318          	0.028
MS.470         	5.307          	0.024
MS.471         	5.295          	0.024
MS.472         	5.285          	0.024
MS.473         	5.275          	0.022
MS.474         	5.265          	0.022
MS.475         	5.255          	0.052
MS.476         	5.242          	0.059
MS.477         	5.233          	0.026
MS.478         	5.222          	0.023
MS.479         	5.213          	0.032
MS.480         	5.202          	0.021
MS.481         	5.19           	0.023
MS.482         	5.18           	0.018
MS.483         	5.17           	0.02
MS.484         	5.16           	0.023
MS.485         	5.15           	0.02
MS.486         	5.14           	0.02
MS.487         	5.13           	0.018
MS.488         	5.12           	0.021
MS.489         	5.108          	0.013
MS.490         	5.097          	0.024
MS.491         	5.088          	0.026
MS.492         	5.077          	0.026
MS.493         	5.068          	0.021
MS.494         	5.057          	0.026
MS.495         	5.047          	0.018
MS.496         	5.037          	0.032
MS.497         	5.027          	0.023
MS.498         	5.017          	0.021
MS.499         	5.007          	0.018
MS.500         	4.997          	0.022
MS.501         	4.987          	0.027
