File:              	C:\Qtrac\Data\Daniel M Sørensen\MScan multicentre study\Data from centres\Toronto\Processed data\MSCC01209F.QZD
Name:              	CA.TOR.NC.9.1
Protocol:          	MSCAN-R2
Date:              	9/12/20
Start time:        	12:58:44
Age:               	51
Sex:               	F
Temperature:       	29.6
S/R sites:         	TA
NC/disease:        	NC
Operator:          	LP
Comments:          	MFF60ON
M-SCAN DATA (6.3-1.4m)
Scanpts: 103, 109, 519, 541
Stim. (mA)     	Amp. (mV)
MS.1           	20             	6.322
MS.2           	20             	6.334
MS.3           	20             	6.321
MS.4           	20             	6.305
MS.5           	20             	6.267
MS.6           	20             	6.281
MS.7           	20             	6.277
MS.8           	20             	6.282
MS.9           	20             	6.282
MS.10          	20             	6.285
MS.11          	20             	6.268
MS.12          	20             	6.283
MS.13          	20             	6.295
MS.14          	20             	6.31
MS.15          	20             	6.281
MS.16          	20             	6.309
MS.17          	20             	6.293
MS.18          	20             	6.293
MS.19          	20             	6.272
MS.20          	20             	6.32
MS.21          	20             	6.299
MS.22          	20             	6.32
MS.23          	20             	6.317
MS.24          	19.92          	6.302
MS.25          	19.88          	6.299
MS.26          	19.84          	6.306
MS.27          	19.8           	6.312
MS.28          	19.762         	6.3
MS.29          	19.722         	6.285
MS.30          	19.682         	6.309
MS.31          	19.642         	6.312
MS.32          	19.605         	6.263
MS.33          	19.565         	6.279
MS.34          	19.525         	6.301
MS.35          	19.487         	6.301
MS.36          	19.448         	6.274
MS.37          	19.41          	6.27
MS.38          	19.37          	6.27
MS.39          	19.333         	6.282
MS.40          	19.292         	6.267
MS.41          	19.255         	6.281
MS.42          	19.215         	6.287
MS.43          	19.177         	6.29
MS.44          	19.14          	6.3
MS.45          	19.1           	6.305
MS.46          	19.062         	6.304
MS.47          	19.025         	6.322
MS.48          	18.987         	6.284
MS.49          	18.948         	6.31
MS.50          	18.91          	6.338
MS.51          	18.872         	6.342
MS.52          	18.835         	6.351
MS.53          	18.797         	6.329
MS.54          	18.76          	6.337
MS.55          	18.722         	6.357
MS.56          	18.685         	6.362
MS.57          	18.647         	6.332
MS.58          	18.61          	6.359
MS.59          	18.573         	6.371
MS.60          	18.535         	6.385
MS.61          	18.5           	6.375
MS.62          	18.462         	6.388
MS.63          	18.425         	6.396
MS.64          	18.387         	6.442
MS.65          	18.352         	6.426
MS.66          	18.315         	6.351
MS.67          	18.278         	6.366
MS.68          	18.243         	6.469
MS.69          	18.205         	6.423
MS.70          	18.17          	6.389
MS.71          	18.132         	6.385
MS.72          	18.097         	6.425
MS.73          	18.06          	6.411
MS.74          	18.025         	6.45
MS.75          	17.987         	6.443
MS.76          	17.952         	6.442
MS.77          	17.917         	6.42
MS.78          	17.88          	6.499
MS.79          	17.845         	6.472
MS.80          	17.81          	6.431
MS.81          	17.775         	6.41
MS.82          	17.737         	6.451
MS.83          	17.702         	6.472
MS.84          	17.667         	6.447
MS.85          	17.632         	6.426
MS.86          	17.597         	6.489
MS.87          	17.562         	6.432
MS.88          	17.528         	6.423
MS.89          	17.493         	6.456
MS.90          	17.458         	6.456
MS.91          	17.422         	6.436
MS.92          	17.387         	6.467
MS.93          	17.352         	6.505
MS.94          	17.317         	6.46
MS.95          	17.282         	6.453
MS.96          	17.247         	6.512
MS.97          	17.215         	6.461
MS.98          	17.18          	6.428
MS.99          	17.145         	6.519
MS.100         	17.11          	6.449
MS.101         	17.077         	6.51
MS.102         	17.042         	6.427
MS.103         	17.01          	6.512
MS.104         	16.975         	6.444
MS.105         	16.94          	6.515
MS.106         	16.907         	6.544
MS.107         	16.872         	6.516
MS.108         	16.84          	6.476
MS.109         	16.805         	6.542
MS.110         	16.772         	6.482
MS.111         	16.74          	6.516
MS.112         	16.705         	6.5
MS.113         	16.672         	6.488
MS.114         	16.637         	6.447
MS.115         	16.605         	6.51
MS.116         	16.573         	6.443
MS.117         	16.54          	6.475
MS.118         	16.505         	6.417
MS.119         	16.472         	6.425
MS.120         	16.44          	6.476
MS.121         	16.407         	6.472
MS.122         	16.375         	6.395
MS.123         	16.342         	6.37
MS.124         	16.31          	6.377
MS.125         	16.278         	6.37
MS.126         	16.245         	6.411
MS.127         	16.212         	6.394
MS.128         	16.18          	6.46
MS.129         	16.147         	6.328
MS.130         	16.115         	6.365
MS.131         	16.083         	6.353
MS.132         	16.05          	6.354
MS.133         	16.017         	6.383
MS.134         	15.985         	6.368
MS.135         	15.955         	6.434
MS.136         	15.922         	6.376
MS.137         	15.89          	6.381
MS.138         	15.86          	6.312
MS.139         	15.827         	6.305
MS.140         	15.795         	6.346
MS.141         	15.765         	6.39
MS.142         	15.733         	6.389
MS.143         	15.7           	6.29
MS.144         	15.67          	6.29
MS.145         	15.637         	6.154
MS.146         	15.608         	6.316
MS.147         	15.575         	6.259
MS.148         	15.545         	6.243
MS.149         	15.515         	6.206
MS.150         	15.483         	6.282
MS.151         	15.452         	6.173
MS.152         	15.42          	6.163
MS.153         	15.39          	6.24
MS.154         	15.36          	6.179
MS.155         	15.327         	6.287
MS.156         	15.297         	6.218
MS.157         	15.267         	6.195
MS.158         	15.237         	6.152
MS.159         	15.207         	6.171
MS.160         	15.175         	6.173
MS.161         	15.145         	6.167
MS.162         	15.115         	5.981
MS.163         	15.085         	5.977
MS.164         	15.055         	6.091
MS.165         	15.025         	6.075
MS.166         	14.995         	5.967
MS.167         	14.965         	6.094
MS.168         	14.935         	5.916
MS.169         	14.905         	5.933
MS.170         	14.875         	6.05
MS.171         	14.845         	5.961
MS.172         	14.818         	5.779
MS.173         	14.787         	5.803
MS.174         	14.757         	5.869
MS.175         	14.727         	5.8
MS.176         	14.697         	5.907
MS.177         	14.67          	5.839
MS.178         	14.64          	5.862
MS.179         	14.61          	5.736
MS.180         	14.58          	5.901
MS.181         	14.552         	5.765
MS.182         	14.523         	5.745
MS.183         	14.495         	5.654
MS.184         	14.465         	5.588
MS.185         	14.435         	5.682
MS.186         	14.407         	5.631
MS.187         	14.377         	5.592
MS.188         	14.35          	5.509
MS.189         	14.32          	5.547
MS.190         	14.292         	5.588
MS.191         	14.265         	5.568
MS.192         	14.235         	5.558
MS.193         	14.207         	5.629
MS.194         	14.177         	5.516
MS.195         	14.15          	5.497
MS.196         	14.122         	5.515
MS.197         	14.092         	5.532
MS.198         	14.065         	5.449
MS.199         	14.037         	5.441
MS.200         	14.01          	5.443
MS.201         	13.983         	5.391
MS.202         	13.952         	5.421
MS.203         	13.925         	5.498
MS.204         	13.898         	5.392
MS.205         	13.87          	5.363
MS.206         	13.842         	5.336
MS.207         	13.815         	5.347
MS.208         	13.787         	5.264
MS.209         	13.76          	5.146
MS.210         	13.733         	5.253
MS.211         	13.705         	5.203
MS.212         	13.677         	5.203
MS.213         	13.65          	5.157
MS.214         	13.622         	5.188
MS.215         	13.595         	5.095
MS.216         	13.568         	5.061
MS.217         	13.54          	5.076
MS.218         	13.515         	5.055
MS.219         	13.487         	5.049
MS.220         	13.46          	4.967
MS.221         	13.432         	5.072
MS.222         	13.407         	4.95
MS.223         	13.38          	5.034
MS.224         	13.352         	4.923
MS.225         	13.325         	4.94
MS.226         	13.3           	4.847
MS.227         	13.273         	4.934
MS.228         	13.247         	4.847
MS.229         	13.22          	4.857
MS.230         	13.193         	4.88
MS.231         	13.167         	4.771
MS.232         	13.14          	4.79
MS.233         	13.115         	4.84
MS.234         	13.087         	4.717
MS.235         	13.062         	4.803
MS.236         	13.035         	4.576
MS.237         	13.01          	4.609
MS.238         	12.985         	4.659
MS.239         	12.957         	4.55
MS.240         	12.932         	4.498
MS.241         	12.907         	4.652
MS.242         	12.88          	4.506
MS.243         	12.855         	4.563
MS.244         	12.83          	4.392
MS.245         	12.802         	4.434
MS.246         	12.778         	4.337
MS.247         	12.752         	4.491
MS.248         	12.727         	4.517
MS.249         	12.702         	4.302
MS.250         	12.675         	4.174
MS.251         	12.65          	4.391
MS.252         	12.625         	4.147
MS.253         	12.6           	4.321
MS.254         	12.575         	4.137
MS.255         	12.55          	4.114
MS.256         	12.525         	4.197
MS.257         	12.5           	4.065
MS.258         	12.475         	4.041
MS.259         	12.45          	4.026
MS.260         	12.425         	3.973
MS.261         	12.4           	3.876
MS.262         	12.375         	4.027
MS.263         	12.35          	4.065
MS.264         	12.325         	3.873
MS.265         	12.302         	3.789
MS.266         	12.278         	3.876
MS.267         	12.252         	3.777
MS.268         	12.227         	3.721
MS.269         	12.202         	3.663
MS.270         	12.18          	3.616
MS.271         	12.155         	3.738
MS.272         	12.13          	3.743
MS.273         	12.108         	3.634
MS.274         	12.082         	3.746
MS.275         	12.057         	3.735
MS.276         	12.035         	3.441
MS.277         	12.01          	3.555
MS.278         	11.985         	3.451
MS.279         	11.962         	3.495
MS.280         	11.938         	3.618
MS.281         	11.915         	3.362
MS.282         	11.89          	3.344
MS.283         	11.867         	3.364
MS.284         	11.842         	3.228
MS.285         	11.82          	3.298
MS.286         	11.795         	3.301
MS.287         	11.773         	3.361
MS.288         	11.747         	3.333
MS.289         	11.725         	3.43
MS.290         	11.702         	3.209
MS.291         	11.677         	3.044
MS.292         	11.655         	3.065
MS.293         	11.632         	3.037
MS.294         	11.608         	3.021
MS.295         	11.585         	3.103
MS.296         	11.562         	2.821
MS.297         	11.54          	2.976
MS.298         	11.515         	2.82
MS.299         	11.492         	2.976
MS.300         	11.47          	2.971
MS.301         	11.447         	2.806
MS.302         	11.425         	2.908
MS.303         	11.403         	2.653
MS.304         	11.377         	2.847
MS.305         	11.355         	2.62
MS.306         	11.332         	2.67
MS.307         	11.31          	2.65
MS.308         	11.287         	2.739
MS.309         	11.265         	2.582
MS.310         	11.242         	2.634
MS.311         	11.22          	2.587
MS.312         	11.197         	2.626
MS.313         	11.175         	2.462
MS.314         	11.153         	2.463
MS.315         	11.13          	2.483
MS.316         	11.108         	2.346
MS.317         	11.087         	2.366
MS.318         	11.065         	2.332
MS.319         	11.042         	2.233
MS.320         	11.02          	2.285
MS.321         	10.997         	2.252
MS.322         	10.975         	2.083
MS.323         	10.955         	2.218
MS.324         	10.932         	2.23
MS.325         	10.91          	2.107
MS.326         	10.887         	2.155
MS.327         	10.867         	2.07
MS.328         	10.845         	2.174
MS.329         	10.823         	2.095
MS.330         	10.802         	2.145
MS.331         	10.78          	1.948
MS.332         	10.76          	1.951
MS.333         	10.738         	1.951
MS.334         	10.715         	1.919
MS.335         	10.695         	1.855
MS.336         	10.672         	1.735
MS.337         	10.653         	1.793
MS.338         	10.63          	1.63
MS.339         	10.61          	1.791
MS.340         	10.587         	1.749
MS.341         	10.568         	1.699
MS.342         	10.545         	1.73
MS.343         	10.525         	1.799
MS.344         	10.502         	1.488
MS.345         	10.483         	1.591
MS.346         	10.462         	1.67
MS.347         	10.44          	1.527
MS.348         	10.42          	1.516
MS.349         	10.4           	1.487
MS.350         	10.377         	1.488
MS.351         	10.358         	1.547
MS.352         	10.337         	1.494
MS.353         	10.318         	1.403
MS.354         	10.295         	1.412
MS.355         	10.275         	1.447
MS.356         	10.255         	1.417
MS.357         	10.235         	1.395
MS.358         	10.212         	1.418
MS.359         	10.193         	1.271
MS.360         	10.172         	1.345
MS.361         	10.153         	1.368
MS.362         	10.132         	1.301
MS.363         	10.113         	1.322
MS.364         	10.092         	1.26
MS.365         	10.073         	1.295
MS.366         	10.052         	1.207
MS.367         	10.032         	1.282
MS.368         	10.012         	1.294
MS.369         	9.992          	1.174
MS.370         	9.972          	1.155
MS.371         	9.952          	1.039
MS.372         	9.932          	0.991
MS.373         	9.912          	1.118
MS.374         	9.892          	1.047
MS.375         	9.872          	1.157
MS.376         	9.852          	1.123
MS.377         	9.832          	1.067
MS.378         	9.812          	1.093
MS.379         	9.792          	1.035
MS.380         	9.775          	1.033
MS.381         	9.755          	1.041
MS.382         	9.735          	0.92
MS.383         	9.715          	0.983
MS.384         	9.695          	0.952
MS.385         	9.677          	0.916
MS.386         	9.657          	1
MS.387         	9.637          	0.741
MS.388         	9.62           	0.807
MS.389         	9.6            	0.775
MS.390         	9.58           	0.76
MS.391         	9.562          	0.787
MS.392         	9.542          	0.769
MS.393         	9.523          	0.543
MS.394         	9.505          	0.641
MS.395         	9.485          	0.559
MS.396         	9.465          	0.5
MS.397         	9.448          	0.555
MS.398         	9.427          	0.609
MS.399         	9.41           	0.591
MS.400         	9.39           	0.485
MS.401         	9.372          	0.502
MS.402         	9.352          	0.574
MS.403         	9.335          	0.463
MS.404         	9.315          	0.56
MS.405         	9.297          	0.471
MS.406         	9.28           	0.454
MS.407         	9.26           	0.5
MS.408         	9.242          	0.428
MS.409         	9.222          	0.411
MS.410         	9.205          	0.488
MS.411         	9.188          	0.422
MS.412         	9.167          	0.458
MS.413         	9.15           	0.309
MS.414         	9.132          	0.319
MS.415         	9.113          	0.399
MS.416         	9.095          	0.272
MS.417         	9.077          	0.19
MS.418         	9.057          	0.361
MS.419         	9.04           	0.188
MS.420         	9.023          	0.233
MS.421         	9.005          	0.173
MS.422         	8.988          	0.214
MS.423         	8.967          	0.211
MS.424         	8.95           	0.205
MS.425         	8.932          	0.231
MS.426         	8.915          	0.186
MS.427         	8.898          	0.203
MS.428         	8.88           	0.187
MS.429         	8.863          	0.227
MS.430         	8.845          	0.173
MS.431         	8.825          	0.197
MS.432         	8.807          	0.15
MS.433         	8.79           	0.14
MS.434         	8.773          	0.17
MS.435         	8.755          	0.142
MS.436         	8.738          	0.132
MS.437         	8.72           	0.121
MS.438         	8.702          	0.122
MS.439         	8.685          	0.176
MS.440         	8.67           	0.112
MS.441         	8.653          	0.192
MS.442         	8.635          	0.157
MS.443         	8.617          	0.166
MS.444         	8.6            	0.106
MS.445         	8.582          	0.118
MS.446         	8.565          	0.101
MS.447         	8.547          	0.106
MS.448         	8.53           	0.105
MS.449         	8.515          	0.098
MS.450         	8.497          	0.1
MS.451         	8.48           	0.111
MS.452         	8.462          	0.096
MS.453         	8.448          	0.11
MS.454         	8.43           	0.09
MS.455         	8.412          	0.087
MS.456         	8.395          	0.134
MS.457         	8.38           	0.079
MS.458         	8.363          	0.081
MS.459         	8.345          	0.071
MS.460         	8.33           	0.061
MS.461         	8.312          	0.085
MS.462         	8.295          	0.082
MS.463         	8.28           	0.073
MS.464         	8.262          	0.082
MS.465         	8.245          	0.084
MS.466         	8.23           	0.074
MS.467         	8.212          	0.061
MS.468         	8.198          	0.074
MS.469         	8.18           	0.065
MS.470         	8.165          	0.066
MS.471         	8.148          	0.059
MS.472         	8.132          	0.079
MS.473         	8.115          	0.05
MS.474         	8.1            	0.073
MS.475         	8.082          	0.059
MS.476         	8.068          	0.048
MS.477         	8.05           	0.056
MS.478         	8.035          	0.061
MS.479         	8.017          	0.065
MS.480         	8.002          	0.057
MS.481         	7.987          	0.052
MS.482         	7.97           	0.06
MS.483         	7.955          	0.05
MS.484         	7.938          	0.044
MS.485         	7.922          	0.059
MS.486         	7.907          	0.062
MS.487         	7.89           	0.055
MS.488         	7.875          	0.035
MS.489         	7.86           	0.042
MS.490         	7.845          	0.05
MS.491         	7.827          	0.05
MS.492         	7.812          	0.046
MS.493         	7.797          	0.051
MS.494         	7.782          	0.05
MS.495         	7.765          	0.048
MS.496         	7.75           	0.061
MS.497         	7.735          	0.043
MS.498         	7.72           	0.049
MS.499         	7.705          	0.056
MS.500         	7.688          	0.044
MS.501         	7.672          	0.048
