File:              	C:\Qtrac\Data\Daniel M Sørensen\MScan multicentre study\Data from centres\Oulu\Processed data\OUHC01030C.QZD
Name:              	FL.OUL.NC.2.1
Protocol:          	MSCAN-R2
Date:              	30/10/20
Start time:        	09:13:56
Age:               	63
Sex:               	F
Temperature:       	32,8
S/R sites:         	TA
NC/disease:        	NC
Operator:          	MK
Comments:
M-SCAN DATA (1.4-0.0m)
Scanpts: 68, 79, 695, 715
Stim. (mA)     	Amp. (mV)
MS.1           	26             	6.872
MS.2           	26             	6.882
MS.3           	25.948         	6.888
MS.4           	25.895         	6.898
MS.5           	25.845         	6.88
MS.6           	25.792         	6.88
MS.7           	25.743         	6.886
MS.8           	25.69          	6.868
MS.9           	25.637         	6.86
MS.10          	25.587         	6.86
MS.11          	25.535         	6.864
MS.12          	25.485         	6.874
MS.13          	25.435         	6.856
MS.14          	25.382         	6.886
MS.15          	25.332         	6.88
MS.16          	25.282         	6.878
MS.17          	25.233         	6.872
MS.18          	25.18          	6.868
MS.19          	25.13          	6.86
MS.20          	25.08          	6.882
MS.21          	25.03          	6.866
MS.22          	24.98          	6.864
MS.23          	24.93          	6.882
MS.24          	24.88          	6.868
MS.25          	24.83          	6.921
MS.26          	24.782         	6.864
MS.27          	24.733         	6.882
MS.28          	24.682         	6.876
MS.29          	24.632         	6.886
MS.30          	24.585         	6.858
MS.31          	24.535         	6.87
MS.32          	24.485         	6.882
MS.33          	24.438         	6.884
MS.34          	24.387         	6.876
MS.35          	24.34          	6.872
MS.36          	24.29          	6.866
MS.37          	24.243         	6.905
MS.38          	24.195         	6.862
MS.39          	24.145         	6.886
MS.40          	24.097         	6.872
MS.41          	24.05          	6.898
MS.42          	24             	6.884
MS.43          	23.952         	6.898
MS.44          	23.905         	6.88
MS.45          	23.858         	6.89
MS.46          	23.81          	6.884
MS.47          	23.762         	6.911
MS.48          	23.715         	6.888
MS.49          	23.667         	6.903
MS.50          	23.62          	6.907
MS.51          	23.573         	6.896
MS.52          	23.525         	6.907
MS.53          	23.48          	6.909
MS.54          	23.432         	6.878
MS.55          	23.385         	6.894
MS.56          	23.337         	6.903
MS.57          	23.292         	6.911
MS.58          	23.245         	6.913
MS.59          	23.198         	6.917
MS.60          	23.153         	6.935
MS.61          	23.105         	6.927
MS.62          	23.06          	6.911
MS.63          	23.015         	6.892
MS.64          	22.967         	6.941
MS.65          	22.922         	6.943
MS.66          	22.875         	6.909
MS.67          	22.83          	6.911
MS.68          	22.785         	6.933
MS.69          	22.74          	6.927
MS.70          	22.695         	6.907
MS.71          	22.647         	6.921
MS.72          	22.602         	6.923
MS.73          	22.557         	6.911
MS.74          	22.512         	6.911
MS.75          	22.467         	6.915
MS.76          	22.422         	6.921
MS.77          	22.377         	6.903
MS.78          	22.332         	6.898
MS.79          	22.29          	6.927
MS.80          	22.245         	6.931
MS.81          	22.2           	6.903
MS.82          	22.155         	6.903
MS.83          	22.112         	6.907
MS.84          	22.067         	6.903
MS.85          	22.022         	6.901
MS.86          	21.98          	6.937
MS.87          	21.935         	6.868
MS.88          	21.892         	6.909
MS.89          	21.847         	6.894
MS.90          	21.805         	6.83
MS.91          	21.76          	6.856
MS.92          	21.717         	6.911
MS.93          	21.672         	6.81
MS.94          	21.63          	6.925
MS.95          	21.587         	6.89
MS.96          	21.545         	6.842
MS.97          	21.5           	6.854
MS.98          	21.458         	6.868
MS.99          	21.415         	6.84
MS.100         	21.372         	6.87
MS.101         	21.33          	6.882
MS.102         	21.288         	6.854
MS.103         	21.245         	6.86
MS.104         	21.202         	6.818
MS.105         	21.16          	6.784
MS.106         	21.118         	6.77
MS.107         	21.075         	6.818
MS.108         	21.032         	6.824
MS.109         	20.99          	6.776
MS.110         	20.95          	6.751
MS.111         	20.907         	6.741
MS.112         	20.865         	6.772
MS.113         	20.825         	6.749
MS.114         	20.782         	6.776
MS.115         	20.74          	6.739
MS.116         	20.7           	6.749
MS.117         	20.657         	6.747
MS.118         	20.618         	6.711
MS.119         	20.575         	6.751
MS.120         	20.535         	6.715
MS.121         	20.493         	6.729
MS.122         	20.452         	6.715
MS.123         	20.413         	6.725
MS.124         	20.37          	6.703
MS.125         	20.33          	6.701
MS.126         	20.29          	6.705
MS.127         	20.25          	6.727
MS.128         	20.208         	6.695
MS.129         	20.167         	6.723
MS.130         	20.127         	6.723
MS.131         	20.087         	6.709
MS.132         	20.047         	6.691
MS.133         	20.007         	6.681
MS.134         	19.967         	6.695
MS.135         	19.927         	6.731
MS.136         	19.887         	6.721
MS.137         	19.847         	6.731
MS.138         	19.807         	6.615
MS.139         	19.767         	6.679
MS.140         	19.73          	6.691
MS.141         	19.69          	6.653
MS.142         	19.65          	6.709
MS.143         	19.61          	6.621
MS.144         	19.573         	6.61
MS.145         	19.532         	6.596
MS.146         	19.495         	6.61
MS.147         	19.455         	6.586
MS.148         	19.415         	6.619
MS.149         	19.377         	6.617
MS.150         	19.337         	6.578
MS.151         	19.3           	6.655
MS.152         	19.262         	6.633
MS.153         	19.222         	6.612
MS.154         	19.185         	6.582
MS.155         	19.145         	6.556
MS.156         	19.108         	6.548
MS.157         	19.07          	6.572
MS.158         	19.032         	6.582
MS.159         	18.993         	6.516
MS.160         	18.955         	6.536
MS.161         	18.917         	6.568
MS.162         	18.88          	6.502
MS.163         	18.842         	6.538
MS.164         	18.805         	6.554
MS.165         	18.767         	6.534
MS.166         	18.73          	6.58
MS.167         	18.692         	6.544
MS.168         	18.655         	6.524
MS.169         	18.618         	6.486
MS.170         	18.58          	6.492
MS.171         	18.542         	6.52
MS.172         	18.505         	6.51
MS.173         	18.47          	6.506
MS.174         	18.432         	6.5
MS.175         	18.395         	6.508
MS.176         	18.358         	6.453
MS.177         	18.323         	6.427
MS.178         	18.285         	6.421
MS.179         	18.25          	6.49
MS.180         	18.212         	6.447
MS.181         	18.175         	6.445
MS.182         	18.14          	6.381
MS.183         	18.102         	6.492
MS.184         	18.067         	6.49
MS.185         	18.03          	6.385
MS.186         	17.995         	6.437
MS.187         	17.96          	6.369
MS.188         	17.922         	6.391
MS.189         	17.887         	6.371
MS.190         	17.852         	6.371
MS.191         	17.815         	6.333
MS.192         	17.78          	6.32
MS.193         	17.745         	6.335
MS.194         	17.71          	6.371
MS.195         	17.675         	6.373
MS.196         	17.637         	6.248
MS.197         	17.602         	6.369
MS.198         	17.567         	6.337
MS.199         	17.532         	6.355
MS.200         	17.497         	6.389
MS.201         	17.462         	6.341
MS.202         	17.427         	6.298
MS.203         	17.392         	6.274
MS.204         	17.36          	6.228
MS.205         	17.325         	6.28
MS.206         	17.29          	6.2
MS.207         	17.255         	6.2
MS.208         	17.22          	6.262
MS.209         	17.185         	6.167
MS.210         	17.153         	6.131
MS.211         	17.118         	6.157
MS.212         	17.083         	6.236
MS.213         	17.05          	6.089
MS.214         	17.015         	6.038
MS.215         	16.98          	6.061
MS.216         	16.948         	6.004
MS.217         	16.913         	5.968
MS.218         	16.88          	6.02
MS.219         	16.845         	5.944
MS.220         	16.812         	5.883
MS.221         	16.778         	5.928
MS.222         	16.745         	5.883
MS.223         	16.712         	5.871
MS.224         	16.677         	5.942
MS.225         	16.645         	5.793
MS.226         	16.612         	5.839
MS.227         	16.577         	5.811
MS.228         	16.545         	5.879
MS.229         	16.512         	5.841
MS.230         	16.48          	5.805
MS.231         	16.445         	5.853
MS.232         	16.413         	5.781
MS.233         	16.38          	5.817
MS.234         	16.347         	5.847
MS.235         	16.315         	5.841
MS.236         	16.282         	5.785
MS.237         	16.25          	5.789
MS.238         	16.217         	5.71
MS.239         	16.185         	5.726
MS.240         	16.153         	5.63
MS.241         	16.12          	5.742
MS.242         	16.087         	5.68
MS.243         	16.055         	5.66
MS.244         	16.025         	5.626
MS.245         	15.992         	5.555
MS.246         	15.96          	5.617
MS.247         	15.927         	5.609
MS.248         	15.898         	5.569
MS.249         	15.865         	5.658
MS.250         	15.832         	5.531
MS.251         	15.802         	5.549
MS.252         	15.77          	5.481
MS.253         	15.737         	5.456
MS.254         	15.707         	5.474
MS.255         	15.675         	5.456
MS.256         	15.645         	5.472
MS.257         	15.612         	5.497
MS.258         	15.582         	5.382
MS.259         	15.55          	5.442
MS.260         	15.52          	5.364
MS.261         	15.487         	5.338
MS.262         	15.457         	5.41
MS.263         	15.427         	5.398
MS.264         	15.395         	5.279
MS.265         	15.365         	5.364
MS.266         	15.335         	5.333
MS.267         	15.302         	5.336
MS.268         	15.273         	5.313
MS.269         	15.242         	5.229
MS.270         	15.212         	5.331
MS.271         	15.182         	5.186
MS.272         	15.152         	5.275
MS.273         	15.12          	5.251
MS.274         	15.09          	5.17
MS.275         	15.06          	5.239
MS.276         	15.03          	5.209
MS.277         	15             	5.249
MS.278         	14.97          	5.271
MS.279         	14.94          	5.19
MS.280         	14.91          	5.19
MS.281         	14.88          	5.138
MS.282         	14.852         	5.146
MS.283         	14.822         	5.112
MS.284         	14.792         	5.172
MS.285         	14.762         	5.199
MS.286         	14.733         	4.999
MS.287         	14.702         	5.172
MS.288         	14.675         	5.058
MS.289         	14.645         	5.106
MS.290         	14.615         	5.088
MS.291         	14.587         	5.098
MS.292         	14.557         	4.947
MS.293         	14.527         	4.78
MS.294         	14.5           	4.945
MS.295         	14.47          	4.816
MS.296         	14.443         	4.902
MS.297         	14.412         	4.959
MS.298         	14.382         	4.794
MS.299         	14.355         	4.79
MS.300         	14.327         	4.828
MS.301         	14.297         	4.703
MS.302         	14.27          	4.625
MS.303         	14.24          	4.667
MS.304         	14.212         	4.618
MS.305         	14.185         	4.526
MS.306         	14.155         	4.659
MS.307         	14.127         	4.614
MS.308         	14.1           	4.723
MS.309         	14.07          	4.564
MS.310         	14.042         	4.437
MS.311         	14.015         	4.562
MS.312         	13.987         	4.484
MS.313         	13.957         	4.512
MS.314         	13.93          	4.514
MS.315         	13.903         	4.367
MS.316         	13.875         	4.381
MS.317         	13.847         	4.421
MS.318         	13.82          	4.318
MS.319         	13.792         	4.304
MS.320         	13.765         	4.29
MS.321         	13.737         	4.143
MS.322         	13.71          	4.361
MS.323         	13.682         	4.173
MS.324         	13.655         	4.042
MS.325         	13.627         	4.119
MS.326         	13.6           	4.111
MS.327         	13.572         	3.944
MS.328         	13.545         	4.117
MS.329         	13.52          	4.008
MS.330         	13.492         	4.052
MS.331         	13.465         	3.903
MS.332         	13.438         	3.857
MS.333         	13.412         	3.928
MS.334         	13.385         	3.853
MS.335         	13.358         	3.994
MS.336         	13.33          	3.748
MS.337         	13.305         	3.883
MS.338         	13.278         	3.847
MS.339         	13.252         	3.704
MS.340         	13.225         	3.783
MS.341         	13.197         	3.771
MS.342         	13.172         	3.738
MS.343         	13.145         	3.758
MS.344         	13.12          	3.69
MS.345         	13.092         	3.551
MS.346         	13.068         	3.545
MS.347         	13.04          	3.634
MS.348         	13.015         	3.557
MS.349         	12.99          	3.515
MS.350         	12.962         	3.456
MS.351         	12.938         	3.561
MS.352         	12.91          	3.589
MS.353         	12.885         	3.611
MS.354         	12.86          	3.462
MS.355         	12.835         	3.432
MS.356         	12.807         	3.277
MS.357         	12.782         	3.384
MS.358         	12.757         	3.398
MS.359         	12.733         	3.366
MS.360         	12.707         	3.194
MS.361         	12.68          	3.196
MS.362         	12.655         	3.209
MS.363         	12.63          	3.344
MS.364         	12.605         	3.297
MS.365         	12.58          	3.132
MS.366         	12.555         	3.164
MS.367         	12.53          	3.166
MS.368         	12.505         	3.084
MS.369         	12.48          	2.957
MS.370         	12.455         	3.144
MS.371         	12.43          	2.995
MS.372         	12.405         	3.049
MS.373         	12.38          	2.955
MS.374         	12.355         	2.975
MS.375         	12.33          	2.884
MS.376         	12.305         	3.033
MS.377         	12.282         	2.792
MS.378         	12.257         	2.822
MS.379         	12.233         	2.769
MS.380         	12.207         	2.854
MS.381         	12.182         	2.826
MS.382         	12.16          	2.82
MS.383         	12.135         	2.931
MS.384         	12.11          	2.87
MS.385         	12.087         	2.719
MS.386         	12.062         	2.743
MS.387         	12.037         	2.773
MS.388         	12.015         	2.669
MS.389         	11.99          	2.725
MS.390         	11.967         	2.604
MS.391         	11.943         	2.721
MS.392         	11.917         	2.697
MS.393         	11.895         	2.675
MS.394         	11.87          	2.633
MS.395         	11.847         	2.568
MS.396         	11.822         	2.637
MS.397         	11.8           	2.57
MS.398         	11.778         	2.475
MS.399         	11.752         	2.574
MS.400         	11.73          	2.365
MS.401         	11.705         	2.463
MS.402         	11.682         	2.351
MS.403         	11.66          	2.556
MS.404         	11.635         	2.34
MS.405         	11.613         	2.51
MS.406         	11.59          	2.485
MS.407         	11.568         	2.494
MS.408         	11.542         	2.399
MS.409         	11.52          	2.306
MS.410         	11.497         	2.492
MS.411         	11.475         	2.389
MS.412         	11.45          	2.419
MS.413         	11.427         	2.199
MS.414         	11.405         	2.349
MS.415         	11.382         	2.304
MS.416         	11.36          	2.185
MS.417         	11.337         	2.183
MS.418         	11.315         	2.3
MS.419         	11.292         	2.226
MS.420         	11.27          	2.212
MS.421         	11.247         	2.119
MS.422         	11.225         	2.093
MS.423         	11.202         	2.161
MS.424         	11.18          	2.079
MS.425         	11.157         	2.143
MS.426         	11.135         	1.919
MS.427         	11.113         	1.948
MS.428         	11.09          	1.988
MS.429         	11.068         	1.972
MS.430         	11.047         	1.934
MS.431         	11.025         	1.913
MS.432         	11.002         	1.718
MS.433         	10.98          	1.803
MS.434         	10.957         	1.813
MS.435         	10.938         	1.742
MS.436         	10.915         	1.71
MS.437         	10.892         	1.716
MS.438         	10.87          	1.593
MS.439         	10.85          	1.698
MS.440         	10.827         	1.635
MS.441         	10.805         	1.49
MS.442         	10.785         	1.442
MS.443         	10.762         	1.424
MS.444         	10.742         	1.49
MS.445         	10.72          	1.366
MS.446         	10.698         	1.368
MS.447         	10.677         	1.343
MS.448         	10.655         	1.466
MS.449         	10.635         	1.376
MS.450         	10.613         	1.329
MS.451         	10.592         	1.241
MS.452         	10.57          	1.243
MS.453         	10.55          	1.315
MS.454         	10.528         	1.303
MS.455         	10.507         	1.273
MS.456         	10.488         	1.124
MS.457         	10.465         	1.2
MS.458         	10.445         	1.146
MS.459         	10.425         	1.16
MS.460         	10.403         	1.178
MS.461         	10.382         	1.128
MS.462         	10.363         	1.176
MS.463         	10.34          	1.146
MS.464         	10.32          	1.136
MS.465         	10.3           	1.114
MS.466         	10.28          	1.086
MS.467         	10.257         	1.059
MS.468         	10.238         	0.991
MS.469         	10.217         	1.045
MS.470         	10.198         	1.013
MS.471         	10.177         	0.999
MS.472         	10.157         	0.989
MS.473         	10.135         	0.943
MS.474         	10.115         	0.979
MS.475         	10.095         	1.015
MS.476         	10.075         	0.985
MS.477         	10.055         	1.017
MS.478         	10.035         	0.999
MS.479         	10.015         	1.055
MS.480         	9.995          	0.933
MS.481         	9.975          	0.931
MS.482         	9.955          	0.898
MS.483         	9.935          	0.894
MS.484         	9.915          	0.84
MS.485         	9.895          	0.834
MS.486         	9.875          	0.924
MS.487         	9.855          	0.912
MS.488         	9.837          	0.773
MS.489         	9.818          	0.788
MS.490         	9.797          	0.856
MS.491         	9.778          	0.788
MS.492         	9.757          	0.794
MS.493         	9.738          	0.82
MS.494         	9.72           	0.653
MS.495         	9.7            	0.641
MS.496         	9.68           	0.604
MS.497         	9.66           	0.63
MS.498         	9.642          	0.747
MS.499         	9.622          	0.624
MS.500         	9.602          	0.604
MS.501         	9.585          	0.56
