File:              	C:\Qtrac\Data\Daniel M Sørensen\MScan multicentre study\Data from centres\Oulu\Processed data\OUHC01119C.QZD
Name:              	FL.OUL.NC.3.2
Protocol:          	MSCAN-R2
Date:              	19/11/20
Start time:        	13:35:26
Age:               	78
Sex:               	M
Temperature:       	34,0
S/R sites:         	TA
NC/disease:        	NC
Operator:          	MK
Comments:
M-SCAN DATA (1.7-0.0m)
Scanpts: 7, 18, 710, 728
Stim. (mA)     	Amp. (mV)
MS.1           	26             	5.47
MS.2           	26             	5.497
MS.3           	25.948         	5.331
MS.4           	25.895         	5.499
MS.5           	25.845         	5.416
MS.6           	25.792         	5.402
MS.7           	25.743         	5.428
MS.8           	25.69          	5.41
MS.9           	25.637         	5.338
MS.10          	25.587         	5.384
MS.11          	25.535         	5.388
MS.12          	25.485         	5.372
MS.13          	25.435         	5.354
MS.14          	25.382         	5.331
MS.15          	25.332         	5.319
MS.16          	25.282         	5.333
MS.17          	25.233         	5.325
MS.18          	25.18          	5.362
MS.19          	25.13          	5.305
MS.20          	25.08          	5.342
MS.21          	25.03          	5.13
MS.22          	24.98          	5.227
MS.23          	24.93          	5.243
MS.24          	24.88          	5.199
MS.25          	24.83          	5.13
MS.26          	24.782         	5.17
MS.27          	24.733         	5.144
MS.28          	24.682         	5.178
MS.29          	24.632         	5.16
MS.30          	24.585         	5.072
MS.31          	24.535         	5.114
MS.32          	24.485         	5.178
MS.33          	24.438         	5.084
MS.34          	24.387         	5.009
MS.35          	24.34          	5.205
MS.36          	24.29          	5.094
MS.37          	24.243         	5.128
MS.38          	24.195         	5.116
MS.39          	24.145         	5.104
MS.40          	24.097         	5.152
MS.41          	24.05          	5.09
MS.42          	24             	4.959
MS.43          	23.952         	4.991
MS.44          	23.905         	5.035
MS.45          	23.858         	4.943
MS.46          	23.81          	4.983
MS.47          	23.762         	4.945
MS.48          	23.715         	5.011
MS.49          	23.667         	4.955
MS.50          	23.62          	4.923
MS.51          	23.573         	4.941
MS.52          	23.525         	4.876
MS.53          	23.48          	4.906
MS.54          	23.432         	4.824
MS.55          	23.385         	4.794
MS.56          	23.337         	4.802
MS.57          	23.292         	4.818
MS.58          	23.245         	4.836
MS.59          	23.198         	4.832
MS.60          	23.153         	4.824
MS.61          	23.105         	4.834
MS.62          	23.06          	4.766
MS.63          	23.015         	4.759
MS.64          	22.967         	4.743
MS.65          	22.922         	4.753
MS.66          	22.875         	4.814
MS.67          	22.83          	4.695
MS.68          	22.785         	4.759
MS.69          	22.74          	4.784
MS.70          	22.695         	4.759
MS.71          	22.647         	4.792
MS.72          	22.602         	4.743
MS.73          	22.557         	4.693
MS.74          	22.512         	4.653
MS.75          	22.467         	4.717
MS.76          	22.422         	4.643
MS.77          	22.377         	4.661
MS.78          	22.332         	4.669
MS.79          	22.29          	4.661
MS.80          	22.245         	4.596
MS.81          	22.2           	4.62
MS.82          	22.155         	4.558
MS.83          	22.112         	4.566
MS.84          	22.067         	4.608
MS.85          	22.022         	4.56
MS.86          	21.98          	4.542
MS.87          	21.935         	4.59
MS.88          	21.892         	4.56
MS.89          	21.847         	4.544
MS.90          	21.805         	4.58
MS.91          	21.76          	4.532
MS.92          	21.717         	4.51
MS.93          	21.672         	4.469
MS.94          	21.63          	4.512
MS.95          	21.587         	4.5
MS.96          	21.545         	4.479
MS.97          	21.5           	4.518
MS.98          	21.458         	4.379
MS.99          	21.415         	4.451
MS.100         	21.372         	4.387
MS.101         	21.33          	4.397
MS.102         	21.288         	4.413
MS.103         	21.245         	4.377
MS.104         	21.202         	4.383
MS.105         	21.16          	4.427
MS.106         	21.118         	4.361
MS.107         	21.075         	4.248
MS.108         	21.032         	4.32
MS.109         	20.99          	4.296
MS.110         	20.95          	4.351
MS.111         	20.907         	4.347
MS.112         	20.865         	4.304
MS.113         	20.825         	4.274
MS.114         	20.782         	4.163
MS.115         	20.74          	4.24
MS.116         	20.7           	4.103
MS.117         	20.657         	4.179
MS.118         	20.618         	4.153
MS.119         	20.575         	4.177
MS.120         	20.535         	4.242
MS.121         	20.493         	4.189
MS.122         	20.452         	4.131
MS.123         	20.413         	4.185
MS.124         	20.37          	4.083
MS.125         	20.33          	4.103
MS.126         	20.29          	3.978
MS.127         	20.25          	3.974
MS.128         	20.208         	4.111
MS.129         	20.167         	3.966
MS.130         	20.127         	3.962
MS.131         	20.087         	3.976
MS.132         	20.047         	4.022
MS.133         	20.007         	3.69
MS.134         	19.967         	3.893
MS.135         	19.927         	3.845
MS.136         	19.887         	3.722
MS.137         	19.847         	3.758
MS.138         	19.807         	3.948
MS.139         	19.767         	3.599
MS.140         	19.73          	3.785
MS.141         	19.69          	3.879
MS.142         	19.65          	3.591
MS.143         	19.61          	3.601
MS.144         	19.573         	3.801
MS.145         	19.532         	3.509
MS.146         	19.495         	3.412
MS.147         	19.455         	3.589
MS.148         	19.415         	3.557
MS.149         	19.377         	3.364
MS.150         	19.337         	3.48
MS.151         	19.3           	3.464
MS.152         	19.262         	3.422
MS.153         	19.222         	3.489
MS.154         	19.185         	3.356
MS.155         	19.145         	3.424
MS.156         	19.108         	3.372
MS.157         	19.07          	3.311
MS.158         	19.032         	3.358
MS.159         	18.993         	3.301
MS.160         	18.955         	3.378
MS.161         	18.917         	3.152
MS.162         	18.88          	3.275
MS.163         	18.842         	3.126
MS.164         	18.805         	3.309
MS.165         	18.767         	3.293
MS.166         	18.73          	3.148
MS.167         	18.692         	3.047
MS.168         	18.655         	3.178
MS.169         	18.618         	3.102
MS.170         	18.58          	3.19
MS.171         	18.542         	2.989
MS.172         	18.505         	2.969
MS.173         	18.47          	2.931
MS.174         	18.432         	3.049
MS.175         	18.395         	2.904
MS.176         	18.358         	2.927
MS.177         	18.323         	3.08
MS.178         	18.285         	2.963
MS.179         	18.25          	3.066
MS.180         	18.212         	2.88
MS.181         	18.175         	2.846
MS.182         	18.14          	2.878
MS.183         	18.102         	2.876
MS.184         	18.067         	2.814
MS.185         	18.03          	2.878
MS.186         	17.995         	2.866
MS.187         	17.96          	2.862
MS.188         	17.922         	2.814
MS.189         	17.887         	2.776
MS.190         	17.852         	2.812
MS.191         	17.815         	2.782
MS.192         	17.78          	2.749
MS.193         	17.745         	2.687
MS.194         	17.71          	2.701
MS.195         	17.675         	2.707
MS.196         	17.637         	2.778
MS.197         	17.602         	2.715
MS.198         	17.567         	2.693
MS.199         	17.532         	2.745
MS.200         	17.497         	2.618
MS.201         	17.462         	2.582
MS.202         	17.427         	2.544
MS.203         	17.392         	2.624
MS.204         	17.36          	2.586
MS.205         	17.325         	2.494
MS.206         	17.29          	2.477
MS.207         	17.255         	2.624
MS.208         	17.22          	2.395
MS.209         	17.185         	2.437
MS.210         	17.153         	2.443
MS.211         	17.118         	2.643
MS.212         	17.083         	2.435
MS.213         	17.05          	2.461
MS.214         	17.015         	2.353
MS.215         	16.98          	2.371
MS.216         	16.948         	2.524
MS.217         	16.913         	2.373
MS.218         	16.88          	2.294
MS.219         	16.845         	2.272
MS.220         	16.812         	2.185
MS.221         	16.778         	2.286
MS.222         	16.745         	2.201
MS.223         	16.712         	2.316
MS.224         	16.677         	2.258
MS.225         	16.645         	2.161
MS.226         	16.612         	2.022
MS.227         	16.577         	2.093
MS.228         	16.545         	2.097
MS.229         	16.512         	2.121
MS.230         	16.48          	2.139
MS.231         	16.445         	2.175
MS.232         	16.413         	2.014
MS.233         	16.38          	2.034
MS.234         	16.347         	2.002
MS.235         	16.315         	1.998
MS.236         	16.282         	2.03
MS.237         	16.25          	1.96
MS.238         	16.217         	2
MS.239         	16.185         	2.016
MS.240         	16.153         	1.909
MS.241         	16.12          	1.917
MS.242         	16.087         	1.869
MS.243         	16.055         	1.811
MS.244         	16.025         	1.748
MS.245         	15.992         	1.71
MS.246         	15.96          	1.72
MS.247         	15.927         	1.734
MS.248         	15.898         	1.714
MS.249         	15.865         	1.736
MS.250         	15.832         	1.787
MS.251         	15.802         	1.734
MS.252         	15.77          	1.642
MS.253         	15.737         	1.666
MS.254         	15.707         	1.672
MS.255         	15.675         	1.492
MS.256         	15.645         	1.678
MS.257         	15.612         	1.549
MS.258         	15.582         	1.662
MS.259         	15.55          	1.712
MS.260         	15.52          	1.446
MS.261         	15.487         	1.539
MS.262         	15.457         	1.535
MS.263         	15.427         	1.372
MS.264         	15.395         	1.535
MS.265         	15.365         	1.46
MS.266         	15.335         	1.48
MS.267         	15.302         	1.525
MS.268         	15.273         	1.402
MS.269         	15.242         	1.333
MS.270         	15.212         	1.311
MS.271         	15.182         	1.283
MS.272         	15.152         	1.273
MS.273         	15.12          	1.319
MS.274         	15.09          	1.249
MS.275         	15.06          	1.331
MS.276         	15.03          	1.269
MS.277         	15             	1.206
MS.278         	14.97          	1.182
MS.279         	14.94          	1.241
MS.280         	14.91          	1.178
MS.281         	14.88          	1.211
MS.282         	14.852         	1.184
MS.283         	14.822         	1.198
MS.284         	14.792         	1.15
MS.285         	14.762         	1.122
MS.286         	14.733         	1.059
MS.287         	14.702         	1.142
MS.288         	14.675         	1.126
MS.289         	14.645         	0.957
MS.290         	14.615         	1.072
MS.291         	14.587         	1.041
MS.292         	14.557         	1.065
MS.293         	14.527         	0.9
MS.294         	14.5           	1.061
MS.295         	14.47          	0.979
MS.296         	14.443         	1.011
MS.297         	14.412         	1.027
MS.298         	14.382         	0.852
MS.299         	14.355         	1.007
MS.300         	14.327         	0.83
MS.301         	14.297         	0.977
MS.302         	14.27          	1.025
MS.303         	14.24          	0.812
MS.304         	14.212         	0.878
MS.305         	14.185         	0.828
MS.306         	14.155         	0.788
MS.307         	14.127         	0.771
MS.308         	14.1           	0.802
MS.309         	14.07          	0.779
MS.310         	14.042         	0.765
MS.311         	14.015         	0.749
MS.312         	13.987         	0.775
MS.313         	13.957         	0.834
MS.314         	13.93          	0.872
MS.315         	13.903         	0.832
MS.316         	13.875         	0.721
MS.317         	13.847         	0.701
MS.318         	13.82          	0.703
MS.319         	13.792         	0.665
MS.320         	13.765         	0.751
MS.321         	13.737         	0.705
MS.322         	13.71          	0.689
MS.323         	13.682         	0.705
MS.324         	13.655         	0.685
MS.325         	13.627         	0.657
MS.326         	13.6           	0.626
MS.327         	13.572         	0.671
MS.328         	13.545         	0.647
MS.329         	13.52          	0.643
MS.330         	13.492         	0.634
MS.331         	13.465         	0.606
MS.332         	13.438         	0.608
MS.333         	13.412         	0.62
MS.334         	13.385         	0.6
MS.335         	13.358         	0.588
MS.336         	13.33          	0.544
MS.337         	13.305         	0.552
MS.338         	13.278         	0.506
MS.339         	13.252         	0.538
MS.340         	13.225         	0.542
MS.341         	13.197         	0.552
MS.342         	13.172         	0.54
MS.343         	13.145         	0.56
MS.344         	13.12          	0.524
MS.345         	13.092         	0.516
MS.346         	13.068         	0.512
MS.347         	13.04          	0.491
MS.348         	13.015         	0.459
MS.349         	12.99          	0.471
MS.350         	12.962         	0.415
MS.351         	12.938         	0.53
MS.352         	12.91          	0.469
MS.353         	12.885         	0.53
MS.354         	12.86          	0.489
MS.355         	12.835         	0.425
MS.356         	12.807         	0.479
MS.357         	12.782         	0.447
MS.358         	12.757         	0.397
MS.359         	12.733         	0.451
MS.360         	12.707         	0.437
MS.361         	12.68          	0.419
MS.362         	12.655         	0.439
MS.363         	12.63          	0.383
MS.364         	12.605         	0.361
MS.365         	12.58          	0.389
MS.366         	12.555         	0.445
MS.367         	12.53          	0.413
MS.368         	12.505         	0.371
MS.369         	12.48          	0.357
MS.370         	12.455         	0.348
MS.371         	12.43          	0.397
MS.372         	12.405         	0.326
MS.373         	12.38          	0.338
MS.374         	12.355         	0.332
MS.375         	12.33          	0.316
MS.376         	12.305         	0.316
MS.377         	12.282         	0.338
MS.378         	12.257         	0.326
MS.379         	12.233         	0.33
MS.380         	12.207         	0.332
MS.381         	12.182         	0.29
MS.382         	12.16          	0.316
MS.383         	12.135         	0.312
MS.384         	12.11          	0.33
MS.385         	12.087         	0.3
MS.386         	12.062         	0.31
MS.387         	12.037         	0.316
MS.388         	12.015         	0.294
MS.389         	11.99          	0.262
MS.390         	11.967         	0.294
MS.391         	11.943         	0.264
MS.392         	11.917         	0.24
MS.393         	11.895         	0.266
MS.394         	11.87          	0.262
MS.395         	11.847         	0.262
MS.396         	11.822         	0.26
MS.397         	11.8           	0.26
MS.398         	11.778         	0.29
MS.399         	11.752         	0.282
MS.400         	11.73          	0.234
MS.401         	11.705         	0.238
MS.402         	11.682         	0.256
MS.403         	11.66          	0.254
MS.404         	11.635         	0.236
MS.405         	11.613         	0.238
MS.406         	11.59          	0.248
MS.407         	11.568         	0.236
MS.408         	11.542         	0.216
MS.409         	11.52          	0.211
MS.410         	11.497         	0.211
MS.411         	11.475         	0.209
MS.412         	11.45          	0.209
MS.413         	11.427         	0.193
MS.414         	11.405         	0.201
MS.415         	11.382         	0.199
MS.416         	11.36          	0.244
MS.417         	11.337         	0.218
MS.418         	11.315         	0.201
MS.419         	11.292         	0.201
MS.420         	11.27          	0.195
MS.421         	11.247         	0.185
MS.422         	11.225         	0.211
MS.423         	11.202         	0.167
MS.424         	11.18          	0.175
MS.425         	11.157         	0.187
MS.426         	11.135         	0.183
MS.427         	11.113         	0.179
MS.428         	11.09          	0.191
MS.429         	11.068         	0.169
MS.430         	11.047         	0.171
MS.431         	11.025         	0.165
MS.432         	11.002         	0.171
MS.433         	10.98          	0.181
MS.434         	10.957         	0.171
MS.435         	10.938         	0.171
MS.436         	10.915         	0.163
MS.437         	10.892         	0.145
MS.438         	10.87          	0.165
MS.439         	10.85          	0.165
MS.440         	10.827         	0.171
MS.441         	10.805         	0.161
MS.442         	10.785         	0.149
MS.443         	10.762         	0.147
MS.444         	10.742         	0.163
MS.445         	10.72          	0.157
MS.446         	10.698         	0.159
MS.447         	10.677         	0.153
MS.448         	10.655         	0.155
MS.449         	10.635         	0.161
MS.450         	10.613         	0.157
MS.451         	10.592         	0.153
MS.452         	10.57          	0.149
MS.453         	10.55          	0.147
MS.454         	10.528         	0.151
MS.455         	10.507         	0.155
MS.456         	10.488         	0.151
MS.457         	10.465         	0.145
MS.458         	10.445         	0.139
MS.459         	10.425         	0.155
MS.460         	10.403         	0.141
MS.461         	10.382         	0.145
MS.462         	10.363         	0.143
MS.463         	10.34          	0.147
MS.464         	10.32          	0.091
MS.465         	10.3           	0.143
MS.466         	10.28          	0.141
MS.467         	10.257         	0.149
MS.468         	10.238         	0.145
MS.469         	10.217         	0.141
MS.470         	10.198         	0.137
MS.471         	10.177         	0.143
MS.472         	10.157         	0.145
MS.473         	10.135         	0.143
MS.474         	10.115         	0.149
MS.475         	10.095         	0.143
MS.476         	10.075         	0.137
MS.477         	10.055         	0.145
MS.478         	10.035         	0.141
MS.479         	10.015         	0.169
MS.480         	9.995          	0.147
MS.481         	9.975          	0.139
MS.482         	9.955          	0.141
MS.483         	9.935          	0.141
MS.484         	9.915          	0.145
MS.485         	9.895          	0.143
MS.486         	9.875          	0.141
MS.487         	9.855          	0.141
MS.488         	9.837          	0.137
MS.489         	9.818          	0.137
MS.490         	9.797          	0.137
MS.491         	9.778          	0.137
MS.492         	9.757          	0.141
MS.493         	9.738          	0.139
MS.494         	9.72           	0.139
MS.495         	9.7            	0.135
MS.496         	9.68           	0.135
MS.497         	9.66           	0.135
MS.498         	9.642          	0.133
MS.499         	9.622          	0.141
MS.500         	9.602          	0.137
MS.501         	9.585          	0.133
