File:              	C:\Qtrac\Data\Daniel M Sørensen\MScan multicentre study\Data from centres\Ankara\Processed data\RCC10120D.QZD
Name:              	TR.ANK.NC.11.2
Protocol:          	MSCAN-R2
Date:              	20/1/21
Start time:        	15:16:12
Age:               	30
Sex:               	f
Temperature:
S/R sites:         	TA
NC/disease:        	NC
Operator:          	ha
Comments:
M-SCAN DATA (6.7-1.3m)
Scanpts: 4, 12, 495, 511
Stim. (mA)     	Amp. (mV)
MS.1           	31.5           	6.608
MS.2           	31.5           	6.555
MS.3           	31.5           	6.578
MS.4           	31.5           	6.577
MS.5           	31.5           	6.516
MS.6           	31.5           	6.555
MS.7           	31.5           	6.57
MS.8           	31.5           	6.481
MS.9           	31.5           	6.602
MS.10          	31.5           	6.63
MS.11          	31.5           	6.649
MS.12          	31.5           	6.559
MS.13          	31.5           	6.609
MS.14          	31.5           	6.561
MS.15          	31.5           	6.582
MS.16          	31.5           	6.521
MS.17          	31.5           	6.561
MS.18          	31.5           	6.377
MS.19          	31.5           	6.639
MS.20          	31.5           	6.676
MS.21          	31.5           	6.58
MS.22          	31.5           	6.582
MS.23          	31.5           	6.566
MS.24          	31.375         	6.479
MS.25          	31.312         	6.559
MS.26          	31.25          	6.488
MS.27          	31.188         	6.541
MS.28          	31.125         	6.591
MS.29          	31.062         	6.57
MS.30          	31             	6.516
MS.31          	30.938         	6.432
MS.32          	30.875         	6.412
MS.33          	30.815         	6.473
MS.34          	30.752         	6.534
MS.35          	30.692         	6.565
MS.36          	30.63          	6.469
MS.37          	30.57          	6.299
MS.38          	30.507         	6.353
MS.39          	30.448         	6.359
MS.40          	30.385         	6.412
MS.41          	30.325         	6.362
MS.42          	30.265         	6.329
MS.43          	30.205         	6.218
MS.44          	30.145         	6.257
MS.45          	30.082         	6.293
MS.46          	30.022         	6.207
MS.47          	29.962         	6.274
MS.48          	29.903         	6.255
MS.49          	29.845         	6.266
MS.50          	29.785         	6.377
MS.51          	29.725         	6.292
MS.52          	29.665         	6.284
MS.53          	29.605         	6.304
MS.54          	29.547         	6.26
MS.55          	29.487         	6.257
MS.56          	29.43          	6.244
MS.57          	29.37          	6.228
MS.58          	29.312         	6.278
MS.59          	29.252         	6.276
MS.60          	29.195         	6.265
MS.61          	29.137         	6.205
MS.62          	29.077         	6.18
MS.63          	29.02          	6.042
MS.64          	28.962         	6.075
MS.65          	28.905         	6.036
MS.66          	28.847         	6.128
MS.67          	28.787         	6.002
MS.68          	28.73          	6.045
MS.69          	28.675         	6.251
MS.70          	28.618         	6.169
MS.71          	28.56          	6.051
MS.72          	28.502         	6.052
MS.73          	28.445         	6.201
MS.74          	28.387         	6.145
MS.75          	28.332         	6.165
MS.76          	28.275         	5.905
MS.77          	28.217         	6.068
MS.78          	28.162         	6.033
MS.79          	28.105         	5.995
MS.80          	28.05          	6.038
MS.81          	27.995         	6.021
MS.82          	27.938         	5.931
MS.83          	27.882         	5.93
MS.84          	27.827         	5.853
MS.85          	27.77          	5.891
MS.86          	27.715         	5.83
MS.87          	27.66          	5.973
MS.88          	27.605         	5.885
MS.89          	27.55          	5.811
MS.90          	27.495         	5.768
MS.91          	27.44          	5.643
MS.92          	27.385         	5.719
MS.93          	27.33          	5.85
MS.94          	27.275         	5.57
MS.95          	27.22          	5.532
MS.96          	27.167         	5.68
MS.97          	27.112         	5.753
MS.98          	27.057         	5.575
MS.99          	27.005         	5.626
MS.100         	26.95          	5.497
MS.101         	26.895         	5.558
MS.102         	26.842         	5.454
MS.103         	26.79          	5.513
MS.104         	26.735         	5.437
MS.105         	26.682         	5.442
MS.106         	26.627         	5.415
MS.107         	26.575         	5.328
MS.108         	26.522         	5.363
MS.109         	26.47          	5.404
MS.110         	26.417         	5.342
MS.111         	26.362         	5.275
MS.112         	26.31          	5.382
MS.113         	26.257         	5.316
MS.114         	26.205         	5.171
MS.115         	26.153         	5.319
MS.116         	26.102         	5.142
MS.117         	26.05          	5.104
MS.118         	25.997         	5.215
MS.119         	25.945         	5.139
MS.120         	25.892         	5.165
MS.121         	25.842         	5.148
MS.122         	25.79          	4.827
MS.123         	25.737         	4.96
MS.124         	25.688         	4.952
MS.125         	25.635         	4.948
MS.126         	25.585         	4.99
MS.127         	25.532         	5.088
MS.128         	25.483         	4.939
MS.129         	25.432         	4.937
MS.130         	25.38          	4.707
MS.131         	25.33          	4.747
MS.132         	25.28          	4.905
MS.133         	25.227         	4.868
MS.134         	25.177         	4.551
MS.135         	25.127         	4.783
MS.136         	25.077         	4.497
MS.137         	25.028         	4.794
MS.138         	24.977         	4.79
MS.139         	24.927         	4.877
MS.140         	24.877         	4.752
MS.141         	24.827         	4.648
MS.142         	24.778         	4.553
MS.143         	24.73          	4.727
MS.144         	24.68          	4.526
MS.145         	24.63          	4.554
MS.146         	24.58          	4.474
MS.147         	24.532         	4.437
MS.148         	24.483         	4.445
MS.149         	24.435         	4.293
MS.150         	24.385         	4.25
MS.151         	24.337         	4.098
MS.152         	24.288         	4.142
MS.153         	24.24          	4.191
MS.154         	24.19          	4.012
MS.155         	24.142         	4.07
MS.156         	24.095         	4.133
MS.157         	24.047         	4.097
MS.158         	23.997         	3.933
MS.159         	23.95          	3.729
MS.160         	23.903         	3.914
MS.161         	23.855         	3.944
MS.162         	23.807         	3.906
MS.163         	23.76          	3.796
MS.164         	23.712         	3.702
MS.165         	23.665         	3.824
MS.166         	23.618         	3.89
MS.167         	23.57          	3.911
MS.168         	23.522         	3.647
MS.169         	23.475         	3.804
MS.170         	23.43          	3.766
MS.171         	23.382         	3.59
MS.172         	23.335         	3.503
MS.173         	23.29          	3.553
MS.174         	23.243         	3.596
MS.175         	23.195         	3.566
MS.176         	23.15          	3.508
MS.177         	23.102         	3.865
MS.178         	23.057         	3.655
MS.179         	23.01          	3.531
MS.180         	22.965         	3.564
MS.181         	22.92          	3.472
MS.182         	22.872         	3.444
MS.183         	22.827         	3.369
MS.184         	22.782         	3.358
MS.185         	22.737         	3.342
MS.186         	22.692         	3.341
MS.187         	22.645         	3.271
MS.188         	22.6           	3.267
MS.189         	22.555         	3.312
MS.190         	22.51          	3.304
MS.191         	22.465         	3.215
MS.192         	22.42          	3.209
MS.193         	22.375         	3.203
MS.194         	22.33          	3.059
MS.195         	22.288         	3.127
MS.196         	22.243         	3.03
MS.197         	22.198         	3.07
MS.198         	22.153         	3.087
MS.199         	22.11          	2.921
MS.200         	22.065         	3.052
MS.201         	22.02          	3.074
MS.202         	21.977         	3.08
MS.203         	21.932         	3.132
MS.204         	21.89          	3.094
MS.205         	21.845         	3.105
MS.206         	21.802         	2.944
MS.207         	21.757         	2.811
MS.208         	21.715         	2.878
MS.209         	21.67          	2.811
MS.210         	21.627         	2.72
MS.211         	21.585         	2.689
MS.212         	21.542         	2.728
MS.213         	21.497         	2.719
MS.214         	21.455         	2.744
MS.215         	21.413         	2.729
MS.216         	21.37          	2.781
MS.217         	21.327         	2.612
MS.218         	21.285         	2.655
MS.219         	21.243         	2.57
MS.220         	21.2           	2.477
MS.221         	21.157         	2.482
MS.222         	21.115         	2.433
MS.223         	21.073         	2.496
MS.224         	21.03          	2.562
MS.225         	20.987         	2.561
MS.226         	20.948         	2.522
MS.227         	20.905         	2.323
MS.228         	20.862         	2.438
MS.229         	20.823         	2.444
MS.230         	20.78          	2.26
MS.231         	20.737         	2.314
MS.232         	20.698         	2.275
MS.233         	20.655         	2.076
MS.234         	20.615         	2.081
MS.235         	20.573         	2.164
MS.236         	20.532         	2.124
MS.237         	20.49          	1.935
MS.238         	20.45          	2.036
MS.239         	20.41          	1.903
MS.240         	20.368         	2.001
MS.241         	20.327         	1.808
MS.242         	20.288         	1.952
MS.243         	20.247         	1.873
MS.244         	20.205         	1.674
MS.245         	20.165         	1.761
MS.246         	20.125         	1.718
MS.247         	20.085         	1.691
MS.248         	20.045         	1.597
MS.249         	20.005         	1.57
MS.250         	19.965         	1.592
MS.251         	19.925         	1.643
MS.252         	19.885         	1.644
MS.253         	19.845         	1.757
MS.254         	19.805         	1.61
MS.255         	19.767         	1.554
MS.256         	19.727         	1.499
MS.257         	19.688         	1.481
MS.258         	19.647         	1.58
MS.259         	19.61          	1.481
MS.260         	19.57          	1.426
MS.261         	19.53          	1.403
MS.262         	19.493         	1.376
MS.263         	19.452         	1.335
MS.264         	19.415         	1.42
MS.265         	19.375         	1.37
MS.266         	19.337         	1.294
MS.267         	19.297         	1.298
MS.268         	19.26          	1.343
MS.269         	19.22          	1.252
MS.270         	19.182         	1.204
MS.271         	19.145         	1.255
MS.272         	19.105         	1.212
MS.273         	19.067         	1.206
MS.274         	19.03          	1.168
MS.275         	18.993         	1.19
MS.276         	18.952         	1.182
MS.277         	18.915         	1.057
MS.278         	18.877         	1.053
MS.279         	18.84          	1.056
MS.280         	18.802         	1.102
MS.281         	18.765         	1.075
MS.282         	18.727         	1.01
MS.283         	18.69          	1.018
MS.284         	18.653         	0.956
MS.285         	18.615         	0.941
MS.286         	18.577         	0.955
MS.287         	18.54          	0.923
MS.288         	18.505         	0.944
MS.289         	18.467         	0.896
MS.290         	18.43          	0.804
MS.291         	18.392         	0.84
MS.292         	18.358         	0.796
MS.293         	18.32          	0.802
MS.294         	18.282         	0.774
MS.295         	18.247         	0.793
MS.296         	18.21          	0.724
MS.297         	18.175         	0.74
MS.298         	18.137         	0.757
MS.299         	18.102         	0.699
MS.300         	18.065         	0.774
MS.301         	18.03          	0.762
MS.302         	17.993         	0.693
MS.303         	17.958         	0.701
MS.304         	17.92          	0.657
MS.305         	17.885         	0.675
MS.306         	17.85          	0.675
MS.307         	17.815         	0.671
MS.308         	17.778         	0.701
MS.309         	17.743         	0.652
MS.310         	17.708         	0.66
MS.311         	17.672         	0.631
MS.312         	17.637         	0.598
MS.313         	17.602         	0.637
MS.314         	17.567         	0.612
MS.315         	17.53          	0.608
MS.316         	17.495         	0.553
MS.317         	17.46          	0.587
MS.318         	17.427         	0.574
MS.319         	17.392         	0.565
MS.320         	17.358         	0.535
MS.321         	17.323         	0.577
MS.322         	17.288         	0.52
MS.323         	17.253         	0.538
MS.324         	17.217         	0.513
MS.325         	17.185         	0.513
MS.326         	17.15          	0.499
MS.327         	17.115         	0.518
MS.328         	17.083         	0.471
MS.329         	17.047         	0.438
MS.330         	17.012         	0.465
MS.331         	16.98          	0.488
MS.332         	16.945         	0.466
MS.333         	16.913         	0.472
MS.334         	16.878         	0.465
MS.335         	16.845         	0.459
MS.336         	16.81          	0.45
MS.337         	16.778         	0.454
MS.338         	16.743         	0.427
MS.339         	16.71          	0.447
MS.340         	16.675         	0.448
MS.341         	16.642         	0.408
MS.342         	16.61          	0.394
MS.343         	16.577         	0.382
MS.344         	16.542         	0.406
MS.345         	16.51          	0.393
MS.346         	16.477         	0.389
MS.347         	16.445         	0.354
MS.348         	16.413         	0.398
MS.349         	16.378         	0.355
MS.350         	16.345         	0.376
MS.351         	16.312         	0.377
MS.352         	16.28          	0.345
MS.353         	16.247         	0.327
MS.354         	16.215         	0.341
MS.355         	16.182         	0.314
MS.356         	16.15          	0.331
MS.357         	16.118         	0.33
MS.358         	16.087         	0.3
MS.359         	16.055         	0.304
MS.360         	16.022         	0.312
MS.361         	15.99          	0.322
MS.362         	15.957         	0.326
MS.363         	15.927         	0.282
MS.364         	15.895         	0.27
MS.365         	15.862         	0.295
MS.366         	15.83          	0.273
MS.367         	15.8           	0.264
MS.368         	15.767         	0.272
MS.369         	15.737         	0.264
MS.370         	15.705         	0.273
MS.371         	15.672         	0.254
MS.372         	15.642         	0.267
MS.373         	15.61          	0.247
MS.374         	15.58          	0.223
MS.375         	15.55          	0.245
MS.376         	15.517         	0.233
MS.377         	15.487         	0.216
MS.378         	15.455         	0.243
MS.379         	15.425         	0.229
MS.380         	15.395         	0.217
MS.381         	15.362         	0.208
MS.382         	15.332         	0.249
MS.383         	15.302         	0.201
MS.384         	15.273         	0.203
MS.385         	15.24          	0.205
MS.386         	15.21          	0.179
MS.387         	15.18          	0.198
MS.388         	15.15          	0.181
MS.389         	15.12          	0.164
MS.390         	15.09          	0.171
MS.391         	15.06          	0.188
MS.392         	15.03          	0.153
MS.393         	15             	0.134
MS.394         	14.97          	0.128
MS.395         	14.94          	0.145
MS.396         	14.91          	0.129
MS.397         	14.88          	0.151
MS.398         	14.85          	0.143
MS.399         	14.82          	0.134
MS.400         	14.79          	0.133
MS.401         	14.76          	0.125
MS.402         	14.733         	0.14
MS.403         	14.702         	0.135
MS.404         	14.672         	0.131
MS.405         	14.642         	0.127
MS.406         	14.615         	0.127
MS.407         	14.585         	0.116
MS.408         	14.555         	0.106
MS.409         	14.527         	0.116
MS.410         	14.497         	0.098
MS.411         	14.467         	0.11
MS.412         	14.44          	0.105
MS.413         	14.41          	0.111
MS.414         	14.382         	0.114
MS.415         	14.352         	0.094
MS.416         	14.325         	0.089
MS.417         	14.295         	0.093
MS.418         	14.267         	0.089
MS.419         	14.24          	0.088
MS.420         	14.21          	0.093
MS.421         	14.182         	0.082
MS.422         	14.155         	0.085
MS.423         	14.125         	0.077
MS.424         	14.097         	0.084
MS.425         	14.07          	0.068
MS.426         	14.04          	0.081
MS.427         	14.012         	0.068
MS.428         	13.985         	0.073
MS.429         	13.957         	0.067
MS.430         	13.93          	0.068
MS.431         	13.903         	0.065
MS.432         	13.872         	0.066
MS.433         	13.845         	0.059
MS.434         	13.818         	0.059
MS.435         	13.79          	0.055
MS.436         	13.762         	0.057
MS.437         	13.735         	0.06
MS.438         	13.707         	0.049
MS.439         	13.68          	0.057
MS.440         	13.653         	0.057
MS.441         	13.625         	0.055
MS.442         	13.6           	0.056
MS.443         	13.572         	0.051
MS.444         	13.545         	0.052
MS.445         	13.517         	0.043
MS.446         	13.49          	0.051
MS.447         	13.462         	0.06
MS.448         	13.438         	0.052
MS.449         	13.41          	0.057
MS.450         	13.382         	0.05
MS.451         	13.355         	0.051
MS.452         	13.33          	0.046
MS.453         	13.302         	0.05
MS.454         	13.278         	0.042
MS.455         	13.25          	0.044
MS.456         	13.222         	0.044
MS.457         	13.197         	0.044
MS.458         	13.17          	0.039
MS.459         	13.145         	0.037
MS.460         	13.117         	0.038
MS.461         	13.092         	0.05
MS.462         	13.065         	0.044
MS.463         	13.04          	0.042
MS.464         	13.012         	0.045
MS.465         	12.987         	0.043
MS.466         	12.962         	0.051
MS.467         	12.935         	0.039
MS.468         	12.91          	0.04
MS.469         	12.885         	0.042
MS.470         	12.858         	0.037
MS.471         	12.832         	0.034
MS.472         	12.807         	0.042
MS.473         	12.782         	0.042
MS.474         	12.755         	0.039
MS.475         	12.73          	0.033
MS.476         	12.705         	0.038
MS.477         	12.68          	0.031
MS.478         	12.655         	0.035
MS.479         	12.63          	0.032
MS.480         	12.602         	0.034
MS.481         	12.577         	0.035
MS.482         	12.552         	0.027
MS.483         	12.528         	0.035
MS.484         	12.502         	0.039
MS.485         	12.477         	0.031
MS.486         	12.452         	0.032
MS.487         	12.427         	0.037
MS.488         	12.403         	0.033
MS.489         	12.38          	0.026
MS.490         	12.355         	0.031
MS.491         	12.33          	0.029
MS.492         	12.305         	0.031
MS.493         	12.28          	0.031
MS.494         	12.255         	0.034
MS.495         	12.23          	0.026
MS.496         	12.207         	0.032
MS.497         	12.182         	0.028
MS.498         	12.157         	0.029
MS.499         	12.132         	0.027
MS.500         	12.11          	0.029
MS.501         	12.085         	0.021
