File:              	C:\Qtrac\Data\CKMC01111D.QZD
Name:              	DK.COP.NC.7.1
Protocol:          	MSCAN-R2
Date:              	11/11/20
Start time:        	10:11:51
Age:               	73
Sex:               	M
Temperature:       	37.4
S/R sites:         	RPer FH-AT
NC/disease:        	NC
Operator:          	CK
Comments:          	CG MM repeat
M-SCAN DATA (8-1.5m)
Scanpts: 122, 132, 672, 692
Stim. (mA)     	Amp. (mV)
MS.1           	34             	6.73
MS.2           	34             	6.79
MS.3           	34             	6.774
MS.4           	34             	6.716
MS.5           	34             	6.8
MS.6           	34             	6.745
MS.7           	34             	6.754
MS.8           	34             	6.68
MS.9           	34             	6.741
MS.10          	34             	6.758
MS.11          	34             	6.738
MS.12          	34             	6.788
MS.13          	34             	6.797
MS.14          	34             	6.855
MS.15          	34             	6.826
MS.16          	34             	6.839
MS.17          	34             	6.768
MS.18          	34             	6.858
MS.19          	34             	6.776
MS.20          	34             	6.863
MS.21          	34             	6.791
MS.22          	34             	6.856
MS.23          	34             	6.862
MS.24          	33.865         	6.838
MS.25          	33.795         	6.753
MS.26          	33.73          	6.77
MS.27          	33.66          	6.78
MS.28          	33.595         	6.899
MS.29          	33.525         	6.764
MS.30          	33.46          	6.844
MS.31          	33.395         	6.845
MS.32          	33.325         	6.838
MS.33          	33.26          	6.859
MS.34          	33.195         	6.816
MS.35          	33.125         	6.868
MS.36          	33.06          	6.886
MS.37          	32.995         	6.805
MS.38          	32.93          	6.86
MS.39          	32.865         	6.844
MS.40          	32.8           	6.872
MS.41          	32.73          	6.843
MS.42          	32.665         	6.86
MS.43          	32.6           	6.858
MS.44          	32.535         	6.843
MS.45          	32.47          	6.811
MS.46          	32.405         	6.866
MS.47          	32.34          	6.912
MS.48          	32.275         	6.805
MS.49          	32.215         	6.813
MS.50          	32.15          	6.771
MS.51          	32.085         	6.793
MS.52          	32.02          	6.798
MS.53          	31.955         	6.835
MS.54          	31.89          	6.779
MS.55          	31.83          	6.791
MS.56          	31.765         	6.851
MS.57          	31.7           	6.835
MS.58          	31.64          	6.853
MS.59          	31.575         	6.825
MS.60          	31.51          	6.812
MS.61          	31.45          	6.798
MS.62          	31.385         	6.817
MS.63          	31.325         	6.861
MS.64          	31.26          	6.808
MS.65          	31.2           	6.805
MS.66          	31.135         	6.793
MS.67          	31.075         	6.81
MS.68          	31.01          	6.805
MS.69          	30.95          	6.86
MS.70          	30.89          	6.859
MS.71          	30.825         	6.84
MS.72          	30.765         	6.793
MS.73          	30.705         	6.856
MS.74          	30.64          	6.861
MS.75          	30.58          	6.804
MS.76          	30.52          	6.786
MS.77          	30.46          	6.849
MS.78          	30.395         	6.826
MS.79          	30.335         	6.804
MS.80          	30.275         	6.76
MS.81          	30.215         	6.798
MS.82          	30.155         	6.774
MS.83          	30.095         	6.801
MS.84          	30.035         	6.787
MS.85          	29.975         	6.775
MS.86          	29.915         	6.827
MS.87          	29.855         	6.841
MS.88          	29.795         	6.754
MS.89          	29.735         	6.818
MS.90          	29.675         	6.802
MS.91          	29.615         	6.815
MS.92          	29.56          	6.766
MS.93          	29.5           	6.777
MS.94          	29.44          	6.803
MS.95          	29.38          	6.769
MS.96          	29.325         	6.793
MS.97          	29.265         	6.73
MS.98          	29.205         	6.799
MS.99          	29.145         	6.813
MS.100         	29.09          	6.816
MS.101         	29.03          	6.799
MS.102         	28.975         	6.782
MS.103         	28.915         	6.82
MS.104         	28.855         	6.784
MS.105         	28.8           	6.805
MS.106         	28.74          	6.799
MS.107         	28.685         	6.821
MS.108         	28.625         	6.821
MS.109         	28.57          	6.836
MS.110         	28.515         	6.754
MS.111         	28.455         	6.805
MS.112         	28.4           	6.794
MS.113         	28.34          	6.802
MS.114         	28.285         	6.801
MS.115         	28.23          	6.814
MS.116         	28.175         	6.828
MS.117         	28.115         	6.794
MS.118         	28.06          	6.797
MS.119         	28.005         	6.797
MS.120         	27.95          	6.788
MS.121         	27.89          	6.809
MS.122         	27.835         	6.78
MS.123         	27.78          	6.786
MS.124         	27.725         	6.843
MS.125         	27.67          	6.783
MS.126         	27.615         	6.794
MS.127         	27.56          	6.804
MS.128         	27.505         	6.772
MS.129         	27.45          	6.802
MS.130         	27.395         	6.819
MS.131         	27.34          	6.81
MS.132         	27.285         	6.834
MS.133         	27.23          	6.821
MS.134         	27.175         	6.829
MS.135         	27.12          	6.77
MS.136         	27.07          	6.775
MS.137         	27.015         	6.766
MS.138         	26.96          	6.823
MS.139         	26.905         	6.78
MS.140         	26.85          	6.814
MS.141         	26.8           	6.808
MS.142         	26.745         	6.804
MS.143         	26.69          	6.79
MS.144         	26.64          	6.815
MS.145         	26.585         	6.766
MS.146         	26.53          	6.813
MS.147         	26.48          	6.81
MS.148         	26.425         	6.798
MS.149         	26.375         	6.788
MS.150         	26.32          	6.777
MS.151         	26.27          	6.813
MS.152         	26.215         	6.797
MS.153         	26.165         	6.832
MS.154         	26.11          	6.797
MS.155         	26.06          	6.794
MS.156         	26.005         	6.793
MS.157         	25.955         	6.799
MS.158         	25.905         	6.845
MS.159         	25.85          	6.848
MS.160         	25.8           	6.797
MS.161         	25.75          	6.83
MS.162         	25.695         	6.754
MS.163         	25.645         	6.721
MS.164         	25.595         	6.699
MS.165         	25.545         	6.821
MS.166         	25.49          	6.742
MS.167         	25.44          	6.777
MS.168         	25.39          	6.679
MS.169         	25.34          	6.774
MS.170         	25.29          	6.677
MS.171         	25.24          	6.692
MS.172         	25.19          	6.772
MS.173         	25.135         	6.754
MS.174         	25.085         	6.589
MS.175         	25.035         	6.777
MS.176         	24.985         	6.779
MS.177         	24.935         	6.734
MS.178         	24.885         	6.688
MS.179         	24.84          	6.738
MS.180         	24.79          	6.546
MS.181         	24.74          	6.684
MS.182         	24.69          	6.668
MS.183         	24.64          	6.667
MS.184         	24.59          	6.699
MS.185         	24.54          	6.678
MS.186         	24.49          	6.689
MS.187         	24.445         	6.703
MS.188         	24.395         	6.511
MS.189         	24.345         	6.584
MS.190         	24.295         	6.595
MS.191         	24.25          	6.555
MS.192         	24.2           	6.666
MS.193         	24.15          	6.583
MS.194         	24.105         	6.552
MS.195         	24.055         	6.531
MS.196         	24.005         	6.506
MS.197         	23.96          	6.481
MS.198         	23.91          	6.433
MS.199         	23.865         	6.498
MS.200         	23.815         	6.443
MS.201         	23.77          	6.503
MS.202         	23.72          	6.43
MS.203         	23.675         	6.473
MS.204         	23.625         	6.359
MS.205         	23.58          	6.514
MS.206         	23.53          	6.458
MS.207         	23.485         	6.415
MS.208         	23.44          	6.307
MS.209         	23.39          	6.528
MS.210         	23.345         	6.394
MS.211         	23.3           	6.534
MS.212         	23.25          	6.466
MS.213         	23.205         	6.411
MS.214         	23.16          	6.343
MS.215         	23.11          	6.266
MS.216         	23.065         	6.24
MS.217         	23.02          	6.128
MS.218         	22.975         	6.292
MS.219         	22.93          	6.19
MS.220         	22.88          	6.088
MS.221         	22.835         	6.214
MS.222         	22.79          	6.164
MS.223         	22.745         	6.222
MS.224         	22.7           	6.23
MS.225         	22.655         	6.132
MS.226         	22.61          	6.221
MS.227         	22.565         	6.013
MS.228         	22.52          	5.912
MS.229         	22.475         	6.066
MS.230         	22.43          	5.878
MS.231         	22.385         	5.926
MS.232         	22.34          	5.958
MS.233         	22.295         	5.897
MS.234         	22.25          	5.939
MS.235         	22.205         	5.828
MS.236         	22.16          	5.688
MS.237         	22.115         	5.729
MS.238         	22.075         	5.67
MS.239         	22.03          	5.699
MS.240         	21.985         	5.864
MS.241         	21.94          	5.829
MS.242         	21.895         	5.806
MS.243         	21.855         	5.549
MS.244         	21.81          	5.552
MS.245         	21.765         	5.663
MS.246         	21.725         	5.51
MS.247         	21.68          	5.493
MS.248         	21.635         	5.244
MS.249         	21.595         	5.488
MS.250         	21.55          	5.538
MS.251         	21.505         	5.4
MS.252         	21.465         	5.21
MS.253         	21.42          	5.223
MS.254         	21.38          	5.385
MS.255         	21.335         	5.308
MS.256         	21.295         	5.192
MS.257         	21.25          	5.141
MS.258         	21.21          	5.146
MS.259         	21.165         	5.176
MS.260         	21.125         	5.175
MS.261         	21.08          	5.043
MS.262         	21.04          	5.066
MS.263         	20.995         	5.052
MS.264         	20.955         	4.993
MS.265         	20.915         	5.006
MS.266         	20.87          	4.949
MS.267         	20.83          	5.022
MS.268         	20.79          	5.058
MS.269         	20.745         	5.003
MS.270         	20.705         	4.794
MS.271         	20.665         	4.905
MS.272         	20.62          	4.724
MS.273         	20.58          	4.775
MS.274         	20.54          	4.748
MS.275         	20.5           	4.808
MS.276         	20.46          	4.677
MS.277         	20.415         	4.636
MS.278         	20.375         	4.429
MS.279         	20.335         	4.867
MS.280         	20.295         	4.487
MS.281         	20.255         	4.606
MS.282         	20.215         	4.525
MS.283         	20.175         	4.425
MS.284         	20.135         	4.658
MS.285         	20.095         	4.312
MS.286         	20.055         	4.463
MS.287         	20.01          	4.354
MS.288         	19.975         	4.489
MS.289         	19.935         	4.438
MS.290         	19.895         	4.268
MS.291         	19.855         	4.221
MS.292         	19.815         	4.135
MS.293         	19.775         	4.199
MS.294         	19.735         	4.324
MS.295         	19.695         	4.186
MS.296         	19.655         	4.146
MS.297         	19.615         	4.152
MS.298         	19.575         	4.062
MS.299         	19.54          	4.053
MS.300         	19.5           	4.109
MS.301         	19.46          	3.974
MS.302         	19.42          	3.945
MS.303         	19.38          	4.055
MS.304         	19.345         	3.994
MS.305         	19.305         	3.987
MS.306         	19.265         	4.054
MS.307         	19.23          	4.037
MS.308         	19.19          	3.684
MS.309         	19.15          	3.788
MS.310         	19.115         	3.675
MS.311         	19.075         	3.812
MS.312         	19.035         	3.776
MS.313         	19             	3.704
MS.314         	18.96          	3.563
MS.315         	18.925         	3.72
MS.316         	18.885         	3.455
MS.317         	18.845         	3.537
MS.318         	18.81          	3.438
MS.319         	18.77          	3.475
MS.320         	18.735         	3.397
MS.321         	18.695         	3.4
MS.322         	18.66          	3.406
MS.323         	18.62          	3.34
MS.324         	18.585         	3.43
MS.325         	18.55          	3.276
MS.326         	18.51          	3.414
MS.327         	18.475         	3.273
MS.328         	18.435         	3.174
MS.329         	18.4           	3.167
MS.330         	18.365         	3.059
MS.331         	18.325         	3.055
MS.332         	18.29          	2.998
MS.333         	18.255         	3.154
MS.334         	18.215         	3.052
MS.335         	18.18          	2.936
MS.336         	18.145         	3.046
MS.337         	18.11          	2.979
MS.338         	18.07          	2.803
MS.339         	18.035         	2.796
MS.340         	18             	2.606
MS.341         	17.965         	2.69
MS.342         	17.93          	2.778
MS.343         	17.89          	2.637
MS.344         	17.855         	2.715
MS.345         	17.82          	2.637
MS.346         	17.785         	2.66
MS.347         	17.75          	2.539
MS.348         	17.715         	2.485
MS.349         	17.68          	2.568
MS.350         	17.645         	2.585
MS.351         	17.61          	2.453
MS.352         	17.575         	2.454
MS.353         	17.54          	2.587
MS.354         	17.505         	2.485
MS.355         	17.47          	2.449
MS.356         	17.435         	2.434
MS.357         	17.4           	2.352
MS.358         	17.365         	2.415
MS.359         	17.33          	2.354
MS.360         	17.295         	2.213
MS.361         	17.26          	2.312
MS.362         	17.225         	2.363
MS.363         	17.19          	2.272
MS.364         	17.155         	2.224
MS.365         	17.12          	2.226
MS.366         	17.09          	2.2
MS.367         	17.055         	2.113
MS.368         	17.02          	2.12
MS.369         	16.985         	2.142
MS.370         	16.95          	2.269
MS.371         	16.92          	2.148
MS.372         	16.885         	2.026
MS.373         	16.85          	2.015
MS.374         	16.815         	2.066
MS.375         	16.785         	1.899
MS.376         	16.75          	1.946
MS.377         	16.715         	2.063
MS.378         	16.68          	1.938
MS.379         	16.65          	1.948
MS.380         	16.615         	1.897
MS.381         	16.585         	1.86
MS.382         	16.55          	1.939
MS.383         	16.515         	1.808
MS.384         	16.485         	1.86
MS.385         	16.45          	1.89
MS.386         	16.42          	1.743
MS.387         	16.385         	1.76
MS.388         	16.35          	1.697
MS.389         	16.32          	1.833
MS.390         	16.285         	1.575
MS.391         	16.255         	1.688
MS.392         	16.22          	1.626
MS.393         	16.19          	1.584
MS.394         	16.155         	1.613
MS.395         	16.125         	1.601
MS.396         	16.095         	1.577
MS.397         	16.06          	1.492
MS.398         	16.03          	1.399
MS.399         	15.995         	1.516
MS.400         	15.965         	1.357
MS.401         	15.93          	1.326
MS.402         	15.9           	1.324
MS.403         	15.87          	1.345
MS.404         	15.835         	1.315
MS.405         	15.805         	1.337
MS.406         	15.775         	1.249
MS.407         	15.74          	1.2
MS.408         	15.71          	1.28
MS.409         	15.68          	1.268
MS.410         	15.65          	1.166
MS.411         	15.615         	1.237
MS.412         	15.585         	1.212
MS.413         	15.555         	1.159
MS.414         	15.525         	1.022
MS.415         	15.495         	1.108
MS.416         	15.46          	1.076
MS.417         	15.43          	1.293
MS.418         	15.4           	1.11
MS.419         	15.37          	1.139
MS.420         	15.34          	1.14
MS.421         	15.31          	1.102
MS.422         	15.275         	1.082
MS.423         	15.245         	1.047
MS.424         	15.215         	0.974
MS.425         	15.185         	1.074
MS.426         	15.155         	1.06
MS.427         	15.125         	0.928
MS.428         	15.095         	1.01
MS.429         	15.065         	1.049
MS.430         	15.035         	0.901
MS.431         	15.005         	0.941
MS.432         	14.975         	0.901
MS.433         	14.945         	1.03
MS.434         	14.915         	0.937
MS.435         	14.885         	0.988
MS.436         	14.855         	0.806
MS.437         	14.825         	0.848
MS.438         	14.795         	0.821
MS.439         	14.765         	0.862
MS.440         	14.735         	0.909
MS.441         	14.705         	0.886
MS.442         	14.68          	0.938
MS.443         	14.65          	0.885
MS.444         	14.62          	0.799
MS.445         	14.59          	0.801
MS.446         	14.56          	0.865
MS.447         	14.53          	0.799
MS.448         	14.505         	0.852
MS.449         	14.475         	0.822
MS.450         	14.445         	0.825
MS.451         	14.415         	0.83
MS.452         	14.385         	0.848
MS.453         	14.36          	0.74
MS.454         	14.33          	0.809
MS.455         	14.3           	0.787
MS.456         	14.275         	0.807
MS.457         	14.245         	0.723
MS.458         	14.215         	0.8
MS.459         	14.185         	0.79
MS.460         	14.16          	0.79
MS.461         	14.13          	0.726
MS.462         	14.105         	0.715
MS.463         	14.075         	0.776
MS.464         	14.045         	0.78
MS.465         	14.02          	0.734
MS.466         	13.99          	0.68
MS.467         	13.96          	0.762
MS.468         	13.935         	0.696
MS.469         	13.905         	0.73
MS.470         	13.88          	0.727
MS.471         	13.85          	0.718
MS.472         	13.825         	0.67
MS.473         	13.795         	0.71
MS.474         	13.77          	0.703
MS.475         	13.74          	0.59
MS.476         	13.715         	0.682
MS.477         	13.685         	0.659
MS.478         	13.66          	0.676
MS.479         	13.63          	0.529
MS.480         	13.605         	0.503
MS.481         	13.575         	0.613
MS.482         	13.55          	0.582
MS.483         	13.525         	0.551
MS.484         	13.495         	0.494
MS.485         	13.47          	0.628
MS.486         	13.44          	0.474
MS.487         	13.415         	0.487
MS.488         	13.39          	0.485
MS.489         	13.36          	0.496
MS.490         	13.335         	0.499
MS.491         	13.31          	0.457
MS.492         	13.28          	0.489
MS.493         	13.255         	0.463
MS.494         	13.23          	0.515
MS.495         	13.2           	0.459
MS.496         	13.175         	0.439
MS.497         	13.15          	0.443
MS.498         	13.125         	0.405
MS.499         	13.095         	0.43
MS.500         	13.07          	0.42
MS.501         	13.045         	0.427
MS.502         	13.02          	0.385
MS.503         	12.99          	0.379
