File:              	C:\Qtrac\Data\CKMC01111H.QZD
Name:              	DK.COP.NC.8.1
Protocol:          	MSCAN-R2
Date:              	11/11/20
Start time:        	12:12:57
Age:               	65
Sex:               	F
Temperature:       	37.6
S/R sites:         	RPer FH-AT
NC/disease:        	NC
Operator:          	CK
Comments:          	CG
M-SCAN DATA (7.6-1.4m)
Scanpts: 1, 24, 642, 661
Stim. (mA)     	Amp. (mV)
MS.1           	34             	4.45
MS.2           	34             	4.442
MS.3           	34             	4.435
MS.4           	34             	4.426
MS.5           	34             	4.458
MS.6           	34             	4.425
MS.7           	34             	4.429
MS.8           	34             	4.441
MS.9           	34             	4.449
MS.10          	34             	4.441
MS.11          	34             	4.456
MS.12          	34             	4.438
MS.13          	34             	4.439
MS.14          	34             	4.456
MS.15          	34             	4.457
MS.16          	34             	4.452
MS.17          	34             	4.448
MS.18          	34             	4.449
MS.19          	34             	4.445
MS.20          	34             	4.442
MS.21          	34             	4.462
MS.22          	34             	4.459
MS.23          	34             	4.458
MS.24          	33.865         	4.458
MS.25          	33.795         	4.456
MS.26          	33.73          	4.434
MS.27          	33.66          	4.437
MS.28          	33.595         	4.445
MS.29          	33.525         	4.453
MS.30          	33.46          	4.454
MS.31          	33.395         	4.454
MS.32          	33.325         	4.465
MS.33          	33.26          	4.438
MS.34          	33.195         	4.438
MS.35          	33.125         	4.434
MS.36          	33.06          	4.451
MS.37          	32.995         	4.438
MS.38          	32.93          	4.418
MS.39          	32.865         	4.432
MS.40          	32.8           	4.438
MS.41          	32.73          	4.425
MS.42          	32.665         	4.463
MS.43          	32.6           	4.412
MS.44          	32.535         	4.42
MS.45          	32.47          	4.433
MS.46          	32.405         	4.415
MS.47          	32.34          	4.408
MS.48          	32.275         	4.424
MS.49          	32.215         	4.42
MS.50          	32.15          	4.417
MS.51          	32.085         	4.424
MS.52          	32.02          	4.394
MS.53          	31.955         	4.438
MS.54          	31.89          	4.399
MS.55          	31.83          	4.417
MS.56          	31.765         	4.41
MS.57          	31.7           	4.423
MS.58          	31.64          	4.418
MS.59          	31.575         	4.39
MS.60          	31.51          	4.425
MS.61          	31.45          	4.411
MS.62          	31.385         	4.399
MS.63          	31.325         	4.403
MS.64          	31.26          	4.395
MS.65          	31.2           	4.401
MS.66          	31.135         	4.404
MS.67          	31.075         	4.42
MS.68          	31.01          	4.395
MS.69          	30.95          	4.418
MS.70          	30.89          	4.391
MS.71          	30.825         	4.398
MS.72          	30.765         	4.365
MS.73          	30.705         	4.407
MS.74          	30.64          	4.392
MS.75          	30.58          	4.348
MS.76          	30.52          	4.244
MS.77          	30.46          	4.374
MS.78          	30.395         	4.359
MS.79          	30.335         	4.367
MS.80          	30.275         	4.37
MS.81          	30.215         	4.23
MS.82          	30.155         	4.377
MS.83          	30.095         	4.247
MS.84          	30.035         	4.249
MS.85          	29.975         	4.248
MS.86          	29.915         	4.24
MS.87          	29.855         	4.232
MS.88          	29.795         	4.246
MS.89          	29.735         	4.37
MS.90          	29.675         	4.233
MS.91          	29.615         	4.219
MS.92          	29.56          	4.23
MS.93          	29.5           	4.224
MS.94          	29.44          	4.172
MS.95          	29.38          	4.225
MS.96          	29.325         	4.211
MS.97          	29.265         	4.207
MS.98          	29.205         	4.186
MS.99          	29.145         	4.199
MS.100         	29.09          	4.18
MS.101         	29.03          	4.161
MS.102         	28.975         	4.222
MS.103         	28.915         	4.164
MS.104         	28.855         	4.096
MS.105         	28.8           	4.165
MS.106         	28.74          	4.119
MS.107         	28.685         	4.12
MS.108         	28.625         	4.113
MS.109         	28.57          	4.08
MS.110         	28.515         	4.127
MS.111         	28.455         	4.112
MS.112         	28.4           	4.052
MS.113         	28.34          	4.037
MS.114         	28.285         	4.039
MS.115         	28.23          	4.059
MS.116         	28.175         	4.045
MS.117         	28.115         	4.088
MS.118         	28.06          	4.031
MS.119         	28.005         	4.042
MS.120         	27.95          	4.037
MS.121         	27.89          	4.024
MS.122         	27.835         	4.01
MS.123         	27.78          	4.016
MS.124         	27.725         	4.016
MS.125         	27.67          	4.007
MS.126         	27.615         	4.014
MS.127         	27.56          	4.003
MS.128         	27.505         	3.983
MS.129         	27.45          	3.942
MS.130         	27.395         	3.99
MS.131         	27.34          	3.947
MS.132         	27.285         	3.972
MS.133         	27.23          	3.952
MS.134         	27.175         	3.967
MS.135         	27.12          	3.916
MS.136         	27.07          	3.937
MS.137         	27.015         	3.892
MS.138         	26.96          	3.93
MS.139         	26.905         	3.922
MS.140         	26.85          	3.911
MS.141         	26.8           	3.928
MS.142         	26.745         	3.866
MS.143         	26.69          	3.878
MS.144         	26.64          	3.866
MS.145         	26.585         	3.824
MS.146         	26.53          	3.885
MS.147         	26.48          	3.82
MS.148         	26.425         	3.815
MS.149         	26.375         	3.7
MS.150         	26.32          	3.694
MS.151         	26.27          	3.732
MS.152         	26.215         	3.713
MS.153         	26.165         	3.765
MS.154         	26.11          	3.704
MS.155         	26.06          	3.65
MS.156         	26.005         	3.664
MS.157         	25.955         	3.672
MS.158         	25.905         	3.612
MS.159         	25.85          	3.687
MS.160         	25.8           	3.613
MS.161         	25.75          	3.633
MS.162         	25.695         	3.58
MS.163         	25.645         	3.566
MS.164         	25.595         	3.538
MS.165         	25.545         	3.566
MS.166         	25.49          	3.548
MS.167         	25.44          	3.538
MS.168         	25.39          	3.528
MS.169         	25.34          	3.391
MS.170         	25.29          	3.467
MS.171         	25.24          	3.492
MS.172         	25.19          	3.354
MS.173         	25.135         	3.392
MS.174         	25.085         	3.448
MS.175         	25.035         	3.439
MS.176         	24.985         	3.383
MS.177         	24.935         	3.385
MS.178         	24.885         	3.395
MS.179         	24.84          	3.344
MS.180         	24.79          	3.337
MS.181         	24.74          	3.327
MS.182         	24.69          	3.394
MS.183         	24.64          	3.318
MS.184         	24.59          	3.326
MS.185         	24.54          	3.361
MS.186         	24.49          	3.232
MS.187         	24.445         	3.204
MS.188         	24.395         	3.254
MS.189         	24.345         	3.235
MS.190         	24.295         	3.147
MS.191         	24.25          	3.168
MS.192         	24.2           	3.213
MS.193         	24.15          	3.231
MS.194         	24.105         	3.146
MS.195         	24.055         	3.221
MS.196         	24.005         	3.189
MS.197         	23.96          	3.098
MS.198         	23.91          	3.099
MS.199         	23.865         	3.046
MS.200         	23.815         	3.069
MS.201         	23.77          	3.14
MS.202         	23.72          	3.319
MS.203         	23.675         	3.222
MS.204         	23.625         	3.244
MS.205         	23.58          	3.25
MS.206         	23.53          	3.175
MS.207         	23.485         	3.077
MS.208         	23.44          	3.04
MS.209         	23.39          	3.041
MS.210         	23.345         	2.935
MS.211         	23.3           	2.967
MS.212         	23.25          	2.946
MS.213         	23.205         	2.99
MS.214         	23.16          	2.983
MS.215         	23.11          	2.935
MS.216         	23.065         	2.854
MS.217         	23.02          	2.872
MS.218         	22.975         	2.708
MS.219         	22.93          	2.747
MS.220         	22.88          	2.737
MS.221         	22.835         	2.831
MS.222         	22.79          	2.787
MS.223         	22.745         	2.787
MS.224         	22.7           	2.606
MS.225         	22.655         	2.577
MS.226         	22.61          	2.624
MS.227         	22.565         	2.648
MS.228         	22.52          	2.607
MS.229         	22.475         	2.494
MS.230         	22.43          	2.504
MS.231         	22.385         	2.463
MS.232         	22.34          	2.339
MS.233         	22.295         	2.358
MS.234         	22.25          	2.402
MS.235         	22.205         	2.204
MS.236         	22.16          	2.333
MS.237         	22.115         	2.244
MS.238         	22.075         	2.207
MS.239         	22.03          	2.16
MS.240         	21.985         	2.176
MS.241         	21.94          	2.286
MS.242         	21.895         	2.111
MS.243         	21.855         	2.113
MS.244         	21.81          	2.242
MS.245         	21.765         	2.05
MS.246         	21.725         	2.026
MS.247         	21.68          	2.018
MS.248         	21.635         	1.951
MS.249         	21.595         	1.991
MS.250         	21.55          	1.957
MS.251         	21.505         	2.078
MS.252         	21.465         	1.911
MS.253         	21.42          	1.938
MS.254         	21.38          	1.902
MS.255         	21.335         	1.902
MS.256         	21.295         	1.943
MS.257         	21.25          	1.876
MS.258         	21.21          	1.902
MS.259         	21.165         	1.841
MS.260         	21.125         	1.904
MS.261         	21.08          	1.873
MS.262         	21.04          	1.827
MS.263         	20.995         	1.724
MS.264         	20.955         	1.796
MS.265         	20.915         	1.767
MS.266         	20.87          	1.765
MS.267         	20.83          	1.746
MS.268         	20.79          	1.705
MS.269         	20.745         	1.636
MS.270         	20.705         	1.723
MS.271         	20.665         	1.676
MS.272         	20.62          	1.603
MS.273         	20.58          	1.629
MS.274         	20.54          	1.571
MS.275         	20.5           	1.623
MS.276         	20.46          	1.515
MS.277         	20.415         	1.533
MS.278         	20.375         	1.519
MS.279         	20.335         	1.498
MS.280         	20.295         	1.509
MS.281         	20.255         	1.479
MS.282         	20.215         	1.474
MS.283         	20.175         	1.401
MS.284         	20.135         	1.484
MS.285         	20.095         	1.449
MS.286         	20.055         	1.352
MS.287         	20.01          	1.375
MS.288         	19.975         	1.448
MS.289         	19.935         	1.369
MS.290         	19.895         	1.363
MS.291         	19.855         	1.371
MS.292         	19.815         	1.333
MS.293         	19.775         	1.324
MS.294         	19.735         	1.308
MS.295         	19.695         	1.316
MS.296         	19.655         	1.286
MS.297         	19.615         	1.21
MS.298         	19.575         	1.285
MS.299         	19.54          	1.238
MS.300         	19.5           	1.151
MS.301         	19.46          	1.212
MS.302         	19.42          	1.252
MS.303         	19.38          	1.23
MS.304         	19.345         	1.218
MS.305         	19.305         	1.16
MS.306         	19.265         	1.108
MS.307         	19.23          	1.048
MS.308         	19.19          	1.028
MS.309         	19.15          	0.992
MS.310         	19.115         	1.094
MS.311         	19.075         	1.009
MS.312         	19.035         	1.005
MS.313         	19             	1.074
MS.314         	18.96          	1.048
MS.315         	18.925         	1.061
MS.316         	18.885         	0.966
MS.317         	18.845         	0.919
MS.318         	18.81          	0.901
MS.319         	18.77          	0.924
MS.320         	18.735         	0.952
MS.321         	18.695         	0.889
MS.322         	18.66          	0.906
MS.323         	18.62          	1.025
MS.324         	18.585         	0.876
MS.325         	18.55          	0.902
MS.326         	18.51          	0.899
MS.327         	18.475         	0.859
MS.328         	18.435         	0.814
MS.329         	18.4           	0.814
MS.330         	18.365         	0.857
MS.331         	18.325         	0.817
MS.332         	18.29          	0.789
MS.333         	18.255         	0.75
MS.334         	18.215         	0.808
MS.335         	18.18          	0.816
MS.336         	18.145         	0.72
MS.337         	18.11          	0.754
MS.338         	18.07          	0.757
MS.339         	18.035         	0.767
MS.340         	18             	0.622
MS.341         	17.965         	0.74
MS.342         	17.93          	0.745
MS.343         	17.89          	0.745
MS.344         	17.855         	0.704
MS.345         	17.82          	0.673
MS.346         	17.785         	0.671
MS.347         	17.75          	0.706
MS.348         	17.715         	0.699
MS.349         	17.68          	0.68
MS.350         	17.645         	0.671
MS.351         	17.61          	0.662
MS.352         	17.575         	0.621
MS.353         	17.54          	0.662
MS.354         	17.505         	0.628
MS.355         	17.47          	0.52
MS.356         	17.435         	0.547
MS.357         	17.4           	0.663
MS.358         	17.365         	0.652
MS.359         	17.33          	0.532
MS.360         	17.295         	0.539
MS.361         	17.26          	0.531
MS.362         	17.225         	0.532
MS.363         	17.19          	0.515
MS.364         	17.155         	0.596
MS.365         	17.12          	0.518
MS.366         	17.09          	0.474
MS.367         	17.055         	0.46
MS.368         	17.02          	0.46
MS.369         	16.985         	0.444
MS.370         	16.95          	0.468
MS.371         	16.92          	0.461
MS.372         	16.885         	0.457
MS.373         	16.85          	0.461
MS.374         	16.815         	0.449
MS.375         	16.785         	0.452
MS.376         	16.75          	0.43
MS.377         	16.715         	0.441
MS.378         	16.68          	0.44
MS.379         	16.65          	0.445
MS.380         	16.615         	0.413
MS.381         	16.585         	0.417
MS.382         	16.55          	0.413
MS.383         	16.515         	0.409
MS.384         	16.485         	0.397
MS.385         	16.45          	0.413
MS.386         	16.42          	0.407
MS.387         	16.385         	0.417
MS.388         	16.35          	0.394
MS.389         	16.32          	0.395
MS.390         	16.285         	0.388
MS.391         	16.255         	0.38
MS.392         	16.22          	0.384
MS.393         	16.19          	0.37
MS.394         	16.155         	0.383
MS.395         	16.125         	0.372
MS.396         	16.095         	0.368
MS.397         	16.06          	0.381
MS.398         	16.03          	0.355
MS.399         	15.995         	0.364
MS.400         	15.965         	0.353
MS.401         	15.93          	0.352
MS.402         	15.9           	0.328
MS.403         	15.87          	0.32
MS.404         	15.835         	0.336
MS.405         	15.805         	0.354
MS.406         	15.775         	0.336
MS.407         	15.74          	0.34
MS.408         	15.71          	0.325
MS.409         	15.68          	0.341
MS.410         	15.65          	0.312
MS.411         	15.615         	0.307
MS.412         	15.585         	0.284
MS.413         	15.555         	0.319
MS.414         	15.525         	0.283
MS.415         	15.495         	0.311
MS.416         	15.46          	0.287
MS.417         	15.43          	0.261
MS.418         	15.4           	0.264
MS.419         	15.37          	0.26
MS.420         	15.34          	0.278
MS.421         	15.31          	0.277
MS.422         	15.275         	0.286
MS.423         	15.245         	0.297
MS.424         	15.215         	0.272
MS.425         	15.185         	0.298
MS.426         	15.155         	0.272
MS.427         	15.125         	0.237
MS.428         	15.095         	0.294
MS.429         	15.065         	0.272
MS.430         	15.035         	0.24
MS.431         	15.005         	0.25
MS.432         	14.975         	0.252
MS.433         	14.945         	0.233
MS.434         	14.915         	0.222
MS.435         	14.885         	0.222
MS.436         	14.855         	0.226
MS.437         	14.825         	0.204
MS.438         	14.795         	0.233
MS.439         	14.765         	0.249
MS.440         	14.735         	0.197
MS.441         	14.705         	0.214
MS.442         	14.68          	0.2
MS.443         	14.65          	0.219
MS.444         	14.62          	0.196
MS.445         	14.59          	0.207
MS.446         	14.56          	0.203
MS.447         	14.53          	0.186
MS.448         	14.505         	0.22
MS.449         	14.475         	0.192
MS.450         	14.445         	0.201
MS.451         	14.415         	0.202
MS.452         	14.385         	0.208
MS.453         	14.36          	0.19
MS.454         	14.33          	0.182
MS.455         	14.3           	0.206
MS.456         	14.275         	0.17
MS.457         	14.245         	0.136
MS.458         	14.215         	0.198
MS.459         	14.185         	0.17
MS.460         	14.16          	0.167
MS.461         	14.13          	0.165
MS.462         	14.105         	0.168
MS.463         	14.075         	0.148
MS.464         	14.045         	0.156
MS.465         	14.02          	0.167
MS.466         	13.99          	0.137
MS.467         	13.96          	0.11
MS.468         	13.935         	0.153
MS.469         	13.905         	0.153
MS.470         	13.88          	0.142
MS.471         	13.85          	0.129
MS.472         	13.825         	0.165
MS.473         	13.795         	0.111
MS.474         	13.77          	0.154
MS.475         	13.74          	0.153
MS.476         	13.715         	0.107
MS.477         	13.685         	0.104
MS.478         	13.66          	0.114
MS.479         	13.63          	0.1
MS.480         	13.605         	0.121
MS.481         	13.575         	0.101
MS.482         	13.55          	0.144
MS.483         	13.525         	0.118
MS.484         	13.495         	0.108
MS.485         	13.47          	0.106
MS.486         	13.44          	0.093
MS.487         	13.415         	0.09
MS.488         	13.39          	0.117
MS.489         	13.36          	0.097
MS.490         	13.335         	0.106
MS.491         	13.31          	0.096
MS.492         	13.28          	0.097
MS.493         	13.255         	0.091
MS.494         	13.23          	0.092
MS.495         	13.2           	0.084
MS.496         	13.175         	0.088
MS.497         	13.15          	0.058
MS.498         	13.125         	0.065
MS.499         	13.095         	0.094
MS.500         	13.07          	0.069
MS.501         	13.045         	0.074
MS.502         	13.02          	0.092
MS.503         	12.99          	0.068
