File:              	C:\Qtrac\Data\CKMC01028F.QZD
Name:              	DK.COP.NC.6.1
Protocol:          	MSCAN-R2
Date:              	28/10/20
Start time:        	11:03:34
Age:               	43
Sex:               	F
Temperature:       	38.4
S/R sites:         	RPer FH-AT
NC/disease:        	NC
Operator:          	CK
Comments:          	CG
RECOVERY CYCLE DATA (0.0-0.0m)
Interval (ms)       	  Threshold change (%)
M-SCAN DATA (6-1.1m)
Scanpts: 32, 43, 523, 542
Stim. (mA)     	Amp. (mV)
MS.1           	29             	3.505
MS.2           	29             	3.505
MS.3           	29             	3.508
MS.4           	29             	3.488
MS.5           	29             	3.492
MS.6           	29             	3.494
MS.7           	29             	3.492
MS.8           	29             	3.496
MS.9           	29             	3.498
MS.10          	29             	3.503
MS.11          	29             	3.518
MS.12          	29             	3.512
MS.13          	29             	3.505
MS.14          	29             	3.509
MS.15          	29             	3.508
MS.16          	29             	3.505
MS.17          	29             	3.502
MS.18          	29             	3.513
MS.19          	29             	3.523
MS.20          	29             	3.514
MS.21          	29             	3.515
MS.22          	29             	3.516
MS.23          	29             	3.531
MS.24          	28.885         	3.534
MS.25          	28.825         	3.525
MS.26          	28.77          	3.513
MS.27          	28.71          	3.522
MS.28          	28.655         	3.533
MS.29          	28.595         	3.522
MS.30          	28.54          	3.531
MS.31          	28.485         	3.541
MS.32          	28.425         	3.526
MS.33          	28.37          	3.539
MS.34          	28.31          	3.531
MS.35          	28.255         	3.539
MS.36          	28.2           	3.544
MS.37          	28.145         	3.538
MS.38          	28.085         	3.549
MS.39          	28.03          	3.545
MS.40          	27.975         	3.535
MS.41          	27.92          	3.542
MS.42          	27.865         	3.545
MS.43          	27.805         	3.544
MS.44          	27.75          	3.546
MS.45          	27.695         	3.541
MS.46          	27.64          	3.541
MS.47          	27.585         	3.535
MS.48          	27.53          	3.533
MS.49          	27.475         	3.545
MS.50          	27.42          	3.538
MS.51          	27.365         	3.53
MS.52          	27.31          	3.475
MS.53          	27.255         	3.538
MS.54          	27.2           	3.473
MS.55          	27.15          	3.541
MS.56          	27.095         	3.544
MS.57          	27.04          	3.55
MS.58          	26.985         	3.474
MS.59          	26.93          	3.477
MS.60          	26.88          	3.56
MS.61          	26.825         	3.479
MS.62          	26.77          	3.552
MS.63          	26.715         	3.544
MS.64          	26.665         	3.472
MS.65          	26.61          	3.47
MS.66          	26.555         	3.469
MS.67          	26.505         	3.483
MS.68          	26.45          	3.549
MS.69          	26.4           	3.47
MS.70          	26.345         	3.487
MS.71          	26.295         	3.469
MS.72          	26.24          	3.481
MS.73          	26.19          	3.476
MS.74          	26.135         	3.47
MS.75          	26.085         	3.472
MS.76          	26.03          	3.48
MS.77          	25.98          	3.478
MS.78          	25.925         	3.48
MS.79          	25.875         	3.478
MS.80          	25.825         	3.488
MS.81          	25.77          	3.56
MS.82          	25.72          	3.484
MS.83          	25.67          	3.486
MS.84          	25.62          	3.494
MS.85          	25.565         	3.475
MS.86          	25.515         	3.491
MS.87          	25.465         	3.467
MS.88          	25.415         	3.478
MS.89          	25.365         	3.472
MS.90          	25.31          	3.477
MS.91          	25.26          	3.497
MS.92          	25.21          	3.468
MS.93          	25.16          	3.486
MS.94          	25.11          	3.487
MS.95          	25.06          	3.475
MS.96          	25.01          	3.485
MS.97          	24.96          	3.472
MS.98          	24.91          	3.483
MS.99          	24.86          	3.469
MS.100         	24.81          	3.478
MS.101         	24.76          	3.485
MS.102         	24.71          	3.477
MS.103         	24.665         	3.484
MS.104         	24.615         	3.453
MS.105         	24.565         	3.47
MS.106         	24.515         	3.469
MS.107         	24.465         	3.471
MS.108         	24.415         	3.472
MS.109         	24.37          	3.466
MS.110         	24.32          	3.459
MS.111         	24.27          	3.464
MS.112         	24.225         	3.474
MS.113         	24.175         	3.46
MS.114         	24.125         	3.458
MS.115         	24.08          	3.457
MS.116         	24.03          	3.467
MS.117         	23.98          	3.474
MS.118         	23.935         	3.478
MS.119         	23.885         	3.472
MS.120         	23.84          	3.47
MS.121         	23.79          	3.475
MS.122         	23.745         	3.454
MS.123         	23.695         	3.47
MS.124         	23.65          	3.476
MS.125         	23.6           	3.466
MS.126         	23.555         	3.471
MS.127         	23.505         	3.471
MS.128         	23.46          	3.457
MS.129         	23.415         	3.465
MS.130         	23.365         	3.445
MS.131         	23.32          	3.475
MS.132         	23.275         	3.456
MS.133         	23.225         	3.456
MS.134         	23.18          	3.464
MS.135         	23.135         	3.467
MS.136         	23.09          	3.468
MS.137         	23.04          	3.45
MS.138         	22.995         	3.466
MS.139         	22.95          	3.463
MS.140         	22.905         	3.462
MS.141         	22.86          	3.454
MS.142         	22.81          	3.458
MS.143         	22.765         	3.464
MS.144         	22.72          	3.48
MS.145         	22.675         	3.435
MS.146         	22.63          	3.444
MS.147         	22.585         	3.469
MS.148         	22.54          	3.428
MS.149         	22.495         	3.463
MS.150         	22.45          	3.446
MS.151         	22.405         	3.458
MS.152         	22.36          	3.453
MS.153         	22.315         	3.455
MS.154         	22.27          	3.436
MS.155         	22.225         	3.474
MS.156         	22.18          	3.445
MS.157         	22.14          	3.439
MS.158         	22.095         	3.456
MS.159         	22.05          	3.466
MS.160         	22.005         	3.449
MS.161         	21.96          	3.452
MS.162         	21.92          	3.434
MS.163         	21.875         	3.45
MS.164         	21.83          	3.405
MS.165         	21.785         	3.406
MS.166         	21.745         	3.396
MS.167         	21.7           	3.42
MS.168         	21.655         	3.455
MS.169         	21.615         	3.416
MS.170         	21.57          	3.398
MS.171         	21.525         	3.412
MS.172         	21.485         	3.399
MS.173         	21.44          	3.403
MS.174         	21.4           	3.392
MS.175         	21.355         	3.394
MS.176         	21.31          	3.384
MS.177         	21.27          	3.372
MS.178         	21.225         	3.35
MS.179         	21.185         	3.383
MS.180         	21.145         	3.411
MS.181         	21.1           	3.398
MS.182         	21.06          	3.354
MS.183         	21.015         	3.35
MS.184         	20.975         	3.34
MS.185         	20.93          	3.349
MS.186         	20.89          	3.359
MS.187         	20.85          	3.323
MS.188         	20.805         	3.305
MS.189         	20.765         	3.361
MS.190         	20.725         	3.345
MS.191         	20.685         	3.329
MS.192         	20.64          	3.24
MS.193         	20.6           	3.312
MS.194         	20.56          	3.304
MS.195         	20.52          	3.209
MS.196         	20.475         	3.284
MS.197         	20.435         	3.207
MS.198         	20.395         	3.244
MS.199         	20.355         	3.237
MS.200         	20.315         	3.3
MS.201         	20.275         	3.22
MS.202         	20.235         	3.306
MS.203         	20.19          	3.267
MS.204         	20.15          	3.223
MS.205         	20.11          	3.173
MS.206         	20.07          	3.206
MS.207         	20.03          	3.257
MS.208         	19.99          	3.196
MS.209         	19.95          	3.148
MS.210         	19.91          	3.207
MS.211         	19.87          	3.158
MS.212         	19.83          	3.185
MS.213         	19.79          	3.221
MS.214         	19.755         	3.156
MS.215         	19.715         	3.12
MS.216         	19.675         	3.135
MS.217         	19.635         	3.104
MS.218         	19.595         	3.091
MS.219         	19.555         	3.055
MS.220         	19.515         	3.058
MS.221         	19.48          	3.138
MS.222         	19.44          	3.066
MS.223         	19.4           	3.054
MS.224         	19.36          	3.082
MS.225         	19.325         	3.036
MS.226         	19.285         	3.015
MS.227         	19.245         	3.071
MS.228         	19.205         	3.056
MS.229         	19.17          	3.025
MS.230         	19.13          	3.043
MS.231         	19.09          	2.982
MS.232         	19.055         	2.982
MS.233         	19.015         	2.981
MS.234         	18.98          	2.987
MS.235         	18.94          	2.99
MS.236         	18.9           	2.979
MS.237         	18.865         	2.95
MS.238         	18.825         	2.909
MS.239         	18.79          	2.952
MS.240         	18.75          	2.96
MS.241         	18.715         	2.892
MS.242         	18.675         	2.816
MS.243         	18.64          	2.914
MS.244         	18.6           	2.781
MS.245         	18.565         	2.852
MS.246         	18.53          	2.758
MS.247         	18.49          	2.769
MS.248         	18.455         	2.818
MS.249         	18.415         	2.775
MS.250         	18.38          	2.768
MS.251         	18.345         	2.771
MS.252         	18.305         	2.714
MS.253         	18.27          	2.656
MS.254         	18.235         	2.674
MS.255         	18.2           	2.568
MS.256         	18.16          	2.635
MS.257         	18.125         	2.534
MS.258         	18.09          	2.594
MS.259         	18.055         	2.562
MS.260         	18.015         	2.541
MS.261         	17.98          	2.57
MS.262         	17.945         	2.542
MS.263         	17.91          	2.548
MS.264         	17.875         	2.546
MS.265         	17.835         	2.498
MS.266         	17.8           	2.49
MS.267         	17.765         	2.551
MS.268         	17.73          	2.509
MS.269         	17.695         	2.471
MS.270         	17.66          	2.379
MS.271         	17.625         	2.361
MS.272         	17.59          	2.394
MS.273         	17.555         	2.372
MS.274         	17.52          	2.336
MS.275         	17.485         	2.326
MS.276         	17.45          	2.256
MS.277         	17.415         	2.296
MS.278         	17.38          	2.279
MS.279         	17.345         	2.256
MS.280         	17.31          	2.249
MS.281         	17.275         	2.3
MS.282         	17.24          	2.253
MS.283         	17.205         	2.219
MS.284         	17.17          	2.217
MS.285         	17.14          	2.195
MS.286         	17.105         	2.17
MS.287         	17.07          	2.245
MS.288         	17.035         	2.186
MS.289         	17             	2.145
MS.290         	16.965         	2.162
MS.291         	16.935         	2.114
MS.292         	16.9           	2.141
MS.293         	16.865         	2.095
MS.294         	16.83          	2.093
MS.295         	16.8           	2.073
MS.296         	16.765         	2.055
MS.297         	16.73          	2.041
MS.298         	16.7           	2.019
MS.299         	16.665         	1.995
MS.300         	16.63          	2.04
MS.301         	16.6           	2.005
MS.302         	16.565         	1.985
MS.303         	16.53          	1.992
MS.304         	16.5           	1.947
MS.305         	16.465         	1.951
MS.306         	16.435         	1.881
MS.307         	16.4           	1.887
MS.308         	16.365         	1.841
MS.309         	16.335         	1.9
MS.310         	16.3           	1.732
MS.311         	16.27          	1.823
MS.312         	16.235         	1.837
MS.313         	16.205         	1.751
MS.314         	16.17          	1.762
MS.315         	16.14          	1.753
MS.316         	16.11          	1.758
MS.317         	16.075         	1.709
MS.318         	16.045         	1.561
MS.319         	16.01          	1.653
MS.320         	15.98          	1.624
MS.321         	15.945         	1.688
MS.322         	15.915         	1.595
MS.323         	15.885         	1.623
MS.324         	15.85          	1.66
MS.325         	15.82          	1.556
MS.326         	15.79          	1.53
MS.327         	15.755         	1.55
MS.328         	15.725         	1.454
MS.329         	15.695         	1.426
MS.330         	15.665         	1.476
MS.331         	15.63          	1.466
MS.332         	15.6           	1.434
MS.333         	15.57          	1.402
MS.334         	15.54          	1.445
MS.335         	15.505         	1.383
MS.336         	15.475         	1.404
MS.337         	15.445         	1.417
MS.338         	15.415         	1.351
MS.339         	15.385         	1.346
MS.340         	15.355         	1.348
MS.341         	15.32          	1.339
MS.342         	15.29          	1.338
MS.343         	15.26          	1.306
MS.344         	15.23          	1.255
MS.345         	15.2           	1.315
MS.346         	15.17          	1.288
MS.347         	15.14          	1.255
MS.348         	15.11          	1.22
MS.349         	15.08          	1.214
MS.350         	15.05          	1.26
MS.351         	15.02          	1.216
MS.352         	14.99          	1.24
MS.353         	14.96          	1.201
MS.354         	14.93          	1.211
MS.355         	14.9           	1.219
MS.356         	14.87          	1.213
MS.357         	14.84          	1.183
MS.358         	14.81          	1.171
MS.359         	14.78          	1.177
MS.360         	14.75          	1.128
MS.361         	14.72          	1.136
MS.362         	14.69          	1.104
MS.363         	14.66          	1.103
MS.364         	14.635         	1.098
MS.365         	14.605         	1.082
MS.366         	14.575         	1.053
MS.367         	14.545         	1.06
MS.368         	14.515         	1.06
MS.369         	14.49          	1.046
MS.370         	14.46          	1.046
MS.371         	14.43          	1.049
MS.372         	14.4           	1.016
MS.373         	14.37          	1.043
MS.374         	14.345         	0.985
MS.375         	14.315         	1.038
MS.376         	14.285         	0.993
MS.377         	14.26          	0.882
MS.378         	14.23          	0.984
MS.379         	14.2           	0.978
MS.380         	14.17          	0.97
MS.381         	14.145         	0.842
MS.382         	14.115         	0.912
MS.383         	14.09          	0.93
MS.384         	14.06          	0.812
MS.385         	14.03          	0.927
MS.386         	14.005         	0.778
MS.387         	13.975         	0.891
MS.388         	13.945         	0.865
MS.389         	13.92          	0.86
MS.390         	13.89          	0.894
MS.391         	13.865         	0.839
MS.392         	13.835         	0.88
MS.393         	13.81          	0.858
MS.394         	13.78          	0.857
MS.395         	13.755         	0.873
MS.396         	13.725         	0.862
MS.397         	13.7           	0.838
MS.398         	13.67          	0.822
MS.399         	13.645         	0.831
MS.400         	13.615         	0.723
MS.401         	13.59          	0.797
MS.402         	13.56          	0.702
MS.403         	13.535         	0.681
MS.404         	13.51          	0.698
MS.405         	13.48          	0.688
MS.406         	13.455         	0.751
MS.407         	13.425         	0.697
MS.408         	13.4           	0.67
MS.409         	13.375         	0.651
MS.410         	13.345         	0.607
MS.411         	13.32          	0.634
MS.412         	13.295         	0.641
MS.413         	13.265         	0.626
MS.414         	13.24          	0.577
MS.415         	13.215         	0.58
MS.416         	13.19          	0.558
MS.417         	13.16          	0.541
MS.418         	13.135         	0.53
MS.419         	13.11          	0.531
MS.420         	13.085         	0.584
MS.421         	13.055         	0.494
MS.422         	13.03          	0.493
MS.423         	13.005         	0.468
MS.424         	12.98          	0.499
MS.425         	12.955         	0.48
MS.426         	12.925         	0.487
MS.427         	12.9           	0.477
MS.428         	12.875         	0.472
MS.429         	12.85          	0.421
MS.430         	12.825         	0.447
MS.431         	12.8           	0.424
MS.432         	12.77          	0.412
MS.433         	12.745         	0.392
MS.434         	12.72          	0.413
MS.435         	12.695         	0.392
MS.436         	12.67          	0.388
MS.437         	12.645         	0.393
MS.438         	12.62          	0.342
MS.439         	12.595         	0.385
MS.440         	12.57          	0.33
MS.441         	12.545         	0.337
MS.442         	12.52          	0.325
MS.443         	12.495         	0.323
MS.444         	12.47          	0.309
MS.445         	12.445         	0.314
MS.446         	12.42          	0.275
MS.447         	12.395         	0.303
MS.448         	12.37          	0.293
MS.449         	12.345         	0.275
MS.450         	12.32          	0.291
MS.451         	12.295         	0.279
MS.452         	12.27          	0.272
MS.453         	12.245         	0.259
MS.454         	12.225         	0.276
MS.455         	12.2           	0.205
MS.456         	12.175         	0.221
MS.457         	12.15          	0.181
MS.458         	12.125         	0.243
MS.459         	12.1           	0.21
MS.460         	12.075         	0.187
MS.461         	12.055         	0.191
MS.462         	12.03          	0.19
MS.463         	12.005         	0.175
MS.464         	11.98          	0.185
MS.465         	11.955         	0.163
MS.466         	11.935         	0.161
MS.467         	11.91          	0.172
MS.468         	11.885         	0.154
MS.469         	11.86          	0.134
MS.470         	11.84          	0.123
MS.471         	11.815         	0.125
MS.472         	11.79          	0.149
MS.473         	11.765         	0.026
MS.474         	11.745         	0.008
MS.475         	11.72          	0.005
MS.476         	11.695         	0.008
MS.477         	11.675         	0.007
MS.478         	11.65          	0.008
MS.479         	11.625         	0.011
MS.480         	11.605         	0.009
MS.481         	11.58          	0.012
MS.482         	11.555         	0.012
MS.483         	11.535         	0.007
MS.484         	11.51          	0.007
MS.485         	11.49          	0.007
MS.486         	11.465         	0.012
MS.487         	11.44          	0.012
MS.488         	11.42          	0.011
MS.489         	11.395         	0.01
MS.490         	11.375         	0.011
MS.491         	11.35          	0.011
MS.492         	11.33          	0.01
MS.493         	11.305         	0.013
MS.494         	11.285         	0.007
MS.495         	11.26          	0.009
MS.496         	11.24          	0.01
MS.497         	11.215         	0.011
MS.498         	11.195         	0.011
MS.499         	11.17          	0.005
MS.500         	11.15          	0.005
MS.501         	11.125         	0.007
