File:              	C:\Qtrac\Data\CKMC01124E.QZD
Name:              	DK.COP.NC.9.2
Protocol:          	MSCAN-R2
Date:              	24/11/20
Start time:        	15:06:01
Age:               	74
Sex:               	F
Temperature:       	37.8
S/R sites:         	RPer FH-AT
NC/disease:        	NC
Operator:          	CK
Comments:
M-SCAN DATA (6.2-1.6m)
Scanpts: 13, 22, 491, 497
Stim. (mA)     	Amp. (mV)
MS.1           	47             	4.343
MS.2           	47             	4.352
MS.3           	47             	4.345
MS.4           	47             	4.311
MS.5           	47             	4.286
MS.6           	47             	4.344
MS.7           	47             	4.334
MS.8           	47             	4.335
MS.9           	47             	4.319
MS.10          	47             	4.288
MS.11          	47             	4.319
MS.12          	47             	4.33
MS.13          	47             	4.315
MS.14          	47             	4.299
MS.15          	47             	4.327
MS.16          	47             	4.327
MS.17          	47             	4.319
MS.18          	47             	4.323
MS.19          	47             	4.314
MS.20          	47             	4.294
MS.21          	47             	4.307
MS.22          	47             	4.305
MS.23          	47             	4.323
MS.24          	46.81          	4.333
MS.25          	46.72          	4.316
MS.26          	46.625         	4.289
MS.27          	46.53          	4.312
MS.28          	46.44          	4.301
MS.29          	46.345         	4.33
MS.30          	46.255         	4.281
MS.31          	46.16          	4.272
MS.32          	46.07          	4.293
MS.33          	45.975         	4.259
MS.34          	45.885         	4.269
MS.35          	45.795         	4.249
MS.36          	45.7           	4.291
MS.37          	45.61          	4.265
MS.38          	45.52          	4.256
MS.39          	45.43          	4.265
MS.40          	45.34          	4.265
MS.41          	45.245         	4.223
MS.42          	45.155         	4.245
MS.43          	45.065         	4.243
MS.44          	44.975         	4.233
MS.45          	44.885         	4.3
MS.46          	44.795         	4.244
MS.47          	44.71          	4.225
MS.48          	44.62          	4.196
MS.49          	44.53          	4.184
MS.50          	44.44          	4.162
MS.51          	44.35          	4.221
MS.52          	44.265         	4.254
MS.53          	44.175         	4.167
MS.54          	44.085         	4.203
MS.55          	44             	4.196
MS.56          	43.91          	4.196
MS.57          	43.82          	4.141
MS.58          	43.735         	4.219
MS.59          	43.645         	4.209
MS.60          	43.56          	4.182
MS.61          	43.475         	4.191
MS.62          	43.385         	4.134
MS.63          	43.3           	4.141
MS.64          	43.215         	4.148
MS.65          	43.125         	4.137
MS.66          	43.04          	4.084
MS.67          	42.955         	4.117
MS.68          	42.87          	4.127
MS.69          	42.785         	4.094
MS.70          	42.7           	4.078
MS.71          	42.61          	4.058
MS.72          	42.525         	4.13
MS.73          	42.44          	4.086
MS.74          	42.355         	4.061
MS.75          	42.275         	4.071
MS.76          	42.19          	4.075
MS.77          	42.105         	4.088
MS.78          	42.02          	4.034
MS.79          	41.935         	4.065
MS.80          	41.85          	4.055
MS.81          	41.77          	4.006
MS.82          	41.685         	4.042
MS.83          	41.6           	3.986
MS.84          	41.52          	4.008
MS.85          	41.435         	3.97
MS.86          	41.355         	3.99
MS.87          	41.27          	3.983
MS.88          	41.19          	4.037
MS.89          	41.105         	3.874
MS.90          	41.025         	3.987
MS.91          	40.94          	3.981
MS.92          	40.86          	4.003
MS.93          	40.78          	3.975
MS.94          	40.695         	3.975
MS.95          	40.615         	3.974
MS.96          	40.535         	3.846
MS.97          	40.455         	3.95
MS.98          	40.37          	3.87
MS.99          	40.29          	3.831
MS.100         	40.21          	3.94
MS.101         	40.13          	3.906
MS.102         	40.05          	3.839
MS.103         	39.97          	3.727
MS.104         	39.89          	3.779
MS.105         	39.81          	3.76
MS.106         	39.73          	3.915
MS.107         	39.65          	3.759
MS.108         	39.575         	3.724
MS.109         	39.495         	3.77
MS.110         	39.415         	3.723
MS.111         	39.335         	3.719
MS.112         	39.26          	3.68
MS.113         	39.18          	3.876
MS.114         	39.1           	3.675
MS.115         	39.025         	3.786
MS.116         	38.945         	3.798
MS.117         	38.865         	3.622
MS.118         	38.79          	3.666
MS.119         	38.71          	3.641
MS.120         	38.635         	3.657
MS.121         	38.555         	3.613
MS.122         	38.48          	3.629
MS.123         	38.405         	3.624
MS.124         	38.325         	3.68
MS.125         	38.25          	3.667
MS.126         	38.175         	3.571
MS.127         	38.095         	3.568
MS.128         	38.02          	3.66
MS.129         	37.945         	3.652
MS.130         	37.87          	3.606
MS.131         	37.795         	3.608
MS.132         	37.72          	3.586
MS.133         	37.645         	3.601
MS.134         	37.57          	3.583
MS.135         	37.495         	3.585
MS.136         	37.42          	3.521
MS.137         	37.345         	3.579
MS.138         	37.27          	3.558
MS.139         	37.195         	3.564
MS.140         	37.12          	3.55
MS.141         	37.045         	3.552
MS.142         	36.97          	3.539
MS.143         	36.895         	3.496
MS.144         	36.825         	3.514
MS.145         	36.75          	3.53
MS.146         	36.675         	3.502
MS.147         	36.605         	3.52
MS.148         	36.53          	3.484
MS.149         	36.455         	3.517
MS.150         	36.385         	3.454
MS.151         	36.31          	3.499
MS.152         	36.24          	3.455
MS.153         	36.165         	3.442
MS.154         	36.095         	3.416
MS.155         	36.02          	3.424
MS.156         	35.95          	3.365
MS.157         	35.88          	3.396
MS.158         	35.805         	3.384
MS.159         	35.735         	3.378
MS.160         	35.665         	3.417
MS.161         	35.595         	3.378
MS.162         	35.52          	3.348
MS.163         	35.45          	3.369
MS.164         	35.38          	3.373
MS.165         	35.31          	3.334
MS.166         	35.24          	3.361
MS.167         	35.17          	3.301
MS.168         	35.1           	3.328
MS.169         	35.03          	3.281
MS.170         	34.96          	3.328
MS.171         	34.89          	3.259
MS.172         	34.82          	3.273
MS.173         	34.75          	3.328
MS.174         	34.68          	3.235
MS.175         	34.61          	3.274
MS.176         	34.54          	3.214
MS.177         	34.47          	3.192
MS.178         	34.405         	3.14
MS.179         	34.335         	3.204
MS.180         	34.265         	3.217
MS.181         	34.195         	3.162
MS.182         	34.13          	3.164
MS.183         	34.06          	3.124
MS.184         	33.995         	3.13
MS.185         	33.925         	3.122
MS.186         	33.855         	3.071
MS.187         	33.79          	3.089
MS.188         	33.72          	3.195
MS.189         	33.655         	3.126
MS.190         	33.585         	3.072
MS.191         	33.52          	3.06
MS.192         	33.455         	2.949
MS.193         	33.385         	3.033
MS.194         	33.32          	3.061
MS.195         	33.255         	2.867
MS.196         	33.185         	3.023
MS.197         	33.12          	3.087
MS.198         	33.055         	3.062
MS.199         	32.99          	2.922
MS.200         	32.92          	2.897
MS.201         	32.855         	2.865
MS.202         	32.79          	2.897
MS.203         	32.725         	2.833
MS.204         	32.66          	2.911
MS.205         	32.595         	2.867
MS.206         	32.53          	2.823
MS.207         	32.465         	2.911
MS.208         	32.4           	2.853
MS.209         	32.335         	2.843
MS.210         	32.27          	2.878
MS.211         	32.205         	2.855
MS.212         	32.14          	2.867
MS.213         	32.075         	2.797
MS.214         	32.015         	2.751
MS.215         	31.95          	2.809
MS.216         	31.885         	2.7
MS.217         	31.82          	2.804
MS.218         	31.76          	2.764
MS.219         	31.695         	2.795
MS.220         	31.63          	2.655
MS.221         	31.57          	2.767
MS.222         	31.505         	2.704
MS.223         	31.44          	2.668
MS.224         	31.38          	2.589
MS.225         	31.315         	2.592
MS.226         	31.255         	2.524
MS.227         	31.19          	2.674
MS.228         	31.13          	2.487
MS.229         	31.065         	2.635
MS.230         	31.005         	2.607
MS.231         	30.945         	2.41
MS.232         	30.88          	2.566
MS.233         	30.82          	2.437
MS.234         	30.76          	2.436
MS.235         	30.695         	2.504
MS.236         	30.635         	2.386
MS.237         	30.575         	2.382
MS.238         	30.515         	2.448
MS.239         	30.45          	2.457
MS.240         	30.39          	2.377
MS.241         	30.33          	2.462
MS.242         	30.27          	2.375
MS.243         	30.21          	2.307
MS.244         	30.15          	2.244
MS.245         	30.09          	2.385
MS.246         	30.03          	2.294
MS.247         	29.97          	2.127
MS.248         	29.91          	2.343
MS.249         	29.85          	2.202
MS.250         	29.79          	2.203
MS.251         	29.73          	2.159
MS.252         	29.67          	2.183
MS.253         	29.61          	2.197
MS.254         	29.55          	2.191
MS.255         	29.495         	2.179
MS.256         	29.435         	2.075
MS.257         	29.375         	2.109
MS.258         	29.315         	2.107
MS.259         	29.26          	2.043
MS.260         	29.2           	2.003
MS.261         	29.14          	1.979
MS.262         	29.085         	1.997
MS.263         	29.025         	1.941
MS.264         	28.965         	1.912
MS.265         	28.91          	1.887
MS.266         	28.85          	1.915
MS.267         	28.795         	1.883
MS.268         	28.735         	1.849
MS.269         	28.68          	1.898
MS.270         	28.62          	1.709
MS.271         	28.565         	1.886
MS.272         	28.505         	1.745
MS.273         	28.45          	1.8
MS.274         	28.395         	1.832
MS.275         	28.335         	1.796
MS.276         	28.28          	1.718
MS.277         	28.225         	1.695
MS.278         	28.165         	1.737
MS.279         	28.11          	1.574
MS.280         	28.055         	1.764
MS.281         	28             	1.57
MS.282         	27.94          	1.545
MS.283         	27.885         	1.522
MS.284         	27.83          	1.551
MS.285         	27.775         	1.443
MS.286         	27.72          	1.539
MS.287         	27.665         	1.393
MS.288         	27.61          	1.4
MS.289         	27.555         	1.392
MS.290         	27.5           	1.309
MS.291         	27.445         	1.321
MS.292         	27.39          	1.265
MS.293         	27.335         	1.361
MS.294         	27.28          	1.23
MS.295         	27.225         	1.23
MS.296         	27.17          	1.232
MS.297         	27.115         	1.13
MS.298         	27.06          	1.196
MS.299         	27.01          	1.141
MS.300         	26.955         	1.142
MS.301         	26.9           	1.215
MS.302         	26.845         	1.173
MS.303         	26.795         	1.135
MS.304         	26.74          	1.143
MS.305         	26.685         	1.141
MS.306         	26.635         	1.188
MS.307         	26.58          	1.134
MS.308         	26.525         	1.179
MS.309         	26.475         	1.093
MS.310         	26.42          	1.099
MS.311         	26.37          	1.075
MS.312         	26.315         	1.165
MS.313         	26.265         	1.096
MS.314         	26.21          	1.082
MS.315         	26.16          	1.102
MS.316         	26.105         	1.1
MS.317         	26.055         	1.056
MS.318         	26             	1.113
MS.319         	25.95          	1.038
MS.320         	25.895         	1.067
MS.321         	25.845         	1.022
MS.322         	25.795         	1.078
MS.323         	25.74          	1.071
MS.324         	25.69          	1.014
MS.325         	25.64          	0.957
MS.326         	25.59          	0.945
MS.327         	25.535         	0.976
MS.328         	25.485         	1.021
MS.329         	25.435         	0.95
MS.330         	25.385         	1.017
MS.331         	25.335         	0.977
MS.332         	25.285         	0.956
MS.333         	25.235         	0.926
MS.334         	25.18          	0.869
MS.335         	25.13          	0.923
MS.336         	25.08          	0.939
MS.337         	25.03          	0.934
MS.338         	24.98          	0.97
MS.339         	24.93          	0.844
MS.340         	24.88          	0.944
MS.341         	24.83          	0.916
MS.342         	24.785         	0.862
MS.343         	24.735         	0.91
MS.344         	24.685         	0.796
MS.345         	24.635         	0.826
MS.346         	24.585         	0.866
MS.347         	24.535         	0.779
MS.348         	24.485         	0.807
MS.349         	24.44          	0.77
MS.350         	24.39          	0.778
MS.351         	24.34          	0.817
MS.352         	24.29          	0.836
MS.353         	24.245         	0.759
MS.354         	24.195         	0.794
MS.355         	24.145         	0.789
MS.356         	24.1           	0.79
MS.357         	24.05          	0.787
MS.358         	24             	0.74
MS.359         	23.955         	0.735
MS.360         	23.905         	0.726
MS.361         	23.86          	0.724
MS.362         	23.81          	0.716
MS.363         	23.765         	0.714
MS.364         	23.715         	0.714
MS.365         	23.67          	0.717
MS.366         	23.62          	0.705
MS.367         	23.575         	0.624
MS.368         	23.525         	0.695
MS.369         	23.48          	0.651
MS.370         	23.435         	0.63
MS.371         	23.385         	0.681
MS.372         	23.34          	0.614
MS.373         	23.295         	0.649
MS.374         	23.245         	0.635
MS.375         	23.2           	0.61
MS.376         	23.155         	0.576
MS.377         	23.105         	0.643
MS.378         	23.06          	0.548
MS.379         	23.015         	0.56
MS.380         	22.97          	0.624
MS.381         	22.925         	0.548
MS.382         	22.875         	0.473
MS.383         	22.83          	0.548
MS.384         	22.785         	0.46
MS.385         	22.74          	0.514
MS.386         	22.695         	0.547
MS.387         	22.65          	0.479
MS.388         	22.605         	0.496
MS.389         	22.56          	0.466
MS.390         	22.515         	0.472
MS.391         	22.47          	0.488
MS.392         	22.425         	0.465
MS.393         	22.38          	0.418
MS.394         	22.335         	0.374
MS.395         	22.29          	0.41
MS.396         	22.245         	0.345
MS.397         	22.2           	0.431
MS.398         	22.155         	0.379
MS.399         	22.11          	0.392
MS.400         	22.07          	0.378
MS.401         	22.025         	0.358
MS.402         	21.98          	0.333
MS.403         	21.935         	0.357
MS.404         	21.89          	0.369
MS.405         	21.85          	0.344
MS.406         	21.805         	0.327
MS.407         	21.76          	0.32
MS.408         	21.72          	0.339
MS.409         	21.675         	0.344
MS.410         	21.63          	0.346
MS.411         	21.59          	0.331
MS.412         	21.545         	0.328
MS.413         	21.5           	0.314
MS.414         	21.46          	0.328
MS.415         	21.415         	0.336
MS.416         	21.375         	0.331
MS.417         	21.33          	0.302
MS.418         	21.29          	0.313
MS.419         	21.245         	0.323
MS.420         	21.205         	0.336
MS.421         	21.16          	0.314
MS.422         	21.12          	0.316
MS.423         	21.075         	0.316
MS.424         	21.035         	0.331
MS.425         	20.99          	0.32
MS.426         	20.95          	0.311
MS.427         	20.91          	0.319
MS.428         	20.865         	0.322
MS.429         	20.825         	0.305
MS.430         	20.785         	0.287
MS.431         	20.74          	0.324
MS.432         	20.7           	0.314
MS.433         	20.66          	0.301
MS.434         	20.62          	0.274
MS.435         	20.575         	0.325
MS.436         	20.535         	0.322
MS.437         	20.495         	0.32
MS.438         	20.455         	0.309
MS.439         	20.41          	0.314
MS.440         	20.37          	0.314
MS.441         	20.33          	0.306
MS.442         	20.29          	0.317
MS.443         	20.25          	0.286
MS.444         	20.21          	0.287
MS.445         	20.17          	0.322
MS.446         	20.13          	0.314
MS.447         	20.09          	0.273
MS.448         	20.05          	0.277
MS.449         	20.01          	0.315
MS.450         	19.97          	0.278
MS.451         	19.93          	0.309
MS.452         	19.89          	0.284
MS.453         	19.85          	0.29
MS.454         	19.81          	0.29
MS.455         	19.77          	0.29
MS.456         	19.73          	0.275
MS.457         	19.69          	0.293
MS.458         	19.65          	0.287
MS.459         	19.61          	0.272
MS.460         	19.575         	0.278
MS.461         	19.535         	0.269
MS.462         	19.495         	0.27
MS.463         	19.455         	0.271
MS.464         	19.415         	0.278
MS.465         	19.38          	0.284
MS.466         	19.34          	0.267
MS.467         	19.3           	0.281
MS.468         	19.26          	0.279
MS.469         	19.225         	0.28
MS.470         	19.185         	0.259
MS.471         	19.145         	0.272
MS.472         	19.11          	0.278
MS.473         	19.07          	0.27
MS.474         	19.03          	0.258
MS.475         	18.995         	0.272
MS.476         	18.955         	0.258
MS.477         	18.92          	0.262
MS.478         	18.88          	0.269
MS.479         	18.845         	0.275
MS.480         	18.805         	0.264
MS.481         	18.77          	0.26
MS.482         	18.73          	0.259
MS.483         	18.695         	0.255
MS.484         	18.655         	0.235
MS.485         	18.62          	0.253
MS.486         	18.58          	0.26
MS.487         	18.545         	0.26
MS.488         	18.505         	0.264
MS.489         	18.47          	0.267
MS.490         	18.435         	0.251
MS.491         	18.395         	0.256
MS.492         	18.36          	0.261
MS.493         	18.325         	0.259
MS.494         	18.285         	0.273
MS.495         	18.25          	0.253
MS.496         	18.215         	0.258
MS.497         	18.175         	0.255
MS.498         	18.14          	0.248
MS.499         	18.105         	0.258
MS.500         	18.07          	0.231
MS.501         	18.03          	0.249
MS.502         	17.995         	0.255
DERIVED EXCITABILITY VARIABLES
Program = QTracP 20/9/2019
