File:              	C:\Qtrac\Data\CKMC01123D.QZD
Name:              	DK.COP.NC.10.2
Protocol:          	MSCAN-R2
Date:              	23/11/20
Start time:        	14:39:52
Age:               	24
Sex:               	M
Temperature:       	36.6
S/R sites:         	LPer FH-AT
NC/disease:        	NC
Operator:          	CK
Comments:          	CG
RECOVERY CYCLE DATA (0.0-0.0m)
Interval (ms)       	  Threshold change (%)
M-SCAN DATA (8.4-1.5m)
Scanpts: 84, 94, 706, 726
Stim. (mA)     	Amp. (mV)
MS.1           	31             	3.987
MS.2           	31             	3.979
MS.3           	31             	3.984
MS.4           	31             	3.964
MS.5           	31             	3.961
MS.6           	31             	3.969
MS.7           	31             	3.962
MS.8           	31             	3.965
MS.9           	31             	3.971
MS.10          	31             	3.965
MS.11          	31             	3.975
MS.12          	31             	3.965
MS.13          	31             	3.969
MS.14          	31             	3.974
MS.15          	31             	3.962
MS.16          	31             	3.957
MS.17          	31             	3.967
MS.18          	31             	3.962
MS.19          	31             	3.968
MS.20          	31             	3.969
MS.21          	31             	3.967
MS.22          	31             	3.964
MS.23          	31             	3.99
MS.24          	30.875         	4.003
MS.25          	30.815         	3.969
MS.26          	30.755         	3.971
MS.27          	30.69          	3.97
MS.28          	30.63          	3.969
MS.29          	30.57          	3.966
MS.30          	30.51          	3.964
MS.31          	30.445         	3.979
MS.32          	30.385         	3.972
MS.33          	30.325         	3.969
MS.34          	30.265         	3.981
MS.35          	30.205         	3.981
MS.36          	30.145         	3.962
MS.37          	30.085         	3.968
MS.38          	30.025         	3.979
MS.39          	29.965         	3.975
MS.40          	29.905         	3.972
MS.41          	29.845         	3.991
MS.42          	29.785         	3.973
MS.43          	29.725         	3.973
MS.44          	29.665         	3.981
MS.45          	29.605         	3.969
MS.46          	29.545         	3.977
MS.47          	29.49          	3.965
MS.48          	29.43          	3.967
MS.49          	29.37          	3.969
MS.50          	29.31          	3.962
MS.51          	29.255         	3.962
MS.52          	29.195         	3.973
MS.53          	29.135         	3.975
MS.54          	29.08          	3.97
MS.55          	29.02          	3.971
MS.56          	28.96          	3.987
MS.57          	28.905         	3.977
MS.58          	28.845         	3.969
MS.59          	28.79          	3.972
MS.60          	28.73          	3.969
MS.61          	28.675         	3.973
MS.62          	28.615         	3.978
MS.63          	28.56          	3.98
MS.64          	28.5           	3.979
MS.65          	28.445         	3.985
MS.66          	28.39          	3.981
MS.67          	28.33          	3.971
MS.68          	28.275         	3.979
MS.69          	28.22          	3.978
MS.70          	28.16          	3.975
MS.71          	28.105         	3.986
MS.72          	28.05          	3.985
MS.73          	27.995         	3.998
MS.74          	27.94          	3.988
MS.75          	27.88          	3.988
MS.76          	27.825         	3.992
MS.77          	27.77          	3.993
MS.78          	27.715         	3.973
MS.79          	27.66          	3.99
MS.80          	27.605         	3.982
MS.81          	27.55          	3.988
MS.82          	27.495         	3.994
MS.83          	27.44          	3.982
MS.84          	27.385         	3.986
MS.85          	27.33          	3.996
MS.86          	27.275         	3.991
MS.87          	27.22          	3.997
MS.88          	27.165         	3.993
MS.89          	27.11          	3.984
MS.90          	27.06          	3.985
MS.91          	27.005         	3.994
MS.92          	26.95          	3.98
MS.93          	26.895         	3.995
MS.94          	26.84          	3.998
MS.95          	26.79          	3.983
MS.96          	26.735         	3.987
MS.97          	26.68          	3.986
MS.98          	26.63          	3.998
MS.99          	26.575         	4.002
MS.100         	26.52          	3.992
MS.101         	26.47          	3.993
MS.102         	26.415         	3.981
MS.103         	26.365         	3.986
MS.104         	26.31          	3.984
MS.105         	26.26          	3.981
MS.106         	26.205         	3.997
MS.107         	26.155         	3.996
MS.108         	26.1           	4.012
MS.109         	26.05          	3.979
MS.110         	25.995         	4.005
MS.111         	25.945         	3.997
MS.112         	25.895         	4.001
MS.113         	25.84          	3.99
MS.114         	25.79          	3.994
MS.115         	25.74          	4.003
MS.116         	25.685         	3.993
MS.117         	25.635         	3.998
MS.118         	25.585         	3.965
MS.119         	25.535         	3.983
MS.120         	25.48          	3.977
MS.121         	25.43          	3.99
MS.122         	25.38          	3.969
MS.123         	25.33          	3.984
MS.124         	25.28          	3.979
MS.125         	25.23          	3.975
MS.126         	25.18          	3.975
MS.127         	25.13          	3.962
MS.128         	25.08          	3.965
MS.129         	25.03          	3.958
MS.130         	24.98          	3.972
MS.131         	24.93          	3.962
MS.132         	24.88          	3.949
MS.133         	24.83          	3.976
MS.134         	24.78          	3.954
MS.135         	24.73          	3.971
MS.136         	24.68          	3.969
MS.137         	24.63          	3.968
MS.138         	24.58          	3.966
MS.139         	24.53          	3.972
MS.140         	24.485         	3.98
MS.141         	24.435         	3.964
MS.142         	24.385         	3.954
MS.143         	24.335         	3.972
MS.144         	24.29          	3.967
MS.145         	24.24          	3.964
MS.146         	24.19          	3.957
MS.147         	24.145         	3.965
MS.148         	24.095         	3.978
MS.149         	24.045         	3.97
MS.150         	24             	3.959
MS.151         	23.95          	3.974
MS.152         	23.9           	3.971
MS.153         	23.855         	3.973
MS.154         	23.805         	3.958
MS.155         	23.76          	3.959
MS.156         	23.71          	3.949
MS.157         	23.665         	3.965
MS.158         	23.615         	3.981
MS.159         	23.57          	3.971
MS.160         	23.525         	3.964
MS.161         	23.475         	3.959
MS.162         	23.43          	3.939
MS.163         	23.38          	4.011
MS.164         	23.335         	3.986
MS.165         	23.29          	3.962
MS.166         	23.245         	3.955
MS.167         	23.195         	3.958
MS.168         	23.15          	3.957
MS.169         	23.105         	3.95
MS.170         	23.055         	3.966
MS.171         	23.01          	3.936
MS.172         	22.965         	3.947
MS.173         	22.92          	3.947
MS.174         	22.875         	3.947
MS.175         	22.83          	3.956
MS.176         	22.78          	3.957
MS.177         	22.735         	3.955
MS.178         	22.69          	3.937
MS.179         	22.645         	3.922
MS.180         	22.6           	3.918
MS.181         	22.555         	3.925
MS.182         	22.51          	3.901
MS.183         	22.465         	3.919
MS.184         	22.42          	3.906
MS.185         	22.375         	3.932
MS.186         	22.33          	3.924
MS.187         	22.285         	3.936
MS.188         	22.24          	3.913
MS.189         	22.2           	3.92
MS.190         	22.155         	3.916
MS.191         	22.11          	3.88
MS.192         	22.065         	3.91
MS.193         	22.02          	3.887
MS.194         	21.975         	3.879
MS.195         	21.935         	3.845
MS.196         	21.89          	3.84
MS.197         	21.845         	3.885
MS.198         	21.8           	3.855
MS.199         	21.76          	3.774
MS.200         	21.715         	3.777
MS.201         	21.67          	3.812
MS.202         	21.63          	3.842
MS.203         	21.585         	3.824
MS.204         	21.54          	3.847
MS.205         	21.5           	3.841
MS.206         	21.455         	3.748
MS.207         	21.415         	3.859
MS.208         	21.37          	3.795
MS.209         	21.325         	3.817
MS.210         	21.285         	3.82
MS.211         	21.24          	3.806
MS.212         	21.2           	3.702
MS.213         	21.155         	3.732
MS.214         	21.115         	3.752
MS.215         	21.075         	3.733
MS.216         	21.03          	3.718
MS.217         	20.99          	3.668
MS.218         	20.945         	3.647
MS.219         	20.905         	3.632
MS.220         	20.865         	3.632
MS.221         	20.82          	3.621
MS.222         	20.78          	3.677
MS.223         	20.74          	3.628
MS.224         	20.695         	3.607
MS.225         	20.655         	3.634
MS.226         	20.615         	3.671
MS.227         	20.575         	3.578
MS.228         	20.53          	3.624
MS.229         	20.49          	3.609
MS.230         	20.45          	3.584
MS.231         	20.41          	3.565
MS.232         	20.37          	3.641
MS.233         	20.33          	3.629
MS.234         	20.285         	3.571
MS.235         	20.245         	3.536
MS.236         	20.205         	3.51
MS.237         	20.165         	3.468
MS.238         	20.125         	3.544
MS.239         	20.085         	3.577
MS.240         	20.045         	3.552
MS.241         	20.005         	3.469
MS.242         	19.965         	3.421
MS.243         	19.925         	3.517
MS.244         	19.885         	3.386
MS.245         	19.845         	3.42
MS.246         	19.805         	3.449
MS.247         	19.765         	3.437
MS.248         	19.725         	3.404
MS.249         	19.685         	3.434
MS.250         	19.65          	3.428
MS.251         	19.61          	3.453
MS.252         	19.57          	3.353
MS.253         	19.53          	3.38
MS.254         	19.49          	3.324
MS.255         	19.455         	3.347
MS.256         	19.415         	3.364
MS.257         	19.375         	3.354
MS.258         	19.335         	3.354
MS.259         	19.3           	3.361
MS.260         	19.26          	3.378
MS.261         	19.22          	3.3
MS.262         	19.18          	3.271
MS.263         	19.145         	3.336
MS.264         	19.105         	3.292
MS.265         	19.065         	3.319
MS.266         	19.03          	3.23
MS.267         	18.99          	3.243
MS.268         	18.955         	3.262
MS.269         	18.915         	3.263
MS.270         	18.88          	3.25
MS.271         	18.84          	3.147
MS.272         	18.8           	3.185
MS.273         	18.765         	3.148
MS.274         	18.725         	3.123
MS.275         	18.69          	3.093
MS.276         	18.655         	2.979
MS.277         	18.615         	3.184
MS.278         	18.58          	3.027
MS.279         	18.54          	2.956
MS.280         	18.505         	3.129
MS.281         	18.465         	3.063
MS.282         	18.43          	3.006
MS.283         	18.395         	3.03
MS.284         	18.355         	3.041
MS.285         	18.32          	2.82
MS.286         	18.285         	3.002
MS.287         	18.245         	2.944
MS.288         	18.21          	2.895
MS.289         	18.175         	2.974
MS.290         	18.14          	2.926
MS.291         	18.1           	2.882
MS.292         	18.065         	2.812
MS.293         	18.03          	2.831
MS.294         	17.995         	2.882
MS.295         	17.955         	2.783
MS.296         	17.92          	2.73
MS.297         	17.885         	2.708
MS.298         	17.85          	2.728
MS.299         	17.815         	2.69
MS.300         	17.78          	2.671
MS.301         	17.745         	2.761
MS.302         	17.705         	2.806
MS.303         	17.67          	2.747
MS.304         	17.635         	2.615
MS.305         	17.6           	2.549
MS.306         	17.565         	2.57
MS.307         	17.53          	2.456
MS.308         	17.495         	2.648
MS.309         	17.46          	2.61
MS.310         	17.425         	2.557
MS.311         	17.39          	2.595
MS.312         	17.355         	2.591
MS.313         	17.32          	2.505
MS.314         	17.285         	2.501
MS.315         	17.255         	2.457
MS.316         	17.22          	2.459
MS.317         	17.185         	2.526
MS.318         	17.15          	2.423
MS.319         	17.115         	2.408
MS.320         	17.08          	2.413
MS.321         	17.045         	2.391
MS.322         	17.015         	2.378
MS.323         	16.98          	2.444
MS.324         	16.945         	2.363
MS.325         	16.91          	2.378
MS.326         	16.88          	2.393
MS.327         	16.845         	2.328
MS.328         	16.81          	2.361
MS.329         	16.775         	2.358
MS.330         	16.745         	2.325
MS.331         	16.71          	2.252
MS.332         	16.675         	2.255
MS.333         	16.645         	2.267
MS.334         	16.61          	2.253
MS.335         	16.575         	2.218
MS.336         	16.545         	2.227
MS.337         	16.51          	2.29
MS.338         	16.475         	2.222
MS.339         	16.445         	2.158
MS.340         	16.41          	2.077
MS.341         	16.38          	2.053
MS.342         	16.345         	2.079
MS.343         	16.315         	2.017
MS.344         	16.28          	2.04
MS.345         	16.25          	2.089
MS.346         	16.215         	2.068
MS.347         	16.185         	2.104
MS.348         	16.15          	2.045
MS.349         	16.12          	2.017
MS.350         	16.085         	2.07
MS.351         	16.055         	2.064
MS.352         	16.02          	1.881
MS.353         	15.99          	2.02
MS.354         	15.96          	1.891
MS.355         	15.925         	1.884
MS.356         	15.895         	1.952
MS.357         	15.865         	1.905
MS.358         	15.83          	1.878
MS.359         	15.8           	1.876
MS.360         	15.77          	1.965
MS.361         	15.735         	1.945
MS.362         	15.705         	1.901
MS.363         	15.675         	1.788
MS.364         	15.64          	1.821
MS.365         	15.61          	1.806
MS.366         	15.58          	1.83
MS.367         	15.55          	1.819
MS.368         	15.52          	1.817
MS.369         	15.485         	1.774
MS.370         	15.455         	1.707
MS.371         	15.425         	1.661
MS.372         	15.395         	1.74
MS.373         	15.365         	1.76
MS.374         	15.335         	1.668
MS.375         	15.3           	1.638
MS.376         	15.27          	1.657
MS.377         	15.24          	1.654
MS.378         	15.21          	1.644
MS.379         	15.18          	1.606
MS.380         	15.15          	1.606
MS.381         	15.12          	1.597
MS.382         	15.09          	1.622
MS.383         	15.06          	1.542
MS.384         	15.03          	1.512
MS.385         	15             	1.618
MS.386         	14.97          	1.302
MS.387         	14.94          	1.5
MS.388         	14.91          	1.526
MS.389         	14.88          	1.495
MS.390         	14.85          	1.199
MS.391         	14.82          	1.202
MS.392         	14.79          	1.243
MS.393         	14.76          	1.484
MS.394         	14.73          	1.366
MS.395         	14.7           	1.119
MS.396         	14.675         	1.359
MS.397         	14.645         	1.304
MS.398         	14.615         	1.143
MS.399         	14.585         	1.272
MS.400         	14.555         	1.115
MS.401         	14.525         	1.144
MS.402         	14.5           	1.109
MS.403         	14.47          	1.215
MS.404         	14.44          	1.188
MS.405         	14.41          	1.077
MS.406         	14.38          	1.094
MS.407         	14.355         	0.972
MS.408         	14.325         	0.997
MS.409         	14.295         	0.97
MS.410         	14.265         	0.965
MS.411         	14.24          	0.953
MS.412         	14.21          	0.971
MS.413         	14.18          	0.903
MS.414         	14.155         	0.911
MS.415         	14.125         	0.896
MS.416         	14.095         	0.963
MS.417         	14.07          	0.965
MS.418         	14.04          	0.916
MS.419         	14.015         	0.855
MS.420         	13.985         	0.883
MS.421         	13.955         	0.801
MS.422         	13.93          	0.814
MS.423         	13.9           	0.762
MS.424         	13.875         	0.755
MS.425         	13.845         	0.706
MS.426         	13.82          	0.767
MS.427         	13.79          	0.75
MS.428         	13.765         	0.75
MS.429         	13.735         	0.696
MS.430         	13.71          	0.728
MS.431         	13.68          	0.781
MS.432         	13.655         	0.734
MS.433         	13.625         	0.746
MS.434         	13.6           	0.711
MS.435         	13.57          	0.706
MS.436         	13.545         	0.66
MS.437         	13.515         	0.633
MS.438         	13.49          	0.702
MS.439         	13.465         	0.662
MS.440         	13.435         	0.627
MS.441         	13.41          	0.634
MS.442         	13.385         	0.603
MS.443         	13.355         	0.625
MS.444         	13.33          	0.59
MS.445         	13.305         	0.554
MS.446         	13.275         	0.477
MS.447         	13.25          	0.546
MS.448         	13.225         	0.539
MS.449         	13.195         	0.508
MS.450         	13.17          	0.573
MS.451         	13.145         	0.49
MS.452         	13.12          	0.454
MS.453         	13.09          	0.468
MS.454         	13.065         	0.463
MS.455         	13.04          	0.406
MS.456         	13.015         	0.433
MS.457         	12.985         	0.403
MS.458         	12.96          	0.444
MS.459         	12.935         	0.409
MS.460         	12.91          	0.32
MS.461         	12.885         	0.438
MS.462         	12.86          	0.389
MS.463         	12.835         	0.381
MS.464         	12.805         	0.366
MS.465         	12.78          	0.355
MS.466         	12.755         	0.36
MS.467         	12.73          	0.327
MS.468         	12.705         	0.342
MS.469         	12.68          	0.331
MS.470         	12.655         	0.291
MS.471         	12.63          	0.351
MS.472         	12.605         	0.31
MS.473         	12.58          	0.311
MS.474         	12.555         	0.307
MS.475         	12.53          	0.273
MS.476         	12.505         	0.258
MS.477         	12.48          	0.287
MS.478         	12.455         	0.266
MS.479         	12.43          	0.236
MS.480         	12.405         	0.228
MS.481         	12.38          	0.25
MS.482         	12.355         	0.276
MS.483         	12.33          	0.206
MS.484         	12.305         	0.227
MS.485         	12.28          	0.217
MS.486         	12.255         	0.207
MS.487         	12.23          	0.222
MS.488         	12.205         	0.203
MS.489         	12.18          	0.214
MS.490         	12.16          	0.198
MS.491         	12.135         	0.216
MS.492         	12.11          	0.209
MS.493         	12.085         	0.204
MS.494         	12.06          	0.205
MS.495         	12.035         	0.189
MS.496         	12.015         	0.187
MS.497         	11.99          	0.219
MS.498         	11.965         	0.209
MS.499         	11.94          	0.181
MS.500         	11.915         	0.162
MS.501         	11.895         	0.198
