File:              	C:\Qtrac\Data\Daniel M Sørensen\MScan multicentre study\Data from centres\Newcastle\Processed data\SMC00221C.QZD
Name:              	UK.NEW.NC.5.1
Protocol:          	MSCAN-R2
Date:              	21/2/20
Start time:        	09:34:07
Age:               	40
Sex:               	F
Temperature:       	30.8
S/R sites:         	TA
NC/disease:        	NC
Operator:          	SM
Comments:
M-SCAN DATA (1.8-0.0m)
Scanpts: 91, 141, 724, 739
Stim. (mA)     	Amp. (mV)
MS.1           	20             	9.567
MS.2           	20             	9.571
MS.3           	19.92          	9.587
MS.4           	19.88          	9.549
MS.5           	19.84          	9.553
MS.6           	19.8           	9.581
MS.7           	19.762         	9.571
MS.8           	19.722         	9.565
MS.9           	19.682         	9.545
MS.10          	19.642         	9.549
MS.11          	19.605         	9.551
MS.12          	19.565         	9.537
MS.13          	19.525         	9.559
MS.14          	19.487         	9.557
MS.15          	19.448         	9.569
MS.16          	19.41          	9.565
MS.17          	19.37          	9.583
MS.18          	19.333         	9.563
MS.19          	19.292         	9.557
MS.20          	19.255         	9.573
MS.21          	19.215         	9.549
MS.22          	19.177         	9.565
MS.23          	19.14          	9.583
MS.24          	19.1           	9.573
MS.25          	19.062         	9.551
MS.26          	19.025         	9.567
MS.27          	18.987         	9.557
MS.28          	18.948         	9.553
MS.29          	18.91          	9.563
MS.30          	18.872         	9.541
MS.31          	18.835         	9.563
MS.32          	18.797         	9.547
MS.33          	18.76          	9.533
MS.34          	18.722         	9.527
MS.35          	18.685         	9.529
MS.36          	18.647         	9.553
MS.37          	18.61          	9.545
MS.38          	18.573         	9.559
MS.39          	18.535         	9.555
MS.40          	18.5           	9.547
MS.41          	18.462         	9.533
MS.42          	18.425         	9.559
MS.43          	18.387         	9.565
MS.44          	18.352         	9.559
MS.45          	18.315         	9.533
MS.46          	18.278         	9.547
MS.47          	18.243         	9.551
MS.48          	18.205         	9.537
MS.49          	18.17          	9.543
MS.50          	18.132         	9.535
MS.51          	18.097         	9.553
MS.52          	18.06          	9.523
MS.53          	18.025         	9.541
MS.54          	17.987         	9.539
MS.55          	17.952         	9.537
MS.56          	17.917         	9.543
MS.57          	17.88          	9.549
MS.58          	17.845         	9.503
MS.59          	17.81          	9.523
MS.60          	17.775         	9.541
MS.61          	17.737         	9.541
MS.62          	17.702         	9.529
MS.63          	17.667         	9.541
MS.64          	17.632         	9.519
MS.65          	17.597         	9.537
MS.66          	17.562         	9.527
MS.67          	17.528         	9.511
MS.68          	17.493         	9.507
MS.69          	17.458         	9.519
MS.70          	17.422         	9.521
MS.71          	17.387         	9.515
MS.72          	17.352         	9.513
MS.73          	17.317         	9.531
MS.74          	17.282         	9.517
MS.75          	17.247         	9.499
MS.76          	17.215         	9.503
MS.77          	17.18          	9.527
MS.78          	17.145         	9.545
MS.79          	17.11          	9.527
MS.80          	17.077         	9.545
MS.81          	17.042         	9.525
MS.82          	17.01          	9.531
MS.83          	16.975         	9.519
MS.84          	16.94          	9.513
MS.85          	16.907         	9.507
MS.86          	16.872         	9.525
MS.87          	16.84          	9.509
MS.88          	16.805         	9.509
MS.89          	16.772         	9.511
MS.90          	16.74          	9.519
MS.91          	16.705         	9.517
MS.92          	16.672         	9.517
MS.93          	16.637         	9.529
MS.94          	16.605         	9.503
MS.95          	16.573         	9.523
MS.96          	16.54          	9.509
MS.97          	16.505         	9.533
MS.98          	16.472         	9.513
MS.99          	16.44          	9.535
MS.100         	16.407         	9.507
MS.101         	16.375         	9.525
MS.102         	16.342         	9.519
MS.103         	16.31          	9.513
MS.104         	16.278         	9.539
MS.105         	16.245         	9.521
MS.106         	16.212         	9.523
MS.107         	16.18          	9.541
MS.108         	16.147         	9.521
MS.109         	16.115         	9.529
MS.110         	16.083         	9.527
MS.111         	16.05          	9.533
MS.112         	16.017         	9.515
MS.113         	15.985         	9.515
MS.114         	15.955         	9.519
MS.115         	15.922         	9.535
MS.116         	15.89          	9.527
MS.117         	15.86          	9.517
MS.118         	15.827         	9.507
MS.119         	15.795         	9.525
MS.120         	15.765         	9.515
MS.121         	15.733         	9.515
MS.122         	15.7           	9.517
MS.123         	15.67          	9.515
MS.124         	15.637         	9.511
MS.125         	15.608         	9.527
MS.126         	15.575         	9.517
MS.127         	15.545         	9.531
MS.128         	15.515         	9.525
MS.129         	15.483         	9.505
MS.130         	15.452         	9.509
MS.131         	15.42          	9.505
MS.132         	15.39          	9.515
MS.133         	15.36          	9.527
MS.134         	15.327         	9.533
MS.135         	15.297         	9.531
MS.136         	15.267         	9.535
MS.137         	15.237         	9.491
MS.138         	15.207         	9.485
MS.139         	15.175         	9.513
MS.140         	15.145         	9.513
MS.141         	15.115         	9.485
MS.142         	15.085         	9.539
MS.143         	15.055         	9.533
MS.144         	15.025         	9.513
MS.145         	14.995         	9.515
MS.146         	14.965         	9.501
MS.147         	14.935         	9.521
MS.148         	14.905         	9.505
MS.149         	14.875         	9.489
MS.150         	14.845         	9.505
MS.151         	14.818         	9.499
MS.152         	14.787         	9.503
MS.153         	14.757         	9.487
MS.154         	14.727         	9.519
MS.155         	14.697         	9.487
MS.156         	14.67          	9.483
MS.157         	14.64          	9.497
MS.158         	14.61          	9.485
MS.159         	14.58          	9.479
MS.160         	14.552         	9.475
MS.161         	14.523         	9.471
MS.162         	14.495         	9.483
MS.163         	14.465         	9.483
MS.164         	14.435         	9.44
MS.165         	14.407         	9.479
MS.166         	14.377         	9.461
MS.167         	14.35          	9.479
MS.168         	14.32          	9.452
MS.169         	14.292         	9.463
MS.170         	14.265         	9.461
MS.171         	14.235         	9.436
MS.172         	14.207         	9.463
MS.173         	14.177         	9.481
MS.174         	14.15          	9.446
MS.175         	14.122         	9.485
MS.176         	14.092         	9.444
MS.177         	14.065         	9.45
MS.178         	14.037         	9.39
MS.179         	14.01          	9.471
MS.180         	13.983         	9.458
MS.181         	13.952         	9.424
MS.182         	13.925         	9.479
MS.183         	13.898         	9.436
MS.184         	13.87          	9.454
MS.185         	13.842         	9.422
MS.186         	13.815         	9.41
MS.187         	13.787         	9.406
MS.188         	13.76          	9.467
MS.189         	13.733         	9.465
MS.190         	13.705         	9.39
MS.191         	13.677         	9.41
MS.192         	13.65          	9.376
MS.193         	13.622         	9.42
MS.194         	13.595         	9.41
MS.195         	13.568         	9.418
MS.196         	13.54          	9.438
MS.197         	13.515         	9.434
MS.198         	13.487         	9.396
MS.199         	13.46          	9.386
MS.200         	13.432         	9.426
MS.201         	13.407         	9.388
MS.202         	13.38          	9.384
MS.203         	13.352         	9.354
MS.204         	13.325         	9.344
MS.205         	13.3           	9.378
MS.206         	13.273         	9.324
MS.207         	13.247         	9.372
MS.208         	13.22          	9.354
MS.209         	13.193         	9.362
MS.210         	13.167         	9.342
MS.211         	13.14          	9.32
MS.212         	13.115         	9.287
MS.213         	13.087         	9.313
MS.214         	13.062         	9.269
MS.215         	13.035         	9.309
MS.216         	13.01          	9.269
MS.217         	12.985         	9.285
MS.218         	12.957         	9.322
MS.219         	12.932         	9.315
MS.220         	12.907         	9.245
MS.221         	12.88          	9.267
MS.222         	12.855         	9.283
MS.223         	12.83          	9.213
MS.224         	12.802         	9.275
MS.225         	12.778         	9.275
MS.226         	12.752         	9.289
MS.227         	12.727         	9.291
MS.228         	12.702         	9.207
MS.229         	12.675         	9.249
MS.230         	12.65          	9.275
MS.231         	12.625         	9.183
MS.232         	12.6           	9.247
MS.233         	12.575         	9.231
MS.234         	12.55          	9.231
MS.235         	12.525         	9.239
MS.236         	12.5           	9.221
MS.237         	12.475         	9.235
MS.238         	12.45          	9.154
MS.239         	12.425         	9.162
MS.240         	12.4           	9.166
MS.241         	12.375         	9.154
MS.242         	12.35          	9.221
MS.243         	12.325         	9.154
MS.244         	12.302         	9.227
MS.245         	12.278         	9.152
MS.246         	12.252         	9.191
MS.247         	12.227         	9.162
MS.248         	12.202         	9.158
MS.249         	12.18          	9.203
MS.250         	12.155         	9.183
MS.251         	12.13          	9.126
MS.252         	12.108         	9.12
MS.253         	12.082         	9.11
MS.254         	12.057         	9.072
MS.255         	12.035         	8.991
MS.256         	12.01          	9.084
MS.257         	11.985         	9.007
MS.258         	11.962         	9.001
MS.259         	11.938         	9.09
MS.260         	11.915         	9.005
MS.261         	11.89          	9.068
MS.262         	11.867         	8.967
MS.263         	11.842         	9.025
MS.264         	11.82          	8.935
MS.265         	11.795         	8.939
MS.266         	11.773         	8.888
MS.267         	11.747         	8.893
MS.268         	11.725         	9.005
MS.269         	11.702         	8.747
MS.270         	11.677         	8.866
MS.271         	11.655         	8.768
MS.272         	11.632         	8.866
MS.273         	11.608         	8.848
MS.274         	11.585         	8.782
MS.275         	11.562         	8.635
MS.276         	11.54          	8.643
MS.277         	11.515         	8.893
MS.278         	11.492         	8.856
MS.279         	11.47          	8.85
MS.280         	11.447         	8.681
MS.281         	11.425         	8.856
MS.282         	11.403         	8.729
MS.283         	11.377         	8.609
MS.284         	11.355         	8.508
MS.285         	11.332         	8.693
MS.286         	11.31          	8.633
MS.287         	11.287         	8.524
MS.288         	11.265         	8.518
MS.289         	11.242         	8.484
MS.290         	11.22          	8.611
MS.291         	11.197         	8.578
MS.292         	11.175         	8.534
MS.293         	11.153         	8.498
MS.294         	11.13          	8.421
MS.295         	11.108         	8.51
MS.296         	11.087         	8.554
MS.297         	11.065         	8.586
MS.298         	11.042         	8.546
MS.299         	11.02          	8.472
MS.300         	10.997         	8.429
MS.301         	10.975         	8.574
MS.302         	10.955         	8.566
MS.303         	10.932         	8.51
MS.304         	10.91          	8.421
MS.305         	10.887         	8.391
MS.306         	10.867         	8.377
MS.307         	10.845         	8.385
MS.308         	10.823         	8.437
MS.309         	10.802         	8.429
MS.310         	10.78          	8.401
MS.311         	10.76          	8.284
MS.312         	10.738         	8.296
MS.313         	10.715         	8.357
MS.314         	10.695         	8.331
MS.315         	10.672         	8.399
MS.316         	10.653         	8.276
MS.317         	10.63          	8.308
MS.318         	10.61          	8.23
MS.319         	10.587         	8.341
MS.320         	10.568         	8.262
MS.321         	10.545         	8.3
MS.322         	10.525         	8.165
MS.323         	10.502         	8.18
MS.324         	10.483         	8.169
MS.325         	10.462         	8.208
MS.326         	10.44          	8.131
MS.327         	10.42          	8.159
MS.328         	10.4           	7.904
MS.329         	10.377         	8.032
MS.330         	10.358         	8.051
MS.331         	10.337         	7.831
MS.332         	10.318         	7.992
MS.333         	10.295         	7.976
MS.334         	10.275         	7.779
MS.335         	10.255         	7.668
MS.336         	10.235         	7.795
MS.337         	10.212         	7.916
MS.338         	10.193         	7.519
MS.339         	10.172         	7.591
MS.340         	10.153         	7.642
MS.341         	10.132         	7.507
MS.342         	10.113         	7.509
MS.343         	10.092         	7.557
MS.344         	10.073         	7.497
MS.345         	10.052         	7.575
MS.346         	10.032         	7.491
MS.347         	10.012         	7.265
MS.348         	9.992          	7.315
MS.349         	9.972          	7.225
MS.350         	9.952          	7.082
MS.351         	9.932          	7.289
MS.352         	9.912          	7.251
MS.353         	9.892          	7.213
MS.354         	9.872          	7.249
MS.355         	9.852          	7.128
MS.356         	9.832          	7.104
MS.357         	9.812          	6.981
MS.358         	9.792          	6.864
MS.359         	9.775          	7.007
MS.360         	9.755          	6.999
MS.361         	9.735          	7.011
MS.362         	9.715          	7.072
MS.363         	9.695          	7.094
MS.364         	9.677          	6.856
MS.365         	9.657          	6.749
MS.366         	9.637          	6.755
MS.367         	9.62           	6.747
MS.368         	9.6            	6.84
MS.369         	9.58           	6.721
MS.370         	9.562          	6.741
MS.371         	9.542          	6.79
MS.372         	9.523          	6.715
MS.373         	9.505          	6.59
MS.374         	9.485          	6.866
MS.375         	9.465          	6.665
MS.376         	9.448          	6.689
MS.377         	9.427          	6.655
MS.378         	9.41           	6.467
MS.379         	9.39           	6.316
MS.380         	9.372          	6.536
MS.381         	9.352          	6.427
MS.382         	9.335          	6.48
MS.383         	9.315          	6.264
MS.384         	9.297          	6.324
MS.385         	9.28           	6.288
MS.386         	9.26           	6.21
MS.387         	9.242          	6.306
MS.388         	9.222          	6.198
MS.389         	9.205          	6.169
MS.390         	9.188          	6.113
MS.391         	9.167          	6.131
MS.392         	9.15           	6.028
MS.393         	9.132          	6.002
MS.394         	9.113          	6.188
MS.395         	9.095          	5.96
MS.396         	9.077          	5.958
MS.397         	9.057          	5.887
MS.398         	9.04           	5.791
MS.399         	9.023          	5.849
MS.400         	9.005          	5.875
MS.401         	8.988          	5.809
MS.402         	8.967          	5.849
MS.403         	8.95           	5.787
MS.404         	8.932          	5.859
MS.405         	8.915          	5.738
MS.406         	8.898          	5.785
MS.407         	8.88           	5.771
MS.408         	8.863          	5.833
MS.409         	8.845          	5.62
MS.410         	8.825          	5.724
MS.411         	8.807          	5.68
MS.412         	8.79           	5.46
MS.413         	8.773          	5.428
MS.414         	8.755          	5.563
MS.415         	8.738          	5.545
MS.416         	8.72           	5.503
MS.417         	8.702          	5.422
MS.418         	8.685          	5.376
MS.419         	8.67           	5.368
MS.420         	8.653          	5.317
MS.421         	8.635          	5.352
MS.422         	8.617          	5.182
MS.423         	8.6            	5.257
MS.424         	8.582          	5.297
MS.425         	8.565          	5.197
MS.426         	8.547          	5.197
MS.427         	8.53           	5.136
MS.428         	8.515          	5.043
MS.429         	8.497          	5.136
MS.430         	8.48           	5.062
MS.431         	8.462          	5.076
MS.432         	8.448          	4.89
MS.433         	8.43           	5.007
MS.434         	8.412          	4.894
MS.435         	8.395          	4.665
MS.436         	8.38           	4.985
MS.437         	8.363          	4.864
MS.438         	8.345          	4.784
MS.439         	8.33           	4.772
MS.440         	8.312          	4.717
MS.441         	8.295          	4.759
MS.442         	8.28           	4.465
MS.443         	8.262          	4.532
MS.444         	8.245          	4.351
MS.445         	8.23           	4.641
MS.446         	8.212          	4.506
MS.447         	8.198          	4.542
MS.448         	8.18           	4.322
MS.449         	8.165          	4.504
MS.450         	8.148          	4.473
MS.451         	8.132          	4.347
MS.452         	8.115          	4.147
MS.453         	8.1            	4.312
MS.454         	8.082          	3.976
MS.455         	8.068          	4.109
MS.456         	8.05           	4.135
MS.457         	8.035          	4.018
MS.458         	8.017          	3.986
MS.459         	8.002          	3.932
MS.460         	7.987          	3.918
MS.461         	7.97           	3.849
MS.462         	7.955          	3.869
MS.463         	7.938          	3.777
MS.464         	7.922          	3.742
MS.465         	7.907          	3.817
MS.466         	7.89           	3.793
MS.467         	7.875          	3.632
MS.468         	7.86           	3.69
MS.469         	7.845          	3.672
MS.470         	7.827          	3.664
MS.471         	7.812          	3.575
MS.472         	7.797          	3.547
MS.473         	7.782          	3.591
MS.474         	7.765          	3.509
MS.475         	7.75           	3.519
MS.476         	7.735          	3.511
MS.477         	7.72           	3.495
MS.478         	7.705          	3.404
MS.479         	7.688          	3.275
MS.480         	7.672          	3.299
MS.481         	7.657          	3.233
MS.482         	7.642          	3.186
MS.483         	7.628          	3.148
MS.484         	7.612          	3.203
MS.485         	7.597          	3.19
MS.486         	7.582          	3.188
MS.487         	7.567          	3.041
MS.488         	7.552          	3.126
MS.489         	7.537          	3.122
MS.490         	7.52           	2.997
MS.491         	7.505          	2.991
MS.492         	7.49           	2.935
MS.493         	7.475          	3.035
MS.494         	7.462          	2.945
MS.495         	7.447          	2.796
MS.496         	7.432          	2.919
MS.497         	7.418          	2.874
MS.498         	7.402          	2.814
MS.499         	7.387          	2.959
MS.500         	7.372          	2.643
