File:              	C:\Qtrac\Data\Daniel M Sørensen\MScan multicentre study\Data from centres\Newcastle\Processed data\SMC00218C.QZD
Name:              	UK.NEW.NC.4.1
Protocol:          	MSCAN-R2
Date:              	18/2/20
Start time:        	10:08:19
Age:               	49
Sex:               	M
Temperature:       	32.5
S/R sites:         	TA
NC/disease:        	NC
Operator:          	SM
Comments:
M-SCAN DATA (3.6-0.0m)
Scanpts: 198, 221, 847, 884
Stim. (mA)     	Amp. (mV)
MS.1           	36             	12.591
MS.2           	36             	12.45
MS.3           	35.855         	12.536
MS.4           	35.785         	12.621
MS.5           	35.712         	12.439
MS.6           	35.642         	12.562
MS.7           	35.57          	12.603
MS.8           	35.5           	12.605
MS.9           	35.427         	12.504
MS.10          	35.357         	12.574
MS.11          	35.287         	12.584
MS.12          	35.217         	12.645
MS.13          	35.145         	12.659
MS.14          	35.075         	12.443
MS.15          	35.005         	12.629
MS.16          	34.935         	12.683
MS.17          	34.865         	12.466
MS.18          	34.798         	12.637
MS.19          	34.728         	12.619
MS.20          	34.657         	12.526
MS.21          	34.587         	12.566
MS.22          	34.52          	12.627
MS.23          	34.45          	12.647
MS.24          	34.382         	12.631
MS.25          	34.312         	12.631
MS.26          	34.245         	12.619
MS.27          	34.175         	12.685
MS.28          	34.107         	12.631
MS.29          	34.04          	12.486
MS.30          	33.972         	12.633
MS.31          	33.903         	12.591
MS.32          	33.835         	12.653
MS.33          	33.767         	12.478
MS.34          	33.7           	12.653
MS.35          	33.632         	12.76
MS.36          	33.565         	12.615
MS.37          	33.5           	12.572
MS.38          	33.432         	12.681
MS.39          	33.365         	12.695
MS.40          	33.298         	12.701
MS.41          	33.232         	12.643
MS.42          	33.165         	12.605
MS.43          	33.1           	12.635
MS.44          	33.032         	12.629
MS.45          	32.967         	12.699
MS.46          	32.903         	12.506
MS.47          	32.835         	12.685
MS.48          	32.77          	12.492
MS.49          	32.705         	12.554
MS.50          	32.64          	12.729
MS.51          	32.575         	12.685
MS.52          	32.51          	12.742
MS.53          	32.445         	12.687
MS.54          	32.38          	12.637
MS.55          	32.315         	12.631
MS.56          	32.25          	12.707
MS.57          	32.185         	12.713
MS.58          	32.12          	12.572
MS.59          	32.057         	12.546
MS.60          	31.992         	12.635
MS.61          	31.93          	12.683
MS.62          	31.865         	12.762
MS.63          	31.802         	12.792
MS.64          	31.737         	12.679
MS.65          	31.675         	12.768
MS.66          	31.612         	12.651
MS.67          	31.547         	12.764
MS.68          	31.485         	12.701
MS.69          	31.422         	12.774
MS.70          	31.36          	12.717
MS.71          	31.297         	12.665
MS.72          	31.235         	12.508
MS.73          	31.172         	12.74
MS.74          	31.11          	12.76
MS.75          	31.047         	12.689
MS.76          	30.985         	12.754
MS.77          	30.922         	12.75
MS.78          	30.862         	12.76
MS.79          	30.8           	12.768
MS.80          	30.737         	12.544
MS.81          	30.677         	12.732
MS.82          	30.615         	12.79
MS.83          	30.555         	12.778
MS.84          	30.492         	12.659
MS.85          	30.432         	12.792
MS.86          	30.372         	12.705
MS.87          	30.31          	12.742
MS.88          	30.25          	12.786
MS.89          	30.19          	12.762
MS.90          	30.13          	12.784
MS.91          	30.07          	12.804
MS.92          	30.01          	12.788
MS.93          	29.95          	12.794
MS.94          	29.89          	12.738
MS.95          	29.83          	12.778
MS.96          	29.77          	12.729
MS.97          	29.71          	12.806
MS.98          	29.653         	12.74
MS.99          	29.592         	12.854
MS.100         	29.532         	12.828
MS.101         	29.475         	12.764
MS.102         	29.415         	12.834
MS.103         	29.358         	12.707
MS.104         	29.297         	12.74
MS.105         	29.24          	12.77
MS.106         	29.18          	12.832
MS.107         	29.122         	12.852
MS.108         	29.065         	12.806
MS.109         	29.007         	12.8
MS.110         	28.948         	12.685
MS.111         	28.89          	12.651
MS.112         	28.832         	12.774
MS.113         	28.775         	12.834
MS.114         	28.717         	12.824
MS.115         	28.66          	12.802
MS.116         	28.602         	12.758
MS.117         	28.545         	12.905
MS.118         	28.49          	12.842
MS.119         	28.432         	12.788
MS.120         	28.375         	12.627
MS.121         	28.317         	12.683
MS.122         	28.262         	12.868
MS.123         	28.205         	12.818
MS.124         	28.15          	12.754
MS.125         	28.092         	12.685
MS.126         	28.037         	12.83
MS.127         	27.98          	12.828
MS.128         	27.925         	12.931
MS.129         	27.87          	12.677
MS.130         	27.812         	12.768
MS.131         	27.757         	12.703
MS.132         	27.702         	12.669
MS.133         	27.647         	12.691
MS.134         	27.592         	12.84
MS.135         	27.537         	12.75
MS.136         	27.483         	12.687
MS.137         	27.427         	12.877
MS.138         	27.372         	12.905
MS.139         	27.317         	12.848
MS.140         	27.262         	12.905
MS.141         	27.207         	12.659
MS.142         	27.153         	12.709
MS.143         	27.1           	12.687
MS.144         	27.045         	12.901
MS.145         	26.993         	12.633
MS.146         	26.938         	12.879
MS.147         	26.882         	12.848
MS.148         	26.83          	12.691
MS.149         	26.775         	12.82
MS.150         	26.722         	12.729
MS.151         	26.67          	12.701
MS.152         	26.615         	12.673
MS.153         	26.562         	12.687
MS.154         	26.51          	12.645
MS.155         	26.457         	12.717
MS.156         	26.405         	12.715
MS.157         	26.35          	12.764
MS.158         	26.297         	12.671
MS.159         	26.245         	12.913
MS.160         	26.192         	12.677
MS.161         	26.14          	12.667
MS.162         	26.09          	12.842
MS.163         	26.037         	12.659
MS.164         	25.985         	12.929
MS.165         	25.932         	12.774
MS.166         	25.88          	12.685
MS.167         	25.83          	12.883
MS.168         	25.778         	12.754
MS.169         	25.727         	12.707
MS.170         	25.675         	12.776
MS.171         	25.622         	12.713
MS.172         	25.573         	12.695
MS.173         	25.522         	12.713
MS.174         	25.47          	12.727
MS.175         	25.42          	12.826
MS.176         	25.368         	12.715
MS.177         	25.317         	12.86
MS.178         	25.267         	12.758
MS.179         	25.217         	12.711
MS.180         	25.167         	12.729
MS.181         	25.115         	12.76
MS.182         	25.065         	12.746
MS.183         	25.015         	12.723
MS.184         	24.965         	12.699
MS.185         	24.915         	12.715
MS.186         	24.868         	12.752
MS.187         	24.817         	12.762
MS.188         	24.767         	12.887
MS.189         	24.717         	12.723
MS.190         	24.667         	12.764
MS.191         	24.62          	12.933
MS.192         	24.57          	12.717
MS.193         	24.52          	12.744
MS.194         	24.472         	12.931
MS.195         	24.422         	12.764
MS.196         	24.375         	12.717
MS.197         	24.325         	12.877
MS.198         	24.278         	12.764
MS.199         	24.227         	12.742
MS.200         	24.18          	12.717
MS.201         	24.132         	12.802
MS.202         	24.082         	12.919
MS.203         	24.035         	12.705
MS.204         	23.987         	12.866
MS.205         	23.94          	12.937
MS.206         	23.892         	12.768
MS.207         	23.842         	12.756
MS.208         	23.795         	12.758
MS.209         	23.747         	12.772
MS.210         	23.7           	12.911
MS.211         	23.653         	12.766
MS.212         	23.608         	12.74
MS.213         	23.56          	12.951
MS.214         	23.512         	12.776
MS.215         	23.465         	12.766
MS.216         	23.417         	12.729
MS.217         	23.372         	12.792
MS.218         	23.325         	12.798
MS.219         	23.278         	12.899
MS.220         	23.233         	12.766
MS.221         	23.185         	12.806
MS.222         	23.14          	12.897
MS.223         	23.092         	12.75
MS.224         	23.047         	12.776
MS.225         	23             	12.772
MS.226         	22.955         	12.798
MS.227         	22.907         	12.776
MS.228         	22.862         	12.76
MS.229         	22.817         	12.768
MS.230         	22.772         	12.84
MS.231         	22.725         	12.877
MS.232         	22.68          	12.715
MS.233         	22.635         	12.8
MS.234         	22.59          	12.721
MS.235         	22.545         	12.937
MS.236         	22.5           	12.713
MS.237         	22.455         	12.931
MS.238         	22.41          	12.927
MS.239         	22.365         	12.802
MS.240         	22.32          	12.732
MS.241         	22.275         	12.915
MS.242         	22.233         	12.742
MS.243         	22.188         	12.931
MS.244         	22.142         	12.715
MS.245         	22.097         	12.738
MS.246         	22.055         	12.957
MS.247         	22.01          	12.764
MS.248         	21.967         	12.897
MS.249         	21.922         	12.919
MS.250         	21.877         	12.854
MS.251         	21.835         	12.758
MS.252         	21.792         	12.933
MS.253         	21.747         	12.725
MS.254         	21.705         	12.756
MS.255         	21.66          	12.764
MS.256         	21.618         	12.76
MS.257         	21.575         	12.832
MS.258         	21.532         	12.997
MS.259         	21.487         	12.921
MS.260         	21.445         	12.927
MS.261         	21.403         	12.792
MS.262         	21.36          	12.931
MS.263         	21.317         	12.983
MS.264         	21.275         	12.76
MS.265         	21.233         	12.756
MS.266         	21.19          	12.82
MS.267         	21.147         	12.806
MS.268         	21.105         	12.782
MS.269         	21.062         	13.013
MS.270         	21.02          	12.768
MS.271         	20.98          	13.005
MS.272         	20.938         	12.758
MS.273         	20.895         	12.732
MS.274         	20.852         	12.778
MS.275         	20.812         	12.76
MS.276         	20.77          	12.752
MS.277         	20.727         	12.736
MS.278         	20.688         	12.685
MS.279         	20.645         	12.76
MS.280         	20.605         	12.637
MS.281         	20.562         	12.627
MS.282         	20.522         	12.589
MS.283         	20.483         	12.655
MS.284         	20.44          	12.623
MS.285         	20.4           	12.782
MS.286         	20.36          	12.629
MS.287         	20.317         	12.621
MS.288         	20.278         	12.613
MS.289         	20.237         	12.496
MS.290         	20.198         	12.625
MS.291         	20.157         	12.744
MS.292         	20.115         	12.56
MS.293         	20.075         	12.639
MS.294         	20.035         	12.687
MS.295         	19.995         	12.701
MS.296         	19.955         	12.663
MS.297         	19.915         	12.822
MS.298         	19.875         	12.593
MS.299         	19.837         	12.484
MS.300         	19.797         	12.623
MS.301         	19.757         	12.756
MS.302         	19.717         	12.758
MS.303         	19.677         	12.858
MS.304         	19.64          	12.548
MS.305         	19.6           	12.536
MS.306         	19.56          	12.619
MS.307         	19.522         	12.643
MS.308         	19.483         	12.661
MS.309         	19.442         	12.504
MS.310         	19.405         	12.655
MS.311         	19.365         	12.464
MS.312         	19.327         	12.645
MS.313         	19.288         	12.564
MS.314         	19.25          	12.46
MS.315         	19.212         	12.472
MS.316         	19.172         	12.429
MS.317         	19.135         	12.464
MS.318         	19.097         	12.484
MS.319         	19.057         	12.427
MS.320         	19.02          	12.524
MS.321         	18.983         	12.472
MS.322         	18.945         	12.49
MS.323         	18.907         	12.607
MS.324         	18.87          	12.506
MS.325         	18.83          	12.593
MS.326         	18.792         	12.617
MS.327         	18.755         	12.719
MS.328         	18.717         	12.58
MS.329         	18.68          	12.51
MS.330         	18.645         	12.448
MS.331         	18.608         	12.492
MS.332         	18.57          	12.558
MS.333         	18.532         	12.504
MS.334         	18.495         	12.53
MS.335         	18.458         	12.466
MS.336         	18.422         	12.464
MS.337         	18.385         	12.405
MS.338         	18.347         	12.486
MS.339         	18.31          	12.47
MS.340         	18.275         	12.52
MS.341         	18.237         	12.48
MS.342         	18.202         	12.558
MS.343         	18.165         	12.673
MS.344         	18.13          	12.522
MS.345         	18.092         	12.574
MS.346         	18.057         	12.619
MS.347         	18.02          	12.643
MS.348         	17.985         	12.711
MS.349         	17.948         	12.498
MS.350         	17.913         	12.445
MS.351         	17.878         	12.46
MS.352         	17.842         	12.574
MS.353         	17.805         	12.611
MS.354         	17.77          	12.534
MS.355         	17.735         	12.48
MS.356         	17.7           	12.498
MS.357         	17.665         	12.464
MS.358         	17.628         	12.468
MS.359         	17.592         	12.552
MS.360         	17.557         	12.474
MS.361         	17.522         	12.536
MS.362         	17.487         	12.502
MS.363         	17.452         	12.486
MS.364         	17.417         	12.496
MS.365         	17.382         	12.528
MS.366         	17.347         	12.51
MS.367         	17.315         	12.433
MS.368         	17.28          	12.492
MS.369         	17.245         	12.49
MS.370         	17.21          	12.492
MS.371         	17.175         	12.566
MS.372         	17.142         	12.476
MS.373         	17.108         	12.496
MS.374         	17.073         	12.486
MS.375         	17.04          	12.421
MS.376         	17.005         	12.407
MS.377         	16.97          	12.46
MS.378         	16.938         	12.439
MS.379         	16.903         	12.486
MS.380         	16.87          	12.476
MS.381         	16.835         	12.433
MS.382         	16.802         	12.417
MS.383         	16.767         	12.506
MS.384         	16.735         	12.462
MS.385         	16.702         	12.192
MS.386         	16.667         	12.276
MS.387         	16.635         	12.256
MS.388         	16.602         	12.25
MS.389         	16.567         	12.415
MS.390         	16.535         	12.288
MS.391         	16.503         	12.274
MS.392         	16.47          	12.262
MS.393         	16.438         	12.232
MS.394         	16.405         	12.214
MS.395         	16.37          	12.224
MS.396         	16.337         	12.335
MS.397         	16.305         	12.006
MS.398         	16.272         	12.196
MS.399         	16.24          	12.19
MS.400         	16.208         	12.067
MS.401         	16.175         	12.107
MS.402         	16.142         	12.051
MS.403         	16.11          	12.018
MS.404         	16.08          	12.045
MS.405         	16.047         	12.023
MS.406         	16.015         	12.123
MS.407         	15.983         	12.111
MS.408         	15.95          	11.964
MS.409         	15.92          	12.087
MS.410         	15.887         	12.091
MS.411         	15.855         	11.944
MS.412         	15.825         	11.906
MS.413         	15.792         	11.938
MS.414         	15.76          	12.002
MS.415         	15.73          	11.789
MS.416         	15.697         	11.714
MS.417         	15.667         	11.771
MS.418         	15.635         	11.88
MS.419         	15.605         	11.809
MS.420         	15.572         	11.998
MS.421         	15.542         	11.948
MS.422         	15.51          	11.884
MS.423         	15.48          	11.906
MS.424         	15.447         	11.888
MS.425         	15.417         	11.702
MS.426         	15.387         	11.827
MS.427         	15.355         	11.624
MS.428         	15.325         	11.896
MS.429         	15.295         	11.743
MS.430         	15.265         	11.718
MS.431         	15.235         	11.493
MS.432         	15.202         	11.223
MS.433         	15.172         	11.37
MS.434         	15.142         	11.465
MS.435         	15.112         	11.561
MS.436         	15.082         	11.356
MS.437         	15.052         	11.567
MS.438         	15.023         	11.432
MS.439         	14.992         	10.838
MS.440         	14.962         	11.032
MS.441         	14.932         	11.261
MS.442         	14.902         	10.546
MS.443         	14.872         	11.026
MS.444         	14.842         	10.663
MS.445         	14.812         	10.798
MS.446         	14.782         	10.576
MS.447         	14.755         	10.921
MS.448         	14.725         	10.443
MS.449         	14.695         	11.003
MS.450         	14.665         	10.49
MS.451         	14.637         	10.496
MS.452         	14.608         	10.526
MS.453         	14.577         	10.482
MS.454         	14.55          	10.647
MS.455         	14.52          	10.707
MS.456         	14.49          	10.492
MS.457         	14.462         	10.514
MS.458         	14.432         	10.28
MS.459         	14.405         	10.18
MS.460         	14.375         	9.97
MS.461         	14.347         	10.135
MS.462         	14.318         	10.389
MS.463         	14.29          	10.178
MS.464         	14.26          	10.125
MS.465         	14.233         	10.043
MS.466         	14.205         	10.167
MS.467         	14.175         	10.022
MS.468         	14.148         	9.952
MS.469         	14.12          	10.246
MS.470         	14.09          	9.996
MS.471         	14.062         	10.226
MS.472         	14.035         	10.26
MS.473         	14.007         	9.803
MS.474         	13.977         	10.093
MS.475         	13.95          	9.962
MS.476         	13.922         	9.702
MS.477         	13.895         	9.841
MS.478         	13.867         	9.696
MS.479         	13.84          	9.74
MS.480         	13.812         	9.63
MS.481         	13.785         	9.726
MS.482         	13.757         	9.672
MS.483         	13.73          	9.326
MS.484         	13.702         	9.483
MS.485         	13.675         	9.444
MS.486         	13.648         	9.32
MS.487         	13.62          	9.426
MS.488         	13.592         	9.11
MS.489         	13.565         	9.126
