File:              	C:\Qtrac\Data\Daniel M Sørensen\MScan multicentre study\Data from centres\Oslo\Processed data\SZC00702C.QZD
Name:              	NO.OSL.NC.20.2
Protocol:          	MSCAN-R2
Date:              	2/7/20
Start time:        	09:31:00
Age:               	59
Sex:               	M
Temperature:       	31.6
S/R sites:         	TA
NC/disease:        	NC20
Operator:          	SZ
Comments:          	Test2
M-SCAN DATA (9.6-3.2m)
Scanpts: 6, 14, 627, 644
Stim. (mA)     	Amp. (mV)
MS.1           	31.5           	7.483
MS.2           	31.5           	7.448
MS.3           	31.5           	7.452
MS.4           	31.5           	7.412
MS.5           	31.5           	7.396
MS.6           	31.5           	7.378
MS.7           	31.5           	7.404
MS.8           	31.5           	7.35
MS.9           	31.5           	7.388
MS.10          	31.5           	7.378
MS.11          	31.5           	7.307
MS.12          	31.5           	7.344
MS.13          	31.5           	7.378
MS.14          	31.5           	7.356
MS.15          	31.5           	7.388
MS.16          	31.5           	7.388
MS.17          	31.5           	7.38
MS.18          	31.5           	7.315
MS.19          	31.5           	7.388
MS.20          	31.5           	7.372
MS.21          	31.5           	7.317
MS.22          	31.5           	7.346
MS.23          	31.5           	7.404
MS.24          	31.375         	7.263
MS.25          	31.312         	7.323
MS.26          	31.25          	7.269
MS.27          	31.188         	7.269
MS.28          	31.125         	7.265
MS.29          	31.062         	7.303
MS.30          	31             	7.201
MS.31          	30.938         	7.201
MS.32          	30.875         	7.259
MS.33          	30.815         	7.225
MS.34          	30.752         	7.187
MS.35          	30.692         	7.174
MS.36          	30.63          	7.203
MS.37          	30.57          	7.172
MS.38          	30.507         	7.158
MS.39          	30.448         	7.174
MS.40          	30.385         	7.084
MS.41          	30.325         	7.122
MS.42          	30.265         	7.078
MS.43          	30.205         	7.003
MS.44          	30.145         	7.09
MS.45          	30.082         	7.068
MS.46          	30.022         	6.991
MS.47          	29.962         	6.917
MS.48          	29.903         	6.999
MS.49          	29.845         	6.86
MS.50          	29.785         	6.935
MS.51          	29.725         	6.923
MS.52          	29.665         	6.901
MS.53          	29.605         	6.828
MS.54          	29.547         	6.896
MS.55          	29.487         	6.856
MS.56          	29.43          	6.828
MS.57          	29.37          	6.856
MS.58          	29.312         	6.782
MS.59          	29.252         	6.834
MS.60          	29.195         	6.83
MS.61          	29.137         	6.806
MS.62          	29.077         	6.868
MS.63          	29.02          	6.768
MS.64          	28.962         	6.715
MS.65          	28.905         	6.691
MS.66          	28.847         	6.719
MS.67          	28.787         	6.669
MS.68          	28.73          	6.727
MS.69          	28.675         	6.677
MS.70          	28.618         	6.635
MS.71          	28.56          	6.641
MS.72          	28.502         	6.665
MS.73          	28.445         	6.584
MS.74          	28.387         	6.657
MS.75          	28.332         	6.61
MS.76          	28.275         	6.532
MS.77          	28.217         	6.486
MS.78          	28.162         	6.482
MS.79          	28.105         	6.425
MS.80          	28.05          	6.411
MS.81          	27.995         	6.52
MS.82          	27.938         	6.469
MS.83          	27.882         	6.335
MS.84          	27.827         	6.3
MS.85          	27.77          	6.375
MS.86          	27.715         	6.439
MS.87          	27.66          	6.522
MS.88          	27.605         	6.439
MS.89          	27.55          	6.393
MS.90          	27.495         	6.304
MS.91          	27.44          	6.286
MS.92          	27.385         	6.304
MS.93          	27.33          	6.198
MS.94          	27.275         	6.236
MS.95          	27.22          	6.314
MS.96          	27.167         	6.308
MS.97          	27.112         	6.264
MS.98          	27.057         	6.244
MS.99          	27.005         	6.173
MS.100         	26.95          	6.089
MS.101         	26.895         	6.2
MS.102         	26.842         	6.153
MS.103         	26.79          	6.163
MS.104         	26.735         	5.97
MS.105         	26.682         	5.934
MS.106         	26.627         	6.133
MS.107         	26.575         	5.825
MS.108         	26.522         	5.972
MS.109         	26.47          	6.047
MS.110         	26.417         	5.94
MS.111         	26.362         	5.823
MS.112         	26.31          	5.859
MS.113         	26.257         	5.958
MS.114         	26.205         	5.76
MS.115         	26.153         	5.871
MS.116         	26.102         	5.71
MS.117         	26.05          	5.74
MS.118         	25.997         	5.76
MS.119         	25.945         	5.682
MS.120         	25.892         	5.664
MS.121         	25.842         	5.581
MS.122         	25.79          	5.569
MS.123         	25.737         	5.571
MS.124         	25.688         	5.605
MS.125         	25.635         	5.553
MS.126         	25.585         	5.402
MS.127         	25.532         	5.45
MS.128         	25.483         	5.372
MS.129         	25.432         	5.34
MS.130         	25.38          	5.362
MS.131         	25.33          	5.273
MS.132         	25.28          	5.251
MS.133         	25.227         	5.197
MS.134         	25.177         	5.193
MS.135         	25.127         	5.18
MS.136         	25.077         	5.088
MS.137         	25.028         	5.054
MS.138         	24.977         	5.019
MS.139         	24.927         	4.965
MS.140         	24.877         	4.951
MS.141         	24.827         	4.878
MS.142         	24.778         	4.917
MS.143         	24.73          	4.846
MS.144         	24.68          	4.768
MS.145         	24.63          	4.687
MS.146         	24.58          	4.669
MS.147         	24.532         	4.633
MS.148         	24.483         	4.631
MS.149         	24.435         	4.467
MS.150         	24.385         	4.377
MS.151         	24.337         	4.328
MS.152         	24.288         	4.25
MS.153         	24.24          	4.212
MS.154         	24.19          	4.038
MS.155         	24.142         	4.052
MS.156         	24.095         	4.091
MS.157         	24.047         	3.94
MS.158         	23.997         	3.911
MS.159         	23.95          	3.873
MS.160         	23.903         	3.926
MS.161         	23.855         	3.809
MS.162         	23.807         	3.754
MS.163         	23.76          	3.819
MS.164         	23.712         	3.853
MS.165         	23.665         	3.777
MS.166         	23.618         	3.809
MS.167         	23.57          	3.732
MS.168         	23.522         	3.688
MS.169         	23.475         	3.74
MS.170         	23.43          	3.688
MS.171         	23.382         	3.72
MS.172         	23.335         	3.601
MS.173         	23.29          	3.561
MS.174         	23.243         	3.569
MS.175         	23.195         	3.491
MS.176         	23.15          	3.547
MS.177         	23.102         	3.599
MS.178         	23.057         	3.521
MS.179         	23.01          	3.468
MS.180         	22.965         	3.444
MS.181         	22.92          	3.448
MS.182         	22.872         	3.378
MS.183         	22.827         	3.472
MS.184         	22.782         	3.404
MS.185         	22.737         	3.4
MS.186         	22.692         	3.472
MS.187         	22.645         	3.329
MS.188         	22.6           	3.366
MS.189         	22.555         	3.279
MS.190         	22.51          	3.293
MS.191         	22.465         	3.297
MS.192         	22.42          	3.368
MS.193         	22.375         	3.392
MS.194         	22.33          	3.273
MS.195         	22.288         	3.279
MS.196         	22.243         	3.271
MS.197         	22.198         	3.327
MS.198         	22.153         	3.265
MS.199         	22.11          	3.265
MS.200         	22.065         	3.209
MS.201         	22.02          	3.247
MS.202         	21.977         	3.245
MS.203         	21.932         	3.148
MS.204         	21.89          	3.17
MS.205         	21.845         	3.168
MS.206         	21.802         	3.096
MS.207         	21.757         	3.134
MS.208         	21.715         	3.118
MS.209         	21.67          	3.152
MS.210         	21.627         	3.09
MS.211         	21.585         	3.003
MS.212         	21.542         	3.12
MS.213         	21.497         	3.074
MS.214         	21.455         	3.11
MS.215         	21.413         	2.927
MS.216         	21.37          	3.057
MS.217         	21.327         	3.066
MS.218         	21.285         	3.064
MS.219         	21.243         	2.943
MS.220         	21.2           	2.88
MS.221         	21.157         	3.035
MS.222         	21.115         	3.033
MS.223         	21.073         	2.886
MS.224         	21.03          	2.921
MS.225         	20.987         	2.965
MS.226         	20.948         	3.003
MS.227         	20.905         	2.852
MS.228         	20.862         	2.834
MS.229         	20.823         	2.858
MS.230         	20.78          	2.87
MS.231         	20.737         	2.87
MS.232         	20.698         	2.866
MS.233         	20.655         	2.939
MS.234         	20.615         	2.848
MS.235         	20.573         	2.81
MS.236         	20.532         	2.844
MS.237         	20.49          	2.868
MS.238         	20.45          	2.87
MS.239         	20.41          	2.792
MS.240         	20.368         	2.761
MS.241         	20.327         	2.822
MS.242         	20.288         	2.739
MS.243         	20.247         	2.78
MS.244         	20.205         	2.828
MS.245         	20.165         	2.765
MS.246         	20.125         	2.743
MS.247         	20.085         	2.687
MS.248         	20.045         	2.741
MS.249         	20.005         	2.747
MS.250         	19.965         	2.647
MS.251         	19.925         	2.659
MS.252         	19.885         	2.709
MS.253         	19.845         	2.723
MS.254         	19.805         	2.743
MS.255         	19.767         	2.675
MS.256         	19.727         	2.711
MS.257         	19.688         	2.641
MS.258         	19.647         	2.651
MS.259         	19.61          	2.578
MS.260         	19.57          	2.633
MS.261         	19.53          	2.645
MS.262         	19.493         	2.594
MS.263         	19.452         	2.598
MS.264         	19.415         	2.596
MS.265         	19.375         	2.53
MS.266         	19.337         	2.655
MS.267         	19.297         	2.532
MS.268         	19.26          	2.56
MS.269         	19.22          	2.635
MS.270         	19.182         	2.592
MS.271         	19.145         	2.5
MS.272         	19.105         	2.494
MS.273         	19.067         	2.578
MS.274         	19.03          	2.578
MS.275         	18.993         	2.471
MS.276         	18.952         	2.49
MS.277         	18.915         	2.435
MS.278         	18.877         	2.415
MS.279         	18.84          	2.363
MS.280         	18.802         	2.443
MS.281         	18.765         	2.373
MS.282         	18.727         	2.326
MS.283         	18.69          	2.33
MS.284         	18.653         	2.401
MS.285         	18.615         	2.355
MS.286         	18.577         	2.357
MS.287         	18.54          	2.385
MS.288         	18.505         	2.296
MS.289         	18.467         	2.338
MS.290         	18.43          	2.326
MS.291         	18.392         	2.266
MS.292         	18.358         	2.278
MS.293         	18.32          	2.415
MS.294         	18.282         	2.278
MS.295         	18.247         	2.328
MS.296         	18.21          	2.27
MS.297         	18.175         	2.326
MS.298         	18.137         	2.304
MS.299         	18.102         	2.256
MS.300         	18.065         	2.214
MS.301         	18.03          	2.262
MS.302         	17.993         	2.332
MS.303         	17.958         	2.232
MS.304         	17.92          	2.326
MS.305         	17.885         	2.189
MS.306         	17.85          	2.203
MS.307         	17.815         	2.197
MS.308         	17.778         	2.216
MS.309         	17.743         	2.187
MS.310         	17.708         	2.127
MS.311         	17.672         	2.212
MS.312         	17.637         	2.135
MS.313         	17.602         	2.214
MS.314         	17.567         	2.089
MS.315         	17.53          	2.149
MS.316         	17.495         	2.173
MS.317         	17.46          	2.183
MS.318         	17.427         	2.179
MS.319         	17.392         	2.129
MS.320         	17.358         	2.103
MS.321         	17.323         	2.125
MS.322         	17.288         	2.067
MS.323         	17.253         	2.161
MS.324         	17.217         	2.103
MS.325         	17.185         	2.109
MS.326         	17.15          	2.036
MS.327         	17.115         	2.052
MS.328         	17.083         	2.048
MS.329         	17.047         	2.024
MS.330         	17.012         	2.026
MS.331         	16.98          	2.028
MS.332         	16.945         	2.056
MS.333         	16.913         	2.034
MS.334         	16.878         	2.024
MS.335         	16.845         	2.022
MS.336         	16.81          	2.071
MS.337         	16.778         	1.964
MS.338         	16.743         	1.978
MS.339         	16.71          	2.034
MS.340         	16.675         	2.071
MS.341         	16.642         	2.016
MS.342         	16.61          	1.972
MS.343         	16.577         	1.984
MS.344         	16.542         	1.978
MS.345         	16.51          	1.944
MS.346         	16.477         	1.996
MS.347         	16.445         	1.968
MS.348         	16.413         	2.02
MS.349         	16.378         	1.962
MS.350         	16.345         	1.972
MS.351         	16.312         	1.968
MS.352         	16.28          	1.936
MS.353         	16.247         	1.948
MS.354         	16.215         	1.94
MS.355         	16.182         	1.774
MS.356         	16.15          	1.889
MS.357         	16.118         	1.855
MS.358         	16.087         	1.867
MS.359         	16.055         	1.895
MS.360         	16.022         	1.839
MS.361         	15.99          	1.857
MS.362         	15.957         	1.837
MS.363         	15.927         	1.813
MS.364         	15.895         	1.873
MS.365         	15.862         	1.799
MS.366         	15.83          	1.823
MS.367         	15.8           	1.841
MS.368         	15.767         	1.76
MS.369         	15.737         	1.74
MS.370         	15.705         	1.795
MS.371         	15.672         	1.843
MS.372         	15.642         	1.809
MS.373         	15.61          	1.803
MS.374         	15.58          	1.712
MS.375         	15.55          	1.75
MS.376         	15.517         	1.726
MS.377         	15.487         	1.795
MS.378         	15.455         	1.69
MS.379         	15.425         	1.674
MS.380         	15.395         	1.716
MS.381         	15.362         	1.676
MS.382         	15.332         	1.676
MS.383         	15.302         	1.668
MS.384         	15.273         	1.682
MS.385         	15.24          	1.66
MS.386         	15.21          	1.662
MS.387         	15.18          	1.676
MS.388         	15.15          	1.642
MS.389         	15.12          	1.646
MS.390         	15.09          	1.629
MS.391         	15.06          	1.601
MS.392         	15.03          	1.658
MS.393         	15             	1.607
MS.394         	14.97          	1.587
MS.395         	14.94          	1.438
MS.396         	14.91          	1.615
MS.397         	14.88          	1.621
MS.398         	14.85          	1.621
MS.399         	14.82          	1.635
MS.400         	14.79          	1.49
MS.401         	14.76          	1.519
MS.402         	14.733         	1.539
MS.403         	14.702         	1.438
MS.404         	14.672         	1.45
MS.405         	14.642         	1.42
MS.406         	14.615         	1.595
MS.407         	14.585         	1.587
MS.408         	14.555         	1.448
MS.409         	14.527         	1.402
MS.410         	14.497         	1.402
MS.411         	14.467         	1.394
MS.412         	14.44          	1.547
MS.413         	14.41          	1.368
MS.414         	14.382         	1.368
MS.415         	14.352         	1.412
MS.416         	14.325         	1.406
MS.417         	14.295         	1.41
MS.418         	14.267         	1.38
MS.419         	14.24          	1.47
MS.420         	14.21          	1.394
MS.421         	14.182         	1.402
MS.422         	14.155         	1.396
MS.423         	14.125         	1.414
MS.424         	14.097         	1.386
MS.425         	14.07          	1.444
MS.426         	14.04          	1.41
MS.427         	14.012         	1.398
MS.428         	13.985         	1.424
MS.429         	13.957         	1.412
MS.430         	13.93          	1.4
MS.431         	13.903         	1.384
MS.432         	13.872         	1.392
MS.433         	13.845         	1.384
MS.434         	13.818         	1.349
MS.435         	13.79          	1.404
MS.436         	13.762         	1.408
MS.437         	13.735         	1.414
MS.438         	13.707         	1.38
MS.439         	13.68          	1.36
MS.440         	13.653         	1.374
MS.441         	13.625         	1.364
MS.442         	13.6           	1.418
MS.443         	13.572         	1.392
MS.444         	13.545         	1.323
MS.445         	13.517         	1.331
MS.446         	13.49          	1.325
MS.447         	13.462         	1.255
MS.448         	13.438         	1.327
MS.449         	13.41          	1.305
MS.450         	13.382         	1.305
MS.451         	13.355         	1.285
MS.452         	13.33          	1.206
MS.453         	13.302         	1.211
MS.454         	13.278         	1.301
MS.455         	13.25          	1.182
MS.456         	13.222         	1.327
MS.457         	13.197         	1.184
MS.458         	13.17          	1.196
MS.459         	13.145         	1.227
MS.460         	13.117         	1.15
MS.461         	13.092         	1.18
MS.462         	13.065         	1.186
MS.463         	13.04          	1.116
MS.464         	13.012         	1.114
MS.465         	12.987         	1.255
MS.466         	12.962         	1.118
MS.467         	12.935         	1.16
MS.468         	12.91          	1.271
MS.469         	12.885         	1.148
MS.470         	12.858         	1.186
MS.471         	12.832         	1.136
MS.472         	12.807         	1.106
MS.473         	12.782         	1.148
MS.474         	12.755         	1.148
MS.475         	12.73          	1.088
MS.476         	12.705         	1.063
MS.477         	12.68          	1.094
MS.478         	12.655         	1.053
MS.479         	12.63          	1.005
MS.480         	12.602         	1.07
MS.481         	12.577         	1.019
MS.482         	12.552         	1.08
MS.483         	12.528         	1.029
MS.484         	12.502         	1.061
MS.485         	12.477         	1.021
MS.486         	12.452         	1.074
MS.487         	12.427         	0.981
MS.488         	12.403         	0.995
MS.489         	12.38          	0.993
MS.490         	12.355         	0.999
MS.491         	12.33          	0.989
MS.492         	12.305         	0.975
MS.493         	12.28          	0.965
MS.494         	12.255         	0.961
MS.495         	12.23          	0.977
MS.496         	12.207         	0.995
MS.497         	12.182         	0.918
MS.498         	12.157         	0.929
MS.499         	12.132         	0.963
MS.500         	12.11          	0.931
MS.501         	12.085         	0.973
