File:              	C:\Qtrac\Data\Daniel M Sørensen\MScan multicentre study\Data from centres\Oslo\Processed data\SZC00618I.QZD
Name:              	NO.OSL.NC.18.2
Protocol:          	MSCAN-R2
Date:              	18/6/20
Start time:        	17:23:44
Age:               	32
Sex:               	2
Temperature:       	?
S/R sites:         	TA
NC/disease:        	NC
Operator:          	SS
Comments:
M-SCAN DATA (8.3-1.7m)
Scanpts: 5, 14, 680, 699
Stim. (mA)     	Amp. (mV)
MS.1           	35             	7.698
MS.2           	35             	7.577
MS.3           	35             	7.607
MS.4           	35             	7.543
MS.5           	35             	7.531
MS.6           	35             	7.535
MS.7           	35             	7.555
MS.8           	35             	7.527
MS.9           	35             	7.563
MS.10          	35             	7.531
MS.11          	35             	7.567
MS.12          	35             	7.563
MS.13          	35             	7.499
MS.14          	35             	7.545
MS.15          	35             	7.527
MS.16          	35             	7.535
MS.17          	35             	7.553
MS.18          	35             	7.525
MS.19          	35             	7.541
MS.20          	35             	7.559
MS.21          	35             	7.557
MS.22          	35             	7.561
MS.23          	35             	7.609
MS.24          	34.86          	7.603
MS.25          	34.79          	7.531
MS.26          	34.72          	7.573
MS.27          	34.653         	7.547
MS.28          	34.583         	7.491
MS.29          	34.513         	7.515
MS.30          	34.445         	7.509
MS.31          	34.375         	7.555
MS.32          	34.307         	7.511
MS.33          	34.237         	7.567
MS.34          	34.17          	7.614
MS.35          	34.103         	7.541
MS.36          	34.032         	7.454
MS.37          	33.965         	7.489
MS.38          	33.897         	7.454
MS.39          	33.83          	7.416
MS.40          	33.763         	7.511
MS.41          	33.695         	7.43
MS.42          	33.627         	7.479
MS.43          	33.56          	7.434
MS.44          	33.493         	7.388
MS.45          	33.427         	7.515
MS.46          	33.36          	7.469
MS.47          	33.292         	7.46
MS.48          	33.228         	7.477
MS.49          	33.16          	7.432
MS.50          	33.092         	7.456
MS.51          	33.028         	7.462
MS.52          	32.962         	7.44
MS.53          	32.895         	7.406
MS.54          	32.83          	7.354
MS.55          	32.765         	7.426
MS.56          	32.7           	7.485
MS.57          	32.632         	7.426
MS.58          	32.568         	7.44
MS.59          	32.502         	7.398
MS.60          	32.438         	7.475
MS.61          	32.372         	7.376
MS.62          	32.31          	7.356
MS.63          	32.245         	7.424
MS.64          	32.18          	7.408
MS.65          	32.115         	7.456
MS.66          	32.052         	7.422
MS.67          	31.987         	7.384
MS.68          	31.922         	7.376
MS.69          	31.86          	7.42
MS.70          	31.795         	7.362
MS.71          	31.733         	7.404
MS.72          	31.67          	7.448
MS.73          	31.605         	7.323
MS.74          	31.542         	7.346
MS.75          	31.48          	7.281
MS.76          	31.417         	7.374
MS.77          	31.355         	7.382
MS.78          	31.292         	7.4
MS.79          	31.23          	7.368
MS.80          	31.167         	7.364
MS.81          	31.105         	7.398
MS.82          	31.042         	7.38
MS.83          	30.98          	7.356
MS.84          	30.917         	7.35
MS.85          	30.858         	7.34
MS.86          	30.795         	7.319
MS.87          	30.733         	7.297
MS.88          	30.672         	7.317
MS.89          	30.61          	7.227
MS.90          	30.55          	7.338
MS.91          	30.487         	7.225
MS.92          	30.427         	7.356
MS.93          	30.367         	7.257
MS.94          	30.305         	7.303
MS.95          	30.245         	7.295
MS.96          	30.185         	7.293
MS.97          	30.125         	7.279
MS.98          	30.065         	7.247
MS.99          	30.005         	7.271
MS.100         	29.945         	7.301
MS.101         	29.885         	7.267
MS.102         	29.825         	7.249
MS.103         	29.765         	7.265
MS.104         	29.705         	7.231
MS.105         	29.647         	7.203
MS.106         	29.587         	7.217
MS.107         	29.528         	7.187
MS.108         	29.47          	7.255
MS.109         	29.41          	7.297
MS.110         	29.352         	7.233
MS.111         	29.292         	7.128
MS.112         	29.235         	7.118
MS.113         	29.175         	7.148
MS.114         	29.117         	7.144
MS.115         	29.06          	7.233
MS.116         	29.002         	7.15
MS.117         	28.942         	7.122
MS.118         	28.885         	7.138
MS.119         	28.827         	7.13
MS.120         	28.77          	7.128
MS.121         	28.712         	7.156
MS.122         	28.655         	7.116
MS.123         	28.597         	7.086
MS.124         	28.54          	7.134
MS.125         	28.485         	7.116
MS.126         	28.427         	7.1
MS.127         	28.37          	7.126
MS.128         	28.312         	7.108
MS.129         	28.257         	7.056
MS.130         	28.2           	7.005
MS.131         	28.145         	7.06
MS.132         	28.087         	7.013
MS.133         	28.032         	7.027
MS.134         	27.975         	7.104
MS.135         	27.92          	6.969
MS.136         	27.865         	7.044
MS.137         	27.807         	6.975
MS.138         	27.752         	6.959
MS.139         	27.698         	7.015
MS.140         	27.642         	6.894
MS.141         	27.587         	6.997
MS.142         	27.532         	6.969
MS.143         	27.477         	6.981
MS.144         	27.422         	6.836
MS.145         	27.368         	6.979
MS.146         	27.312         	6.919
MS.147         	27.257         	6.85
MS.148         	27.202         	6.919
MS.149         	27.15          	6.923
MS.150         	27.095         	6.683
MS.151         	27.04          	6.87
MS.152         	26.987         	6.784
MS.153         	26.932         	6.882
MS.154         	26.88          	6.647
MS.155         	26.825         	6.864
MS.156         	26.772         	6.639
MS.157         	26.717         	6.699
MS.158         	26.665         	6.621
MS.159         	26.612         	6.792
MS.160         	26.557         	6.727
MS.161         	26.505         	6.588
MS.162         	26.452         	6.743
MS.163         	26.4           	6.524
MS.164         	26.347         	6.631
MS.165         	26.295         	6.516
MS.166         	26.243         	6.665
MS.167         	26.19          	6.651
MS.168         	26.137         	6.57
MS.169         	26.085         	6.695
MS.170         	26.032         	6.459
MS.171         	25.98          	6.474
MS.172         	25.927         	6.449
MS.173         	25.877         	6.427
MS.174         	25.825         	6.522
MS.175         	25.772         	6.53
MS.176         	25.722         	6.552
MS.177         	25.67          	6.488
MS.178         	25.62          	6.496
MS.179         	25.567         	6.514
MS.180         	25.517         	6.421
MS.181         	25.465         	6.399
MS.182         	25.415         	6.369
MS.183         	25.365         	6.425
MS.184         	25.312         	6.377
MS.185         	25.262         	6.405
MS.186         	25.212         	6.377
MS.187         	25.163         	6.333
MS.188         	25.112         	6.304
MS.189         	25.062         	6.391
MS.190         	25.012         	6.302
MS.191         	24.962         	6.254
MS.192         	24.913         	6.288
MS.193         	24.862         	6.22
MS.194         	24.812         	6.21
MS.195         	24.762         	6.234
MS.196         	24.712         	6.169
MS.197         	24.665         	6.175
MS.198         	24.615         	6.115
MS.199         	24.565         	6.141
MS.200         	24.517         	6.19
MS.201         	24.467         	6.055
MS.202         	24.417         	6.123
MS.203         	24.37          	6.107
MS.204         	24.32          	6.028
MS.205         	24.272         	5.986
MS.206         	24.225         	6.103
MS.207         	24.175         	6.071
MS.208         	24.127         	6.151
MS.209         	24.08          	5.914
MS.210         	24.03          	6.117
MS.211         	23.983         	5.944
MS.212         	23.935         	5.889
MS.213         	23.887         	5.936
MS.214         	23.84          	5.895
MS.215         	23.792         	5.73
MS.216         	23.745         	5.734
MS.217         	23.698         	5.795
MS.218         	23.65          	5.797
MS.219         	23.602         	5.821
MS.220         	23.555         	5.487
MS.221         	23.507         	5.531
MS.222         	23.46          	5.561
MS.223         	23.415         	5.66
MS.224         	23.368         	5.557
MS.225         	23.32          	5.515
MS.226         	23.275         	5.426
MS.227         	23.227         	5.424
MS.228         	23.18          	5.333
MS.229         	23.135         	5.358
MS.230         	23.087         	5.448
MS.231         	23.042         	5.364
MS.232         	22.997         	5.148
MS.233         	22.95          	5.203
MS.234         	22.905         	5.146
MS.235         	22.86          	5.146
MS.236         	22.812         	5.245
MS.237         	22.767         	5.281
MS.238         	22.722         	5.275
MS.239         	22.677         	5.15
MS.240         	22.632         	5.041
MS.241         	22.587         	4.979
MS.242         	22.54          	5.134
MS.243         	22.495         	4.935
MS.244         	22.45          	5.031
MS.245         	22.407         	4.766
MS.246         	22.362         	4.878
MS.247         	22.317         	4.749
MS.248         	22.272         	4.979
MS.249         	22.227         	4.818
MS.250         	22.182         	4.701
MS.251         	22.14          	4.844
MS.252         	22.095         	4.655
MS.253         	22.05          	4.582
MS.254         	22.007         	4.685
MS.255         	21.962         	4.616
MS.256         	21.92          	4.538
MS.257         	21.875         	4.548
MS.258         	21.833         	4.538
MS.259         	21.788         	4.526
MS.260         	21.745         	4.498
MS.261         	21.7           	4.524
MS.262         	21.657         	4.467
MS.263         	21.615         	4.318
MS.264         	21.57          	4.23
MS.265         	21.528         	4.375
MS.266         	21.485         	4.369
MS.267         	21.442         	4.324
MS.268         	21.4           	4.304
MS.269         	21.355         	4.359
MS.270         	21.312         	4.284
MS.271         	21.27          	4.143
MS.272         	21.227         	4.288
MS.273         	21.185         	4.177
MS.274         	21.142         	4.107
MS.275         	21.102         	4.113
MS.276         	21.06          	4.038
MS.277         	21.017         	4.143
MS.278         	20.975         	4.107
MS.279         	20.932         	4.127
MS.280         	20.892         	3.942
MS.281         	20.85          	4.059
MS.282         	20.807         	3.871
MS.283         	20.767         	4.063
MS.284         	20.725         	3.893
MS.285         	20.682         	3.946
MS.286         	20.642         	3.926
MS.287         	20.6           	3.851
MS.288         	20.56          	3.841
MS.289         	20.52          	3.676
MS.290         	20.477         	3.785
MS.291         	20.438         	3.746
MS.292         	20.395         	3.521
MS.293         	20.355         	3.718
MS.294         	20.315         	3.569
MS.295         	20.275         	3.658
MS.296         	20.233         	3.491
MS.297         	20.192         	3.44
MS.298         	20.153         	3.587
MS.299         	20.112         	3.581
MS.300         	20.073         	3.45
MS.301         	20.032         	3.42
MS.302         	19.993         	3.44
MS.303         	19.952         	3.297
MS.304         	19.913         	3.398
MS.305         	19.872         	3.392
MS.306         	19.833         	3.219
MS.307         	19.792         	3.231
MS.308         	19.755         	3.277
MS.309         	19.715         	3.152
MS.310         	19.675         	3.134
MS.311         	19.635         	3.142
MS.312         	19.597         	3.16
MS.313         	19.557         	3.06
MS.314         	19.517         	3.148
MS.315         	19.48          	3.082
MS.316         	19.44          	3.025
MS.317         	19.403         	2.967
MS.318         	19.362         	2.838
MS.319         	19.325         	2.908
MS.320         	19.285         	2.941
MS.321         	19.247         	2.798
MS.322         	19.208         	2.904
MS.323         	19.17          	2.806
MS.324         	19.132         	2.83
MS.325         	19.092         	2.778
MS.326         	19.055         	2.741
MS.327         	19.017         	2.8
MS.328         	18.98          	2.771
MS.329         	18.942         	2.645
MS.330         	18.903         	2.59
MS.331         	18.865         	2.739
MS.332         	18.827         	2.516
MS.333         	18.79          	2.588
MS.334         	18.753         	2.518
MS.335         	18.715         	2.437
MS.336         	18.677         	2.459
MS.337         	18.64          	2.34
MS.338         	18.602         	2.22
MS.339         	18.565         	2.415
MS.340         	18.53          	2.306
MS.341         	18.493         	2.294
MS.342         	18.455         	2.379
MS.343         	18.417         	2.159
MS.344         	18.382         	2.085
MS.345         	18.345         	2.018
MS.346         	18.307         	2.054
MS.347         	18.272         	2.167
MS.348         	18.235         	2.127
MS.349         	18.198         	2.075
MS.350         	18.163         	2.101
MS.351         	18.125         	2.083
MS.352         	18.09          	1.986
MS.353         	18.052         	2.133
MS.354         	18.017         	1.954
MS.355         	17.983         	1.825
MS.356         	17.945         	1.968
MS.357         	17.91          	1.962
MS.358         	17.875         	1.863
MS.359         	17.837         	1.853
MS.360         	17.802         	1.809
MS.361         	17.767         	1.756
MS.362         	17.733         	1.94
MS.363         	17.695         	1.785
MS.364         	17.66          	1.813
MS.365         	17.625         	1.629
MS.366         	17.59          	1.823
MS.367         	17.555         	1.676
MS.368         	17.52          	1.678
MS.369         	17.485         	1.724
MS.370         	17.45          	1.789
MS.371         	17.415         	1.64
MS.372         	17.38          	1.635
MS.373         	17.345         	1.676
MS.374         	17.31          	1.656
MS.375         	17.278         	1.694
MS.376         	17.243         	1.642
MS.377         	17.208         	1.605
MS.378         	17.172         	1.583
MS.379         	17.14          	1.668
MS.380         	17.105         	1.539
MS.381         	17.07          	1.627
MS.382         	17.038         	1.499
MS.383         	17.003         	1.488
MS.384         	16.967         	1.575
MS.385         	16.935         	1.476
MS.386         	16.9           	1.48
MS.387         	16.868         	1.36
MS.388         	16.833         	1.472
MS.389         	16.8           	1.398
MS.390         	16.765         	1.327
MS.391         	16.733         	1.488
MS.392         	16.7           	1.46
MS.393         	16.665         	1.219
MS.394         	16.632         	1.362
MS.395         	16.6           	1.313
MS.396         	16.565         	1.372
MS.397         	16.532         	1.356
MS.398         	16.5           	1.138
MS.399         	16.467         	1.15
MS.400         	16.435         	1.08
MS.401         	16.4           	1.206
MS.402         	16.368         	1.156
MS.403         	16.335         	1.166
MS.404         	16.302         	1.217
MS.405         	16.27          	1.158
MS.406         	16.237         	1.063
MS.407         	16.205         	1.267
MS.408         	16.172         	1.128
MS.409         	16.14          	1.134
MS.410         	16.108         	1.088
MS.411         	16.077         	1.102
MS.412         	16.045         	1.1
MS.413         	16.012         	1.025
MS.414         	15.98          	1.076
MS.415         	15.947         	1.007
MS.416         	15.917         	1.001
MS.417         	15.885         	0.979
MS.418         	15.852         	0.856
MS.419         	15.82          	1.08
MS.420         	15.79          	0.924
MS.421         	15.757         	0.866
MS.422         	15.727         	0.816
MS.423         	15.695         	0.91
MS.424         	15.662         	0.854
MS.425         	15.632         	0.92
MS.426         	15.6           	0.834
MS.427         	15.57          	0.876
MS.428         	15.54          	0.769
MS.429         	15.507         	0.788
MS.430         	15.477         	0.812
MS.431         	15.445         	0.818
MS.432         	15.415         	0.798
MS.433         	15.385         	0.773
MS.434         	15.352         	0.699
MS.435         	15.322         	0.711
MS.436         	15.292         	0.717
MS.437         	15.262         	0.675
MS.438         	15.23          	0.775
MS.439         	15.2           	0.693
MS.440         	15.17          	0.679
MS.441         	15.14          	0.751
MS.442         	15.11          	0.657
MS.443         	15.08          	0.649
MS.444         	15.05          	0.661
MS.445         	15.02          	0.643
MS.446         	14.99          	0.616
MS.447         	14.96          	0.63
MS.448         	14.93          	0.608
MS.449         	14.9           	0.657
MS.450         	14.87          	0.614
MS.451         	14.84          	0.6
MS.452         	14.81          	0.661
MS.453         	14.78          	0.63
MS.454         	14.752         	0.604
MS.455         	14.722         	0.622
MS.456         	14.693         	0.598
MS.457         	14.662         	0.566
MS.458         	14.635         	0.572
MS.459         	14.605         	0.596
MS.460         	14.575         	0.647
MS.461         	14.547         	0.544
MS.462         	14.517         	0.546
MS.463         	14.487         	0.63
MS.464         	14.46          	0.57
MS.465         	14.43          	0.554
MS.466         	14.403         	0.54
MS.467         	14.372         	0.586
MS.468         	14.345         	0.596
MS.469         	14.315         	0.524
MS.470         	14.287         	0.544
MS.471         	14.257         	0.493
MS.472         	14.23          	0.506
MS.473         	14.202         	0.495
MS.474         	14.172         	0.506
MS.475         	14.145         	0.467
MS.476         	14.117         	0.514
MS.477         	14.087         	0.485
MS.478         	14.06          	0.518
MS.479         	14.032         	0.479
MS.480         	14.005         	0.451
MS.481         	13.975         	0.451
MS.482         	13.947         	0.475
MS.483         	13.92          	0.415
MS.484         	13.892         	0.475
MS.485         	13.865         	0.453
MS.486         	13.837         	0.445
MS.487         	13.81          	0.443
MS.488         	13.782         	0.485
MS.489         	13.755         	0.447
MS.490         	13.727         	0.449
MS.491         	13.7           	0.445
MS.492         	13.672         	0.441
MS.493         	13.645         	0.461
MS.494         	13.617         	0.397
MS.495         	13.59          	0.415
MS.496         	13.562         	0.445
MS.497         	13.535         	0.399
MS.498         	13.51          	0.461
MS.499         	13.483         	0.377
MS.500         	13.455         	0.419
MS.501         	13.427         	0.409
