File:              	C:\Qtrac\Data\Daniel M Sørensen\MScan multicentre study\Data from centres\Oslo\IronKey\Oslo_NC_first examination\SZC00618F.QZD
Name:              	NO.OSL.NC.20.1
Protocol:          	MSCAN-R2
Date:              	18/6/20
Start time:        	11:37:51
Age:               	59
Sex:               	M
Temperature:       	32.4
S/R sites:         	Peroneal-TA
NC/disease:        	NC20
Operator:          	SZ
Comments:          	T1. Painful
M-SCAN DATA (9.9-4.3m)
Scanpts: 4, 8, 590, 611
Stim. (mA)     	Amp. (mV)
MS.1           	27.5           	7.871
MS.2           	27.5           	7.767
MS.3           	27.5           	7.797
MS.4           	27.5           	7.714
MS.5           	27.5           	7.736
MS.6           	27.5           	7.783
MS.7           	27.5           	7.694
MS.8           	27.5           	7.775
MS.9           	27.5           	7.759
MS.10          	27.5           	7.773
MS.11          	27.5           	7.714
MS.12          	27.5           	7.732
MS.13          	27.5           	7.704
MS.14          	27.5           	7.771
MS.15          	27.5           	7.658
MS.16          	27.5           	7.686
MS.17          	27.5           	7.732
MS.18          	27.5           	7.797
MS.19          	27.5           	7.658
MS.20          	27.5           	7.636
MS.21          	27.5           	7.662
MS.22          	27.5           	7.638
MS.23          	27.5           	7.68
MS.24          	27.39          	7.662
MS.25          	27.335         	7.734
MS.26          	27.28          	7.67
MS.27          	27.227         	7.591
MS.28          	27.172         	7.622
MS.29          	27.118         	7.678
MS.30          	27.062         	7.609
MS.31          	27.01          	7.646
MS.32          	26.955         	7.63
MS.33          	26.903         	7.624
MS.34          	26.847         	7.626
MS.35          	26.795         	7.605
MS.36          	26.74          	7.609
MS.37          	26.688         	7.603
MS.38          	26.635         	7.491
MS.39          	26.58          	7.595
MS.40          	26.528         	7.444
MS.41          	26.475         	7.559
MS.42          	26.422         	7.475
MS.43          	26.37          	7.42
MS.44          	26.315         	7.529
MS.45          	26.262         	7.503
MS.46          	26.21          	7.37
MS.47          	26.157         	7.39
MS.48          	26.108         	7.392
MS.49          	26.055         	7.434
MS.50          	26.002         	7.408
MS.51          	25.95          	7.354
MS.52          	25.897         	7.39
MS.53          	25.847         	7.348
MS.54          	25.795         	7.211
MS.55          	25.743         	7.307
MS.56          	25.692         	7.279
MS.57          	25.64          	7.275
MS.58          	25.59          	7.283
MS.59          	25.538         	7.269
MS.60          	25.487         	7.251
MS.61          	25.438         	7.275
MS.62          	25.385         	7.191
MS.63          	25.335         	7.231
MS.64          	25.285         	7.211
MS.65          	25.233         	7.158
MS.66          	25.182         	7.191
MS.67          	25.132         	7.17
MS.68          	25.082         	7.108
MS.69          	25.032         	7.172
MS.70          	24.983         	7.205
MS.71          	24.932         	7.106
MS.72          	24.882         	7.146
MS.73          	24.832         	7.05
MS.74          	24.782         	7.023
MS.75          	24.735         	7.094
MS.76          	24.685         	7.064
MS.77          	24.635         	7.031
MS.78          	24.585         	7.195
MS.79          	24.538         	7.003
MS.80          	24.487         	7.11
MS.81          	24.44          	7.154
MS.82          	24.39          	7.106
MS.83          	24.342         	7.003
MS.84          	24.292         	7.019
MS.85          	24.245         	7.019
MS.86          	24.195         	7.037
MS.87          	24.147         	6.993
MS.88          	24.1           	6.882
MS.89          	24.05          	7.003
MS.90          	24.002         	7.015
MS.91          	23.955         	7.042
MS.92          	23.907         	7.031
MS.93          	23.86          	6.967
MS.94          	23.812         	6.949
MS.95          	23.765         	6.977
MS.96          	23.717         	6.935
MS.97          	23.67          	6.838
MS.98          	23.622         	6.878
MS.99          	23.575         	6.896
MS.100         	23.528         	6.905
MS.101         	23.48          	6.913
MS.102         	23.435         	6.862
MS.103         	23.387         	6.828
MS.104         	23.34          	6.832
MS.105         	23.292         	6.758
MS.106         	23.247         	6.788
MS.107         	23.2           	6.804
MS.108         	23.155         	6.874
MS.109         	23.108         	6.884
MS.110         	23.062         	6.739
MS.111         	23.015         	6.727
MS.112         	22.97          	6.846
MS.113         	22.925         	6.661
MS.114         	22.877         	6.747
MS.115         	22.832         	6.673
MS.116         	22.788         	6.641
MS.117         	22.743         	6.737
MS.118         	22.695         	6.619
MS.119         	22.65          	6.617
MS.120         	22.605         	6.699
MS.121         	22.56          	6.566
MS.122         	22.515         	6.703
MS.123         	22.47          	6.621
MS.124         	22.425         	6.56
MS.125         	22.38          	6.77
MS.126         	22.335         	6.737
MS.127         	22.29          	6.747
MS.128         	22.247         	6.619
MS.129         	22.202         	6.385
MS.130         	22.157         	6.697
MS.131         	22.112         	6.48
MS.132         	22.07          	6.544
MS.133         	22.025         	6.629
MS.134         	21.98          	6.453
MS.135         	21.938         	6.582
MS.136         	21.892         	6.383
MS.137         	21.85          	6.429
MS.138         	21.805         	6.435
MS.139         	21.762         	6.282
MS.140         	21.72          	6.26
MS.141         	21.675         	6.256
MS.142         	21.632         	6.282
MS.143         	21.59          	6.044
MS.144         	21.545         	5.861
MS.145         	21.502         	6.097
MS.146         	21.46          	6.053
MS.147         	21.417         	6.169
MS.148         	21.375         	6.377
MS.149         	21.333         	6.222
MS.150         	21.29          	6.145
MS.151         	21.247         	6.236
MS.152         	21.205         	6.202
MS.153         	21.163         	6.385
MS.154         	21.12          	6.036
MS.155         	21.077         	5.936
MS.156         	21.035         	6.067
MS.157         	20.993         	6.143
MS.158         	20.95          	6.028
MS.159         	20.91          	5.934
MS.160         	20.868         	5.916
MS.161         	20.825         	5.974
MS.162         	20.785         	5.948
MS.163         	20.743         	5.982
MS.164         	20.7           	6.047
MS.165         	20.66          	5.769
MS.166         	20.618         	5.877
MS.167         	20.577         	5.885
MS.168         	20.535         	5.805
MS.169         	20.495         	5.752
MS.170         	20.455         	5.73
MS.171         	20.413         	5.682
MS.172         	20.372         	5.672
MS.173         	20.333         	5.436
MS.174         	20.29          	5.642
MS.175         	20.25          	5.654
MS.176         	20.21          	5.541
MS.177         	20.17          	5.66
MS.178         	20.13          	5.559
MS.179         	20.09          	5.547
MS.180         	20.05          	5.547
MS.181         	20.01          	5.394
MS.182         	19.97          	5.487
MS.183         	19.93          	5.152
MS.184         	19.89          	5.273
MS.185         	19.85          	5.283
MS.186         	19.81          	5.223
MS.187         	19.77          	5.34
MS.188         	19.73          	5.285
MS.189         	19.692         	5.172
MS.190         	19.653         	5.019
MS.191         	19.612         	5.021
MS.192         	19.573         	5.14
MS.193         	19.535         	5.174
MS.194         	19.495         	5.015
MS.195         	19.458         	5.021
MS.196         	19.417         	4.971
MS.197         	19.38          	4.904
MS.198         	19.34          	5.003
MS.199         	19.302         	4.939
MS.200         	19.262         	4.931
MS.201         	19.225         	4.729
MS.202         	19.185         	4.695
MS.203         	19.147         	4.699
MS.204         	19.11          	4.661
MS.205         	19.07          	4.657
MS.206         	19.032         	4.669
MS.207         	18.995         	4.516
MS.208         	18.958         	4.649
MS.209         	18.92          	4.538
MS.210         	18.882         	4.479
MS.211         	18.845         	4.612
MS.212         	18.805         	4.486
MS.213         	18.767         	4.389
MS.214         	18.73          	4.504
MS.215         	18.692         	4.457
MS.216         	18.657         	4.375
MS.217         	18.62          	4.341
MS.218         	18.583         	4.447
MS.219         	18.545         	4.286
MS.220         	18.507         	4.324
MS.221         	18.47          	4.236
MS.222         	18.432         	4.105
MS.223         	18.397         	4.351
MS.224         	18.36          	4.224
MS.225         	18.323         	4.105
MS.226         	18.288         	4.026
MS.227         	18.25          	4.103
MS.228         	18.215         	4.063
MS.229         	18.177         	3.916
MS.230         	18.14          	4.099
MS.231         	18.105         	3.789
MS.232         	18.067         	3.867
MS.233         	18.032         	3.903
MS.234         	17.997         	3.875
MS.235         	17.96          	3.839
MS.236         	17.925         	3.789
MS.237         	17.89          	3.795
MS.238         	17.852         	3.833
MS.239         	17.817         	3.944
MS.240         	17.782         	3.748
MS.241         	17.747         	3.706
MS.242         	17.71          	3.74
MS.243         	17.675         	3.781
MS.244         	17.64          	3.718
MS.245         	17.605         	3.587
MS.246         	17.57          	3.599
MS.247         	17.535         	3.589
MS.248         	17.5           	3.553
MS.249         	17.465         	3.523
MS.250         	17.43          	3.398
MS.251         	17.395         	3.406
MS.252         	17.36          	3.625
MS.253         	17.325         	3.482
MS.254         	17.29          	3.368
MS.255         	17.257         	3.482
MS.256         	17.222         	3.416
MS.257         	17.188         	3.505
MS.258         	17.153         	3.37
MS.259         	17.12          	3.559
MS.260         	17.085         	3.271
MS.261         	17.05          	3.575
MS.262         	17.017         	3.406
MS.263         	16.983         	3.323
MS.264         	16.948         	3.176
MS.265         	16.915         	3.368
MS.266         	16.88          	3.233
MS.267         	16.847         	3.279
MS.268         	16.812         	3.14
MS.269         	16.78          	3.211
MS.270         	16.747         	3.235
MS.271         	16.712         	3.142
MS.272         	16.68          	3.233
MS.273         	16.645         	3.231
MS.274         	16.612         	3.182
MS.275         	16.58          	3.207
MS.276         	16.547         	3.128
MS.277         	16.512         	3.261
MS.278         	16.48          	3.168
MS.279         	16.448         	3.104
MS.280         	16.415         	3.126
MS.281         	16.382         	3.154
MS.282         	16.35          	3.021
MS.283         	16.317         	2.965
MS.284         	16.285         	2.959
MS.285         	16.253         	3.06
MS.286         	16.22          	3.001
MS.287         	16.188         	2.947
MS.288         	16.155         	2.945
MS.289         	16.122         	3.11
MS.290         	16.09          	2.771
MS.291         	16.057         	2.886
MS.292         	16.025         	2.878
MS.293         	15.992         	2.993
MS.294         	15.962         	2.822
MS.295         	15.93          	2.852
MS.296         	15.898         	2.723
MS.297         	15.865         	2.818
MS.298         	15.835         	2.735
MS.299         	15.802         	2.786
MS.300         	15.77          	2.725
MS.301         	15.74          	2.721
MS.302         	15.707         	2.628
MS.303         	15.677         	2.649
MS.304         	15.645         	2.526
MS.305         	15.615         	2.612
MS.306         	15.582         	2.453
MS.307         	15.552         	2.647
MS.308         	15.52          	2.379
MS.309         	15.49          	2.449
MS.310         	15.46          	2.532
MS.311         	15.427         	2.439
MS.312         	15.398         	2.421
MS.313         	15.367         	2.387
MS.314         	15.335         	2.346
MS.315         	15.305         	2.475
MS.316         	15.275         	2.342
MS.317         	15.245         	2.24
MS.318         	15.212         	2.282
MS.319         	15.182         	2.268
MS.320         	15.152         	2.342
MS.321         	15.122         	2.159
MS.322         	15.092         	2.143
MS.323         	15.062         	2.181
MS.324         	15.032         	2.117
MS.325         	15.002         	2.123
MS.326         	14.972         	2.133
MS.327         	14.943         	2.153
MS.328         	14.912         	2.109
MS.329         	14.882         	2.135
MS.330         	14.852         	2.109
MS.331         	14.822         	2.083
MS.332         	14.792         	1.978
MS.333         	14.765         	2.012
MS.334         	14.735         	1.956
MS.335         	14.705         	1.98
MS.336         	14.675         	2.157
MS.337         	14.645         	1.932
MS.338         	14.617         	1.869
MS.339         	14.587         	2.073
MS.340         	14.557         	1.895
MS.341         	14.53          	1.922
MS.342         	14.5           	1.915
MS.343         	14.472         	1.913
MS.344         	14.443         	1.913
MS.345         	14.412         	1.891
MS.346         	14.385         	1.861
MS.347         	14.355         	1.885
MS.348         	14.327         	1.851
MS.349         	14.3           	1.855
MS.350         	14.27          	1.887
MS.351         	14.242         	1.809
MS.352         	14.212         	1.946
MS.353         	14.185         	1.811
MS.354         	14.157         	1.805
MS.355         	14.127         	1.821
MS.356         	14.1           	1.776
MS.357         	14.072         	1.849
MS.358         	14.045         	1.787
MS.359         	14.015         	1.781
MS.360         	13.987         	1.827
MS.361         	13.96          	1.793
MS.362         	13.932         	1.738
MS.363         	13.905         	1.839
MS.364         	13.877         	1.787
MS.365         	13.847         	1.801
MS.366         	13.82          	1.799
MS.367         	13.792         	1.791
MS.368         	13.765         	1.793
MS.369         	13.737         	1.762
MS.370         	13.71          	1.716
MS.371         	13.682         	1.704
MS.372         	13.655         	1.748
MS.373         	13.63          	1.631
MS.374         	13.602         	1.708
MS.375         	13.575         	1.654
MS.376         	13.547         	1.672
MS.377         	13.52          	1.648
MS.378         	13.492         	1.686
MS.379         	13.465         	1.656
MS.380         	13.44          	1.656
MS.381         	13.412         	1.696
MS.382         	13.385         	1.609
MS.383         	13.36          	1.67
MS.384         	13.332         	1.599
MS.385         	13.305         	1.617
MS.386         	13.28          	1.569
MS.387         	13.252         	1.601
MS.388         	13.225         	1.587
MS.389         	13.2           	1.627
MS.390         	13.172         	1.595
MS.391         	13.148         	1.545
MS.392         	13.12          	1.585
MS.393         	13.095         	1.583
MS.394         	13.068         	1.563
MS.395         	13.042         	1.581
MS.396         	13.015         	1.525
MS.397         	12.99          	1.533
MS.398         	12.965         	1.567
MS.399         	12.938         	1.511
MS.400         	12.912         	1.543
MS.401         	12.887         	1.513
MS.402         	12.86          	1.488
MS.403         	12.835         	1.507
MS.404         	12.81          	1.513
MS.405         	12.785         	1.488
MS.406         	12.757         	1.505
MS.407         	12.733         	1.541
MS.408         	12.707         	1.499
MS.409         	12.682         	1.476
MS.410         	12.657         	1.464
MS.411         	12.632         	1.464
MS.412         	12.605         	1.505
MS.413         	12.58          	1.454
MS.414         	12.555         	1.466
MS.415         	12.53          	1.468
MS.416         	12.505         	1.452
MS.417         	12.48          	1.48
MS.418         	12.455         	1.44
MS.419         	12.43          	1.474
MS.420         	12.405         	1.432
MS.421         	12.38          	1.418
MS.422         	12.358         	1.416
MS.423         	12.332         	1.432
MS.424         	12.307         	1.446
MS.425         	12.282         	1.416
MS.426         	12.257         	1.436
MS.427         	12.233         	1.398
MS.428         	12.21          	1.434
MS.429         	12.185         	1.408
MS.430         	12.16          	1.456
MS.431         	12.135         	1.337
MS.432         	12.113         	1.398
MS.433         	12.087         	1.388
MS.434         	12.062         	1.345
MS.435         	12.04          	1.347
MS.436         	12.015         	1.382
MS.437         	11.992         	1.358
MS.438         	11.967         	1.339
MS.439         	11.943         	1.305
MS.440         	11.92          	1.352
MS.441         	11.895         	1.317
MS.442         	11.872         	1.323
MS.443         	11.847         	1.329
MS.444         	11.825         	1.287
MS.445         	11.8           	1.267
MS.446         	11.778         	1.271
MS.447         	11.755         	1.241
MS.448         	11.73          	1.225
MS.449         	11.707         	1.178
MS.450         	11.682         	1.247
MS.451         	11.66          	1.235
MS.452         	11.637         	1.134
MS.453         	11.613         	1.18
MS.454         	11.59          	1.162
MS.455         	11.568         	1.124
MS.456         	11.545         	1.16
MS.457         	11.52          	1.178
MS.458         	11.497         	1.136
MS.459         	11.475         	1.146
MS.460         	11.452         	1.09
MS.461         	11.43          	1.005
MS.462         	11.407         	1.061
MS.463         	11.382         	1.047
MS.464         	11.36          	0.965
MS.465         	11.337         	1.188
MS.466         	11.315         	0.975
MS.467         	11.292         	0.961
MS.468         	11.27          	1.061
MS.469         	11.247         	0.908
MS.470         	11.225         	0.916
MS.471         	11.202         	0.864
MS.472         	11.18          	0.878
MS.473         	11.157         	0.846
MS.474         	11.135         	0.931
MS.475         	11.113         	0.773
MS.476         	11.092         	0.826
MS.477         	11.07          	0.868
MS.478         	11.047         	0.834
MS.479         	11.025         	0.792
MS.480         	11.002         	0.854
MS.481         	10.98          	0.858
MS.482         	10.96          	0.82
MS.483         	10.938         	0.735
MS.484         	10.915         	0.816
MS.485         	10.892         	0.731
MS.486         	10.872         	0.755
MS.487         	10.85          	0.602
MS.488         	10.827         	0.759
MS.489         	10.807         	0.755
MS.490         	10.785         	0.737
MS.491         	10.762         	0.612
MS.492         	10.742         	0.598
MS.493         	10.72          	0.691
MS.494         	10.7           	0.574
MS.495         	10.677         	0.576
MS.496         	10.657         	0.608
MS.497         	10.635         	0.54
MS.498         	10.615         	0.578
MS.499         	10.592         	0.514
