File:              	C:\Qtrac\Data\Daniel M Sørensen\MScan multicentre study\Data from centres\Oslo\IronKey\Oslo_NC_first examination\SZC00706C.QZD
Name:              	NO.OSL.NC.24.1
Protocol:          	MSCAN-R2
Date:              	6/7/20
Start time:        	15:52:09
Age:               	24
Sex:               	M
Temperature:       	33
S/R sites:         	Peroneal/TA
NC/disease:        	NC24
Operator:          	SZ
Comments:          	Test1.Painful at start
M-SCAN DATA (11.7-5.6m)
Scanpts: 6, 12, 638, 660
Stim. (mA)     	Amp. (mV)
MS.1           	31.5           	7.636
MS.2           	31.5           	7.638
MS.3           	31.5           	7.491
MS.4           	31.5           	7.533
MS.5           	31.5           	7.485
MS.6           	31.5           	7.495
MS.7           	31.5           	7.501
MS.8           	31.5           	7.448
MS.9           	31.5           	7.41
MS.10          	31.5           	7.515
MS.11          	31.5           	7.507
MS.12          	31.5           	7.539
MS.13          	31.5           	7.422
MS.14          	31.5           	7.511
MS.15          	31.5           	7.466
MS.16          	31.5           	7.388
MS.17          	31.5           	7.462
MS.18          	31.5           	7.493
MS.19          	31.5           	7.448
MS.20          	31.5           	7.469
MS.21          	31.5           	7.454
MS.22          	31.5           	7.503
MS.23          	31.5           	7.523
MS.24          	31.375         	7.203
MS.25          	31.312         	7.06
MS.26          	31.25          	7.217
MS.27          	31.188         	7.398
MS.28          	31.125         	7.336
MS.29          	31.062         	7.334
MS.30          	31             	7.34
MS.31          	30.938         	7.243
MS.32          	30.875         	7.269
MS.33          	30.815         	7.352
MS.34          	30.752         	7.374
MS.35          	30.692         	7.479
MS.36          	30.63          	7.251
MS.37          	30.57          	7.259
MS.38          	30.507         	7.265
MS.39          	30.448         	7.225
MS.40          	30.385         	7.33
MS.41          	30.325         	7.15
MS.42          	30.265         	7.146
MS.43          	30.205         	7.18
MS.44          	30.145         	7.158
MS.45          	30.082         	7.096
MS.46          	30.022         	6.862
MS.47          	29.962         	6.907
MS.48          	29.903         	6.989
MS.49          	29.845         	7.046
MS.50          	29.785         	6.886
MS.51          	29.725         	6.937
MS.52          	29.665         	6.822
MS.53          	29.605         	6.896
MS.54          	29.547         	6.828
MS.55          	29.487         	6.884
MS.56          	29.43          	6.951
MS.57          	29.37          	6.711
MS.58          	29.312         	6.814
MS.59          	29.252         	6.705
MS.60          	29.195         	6.725
MS.61          	29.137         	6.681
MS.62          	29.077         	6.764
MS.63          	29.02          	6.731
MS.64          	28.962         	6.705
MS.65          	28.905         	6.621
MS.66          	28.847         	6.51
MS.67          	28.787         	6.532
MS.68          	28.73          	6.407
MS.69          	28.675         	6.391
MS.70          	28.618         	6.619
MS.71          	28.56          	6.333
MS.72          	28.502         	6.415
MS.73          	28.445         	6.403
MS.74          	28.387         	6.262
MS.75          	28.332         	6.298
MS.76          	28.275         	6.51
MS.77          	28.217         	6.26
MS.78          	28.162         	6.047
MS.79          	28.105         	6.145
MS.80          	28.05          	6.061
MS.81          	27.995         	5.863
MS.82          	27.938         	6.012
MS.83          	27.882         	6.157
MS.84          	27.827         	6.071
MS.85          	27.77          	5.893
MS.86          	27.715         	5.946
MS.87          	27.66          	5.841
MS.88          	27.605         	5.847
MS.89          	27.55          	5.895
MS.90          	27.495         	5.845
MS.91          	27.44          	5.912
MS.92          	27.385         	5.688
MS.93          	27.33          	5.738
MS.94          	27.275         	5.583
MS.95          	27.22          	5.708
MS.96          	27.167         	5.728
MS.97          	27.112         	5.756
MS.98          	27.057         	5.849
MS.99          	27.005         	5.559
MS.100         	26.95          	5.617
MS.101         	26.895         	5.491
MS.102         	26.842         	5.396
MS.103         	26.79          	5.585
MS.104         	26.735         	5.43
MS.105         	26.682         	5.607
MS.106         	26.627         	5.396
MS.107         	26.575         	5.338
MS.108         	26.522         	5.275
MS.109         	26.47          	5.184
MS.110         	26.417         	5.078
MS.111         	26.362         	5.142
MS.112         	26.31          	5.138
MS.113         	26.257         	5.178
MS.114         	26.205         	5.041
MS.115         	26.153         	5.156
MS.116         	26.102         	5.118
MS.117         	26.05          	5.311
MS.118         	25.997         	5.082
MS.119         	25.945         	5.084
MS.120         	25.892         	5.031
MS.121         	25.842         	5.08
MS.122         	25.79          	5.062
MS.123         	25.737         	5.06
MS.124         	25.688         	5.056
MS.125         	25.635         	4.786
MS.126         	25.585         	4.852
MS.127         	25.532         	4.947
MS.128         	25.483         	4.888
MS.129         	25.432         	4.83
MS.130         	25.38          	4.824
MS.131         	25.33          	4.747
MS.132         	25.28          	4.806
MS.133         	25.227         	4.862
MS.134         	25.177         	4.78
MS.135         	25.127         	4.705
MS.136         	25.077         	4.683
MS.137         	25.028         	4.637
MS.138         	24.977         	4.637
MS.139         	24.927         	4.54
MS.140         	24.877         	4.659
MS.141         	24.827         	4.606
MS.142         	24.778         	4.574
MS.143         	24.73          	4.552
MS.144         	24.68          	4.439
MS.145         	24.63          	4.463
MS.146         	24.58          	4.276
MS.147         	24.532         	4.27
MS.148         	24.483         	4.32
MS.149         	24.435         	4.411
MS.150         	24.385         	4.292
MS.151         	24.337         	4.401
MS.152         	24.288         	4.187
MS.153         	24.24          	4.27
MS.154         	24.19          	4.153
MS.155         	24.142         	4.135
MS.156         	24.095         	3.938
MS.157         	24.047         	4.006
MS.158         	23.997         	3.96
MS.159         	23.95          	4.002
MS.160         	23.903         	3.897
MS.161         	23.855         	4.018
MS.162         	23.807         	4.03
MS.163         	23.76          	3.914
MS.164         	23.712         	4.063
MS.165         	23.665         	3.752
MS.166         	23.618         	3.823
MS.167         	23.57          	3.823
MS.168         	23.522         	3.857
MS.169         	23.475         	3.803
MS.170         	23.43          	3.688
MS.171         	23.382         	3.674
MS.172         	23.335         	3.714
MS.173         	23.29          	3.708
MS.174         	23.243         	3.71
MS.175         	23.195         	3.672
MS.176         	23.15          	3.827
MS.177         	23.102         	3.599
MS.178         	23.057         	3.718
MS.179         	23.01          	3.748
MS.180         	22.965         	3.909
MS.181         	22.92          	3.734
MS.182         	22.872         	3.515
MS.183         	22.827         	3.384
MS.184         	22.782         	3.452
MS.185         	22.737         	3.378
MS.186         	22.692         	3.422
MS.187         	22.645         	3.13
MS.188         	22.6           	3.198
MS.189         	22.555         	3.289
MS.190         	22.51          	3.402
MS.191         	22.465         	3.255
MS.192         	22.42          	3.329
MS.193         	22.375         	3.394
MS.194         	22.33          	3.255
MS.195         	22.288         	3.164
MS.196         	22.243         	3.273
MS.197         	22.198         	3.231
MS.198         	22.153         	3.15
MS.199         	22.11          	3.102
MS.200         	22.065         	3.237
MS.201         	22.02          	3.043
MS.202         	21.977         	2.921
MS.203         	21.932         	2.957
MS.204         	21.89          	2.753
MS.205         	21.845         	2.826
MS.206         	21.802         	2.798
MS.207         	21.757         	2.943
MS.208         	21.715         	2.838
MS.209         	21.67          	2.733
MS.210         	21.627         	2.63
MS.211         	21.585         	2.763
MS.212         	21.542         	2.765
MS.213         	21.497         	2.771
MS.214         	21.455         	2.87
MS.215         	21.413         	2.659
MS.216         	21.37          	2.427
MS.217         	21.327         	2.737
MS.218         	21.285         	2.477
MS.219         	21.243         	2.381
MS.220         	21.2           	2.465
MS.221         	21.157         	2.492
MS.222         	21.115         	2.437
MS.223         	21.073         	2.286
MS.224         	21.03          	2.286
MS.225         	20.987         	2.256
MS.226         	20.948         	2.179
MS.227         	20.905         	2.181
MS.228         	20.862         	2.224
MS.229         	20.823         	2.137
MS.230         	20.78          	2.103
MS.231         	20.737         	2.21
MS.232         	20.698         	1.928
MS.233         	20.655         	1.942
MS.234         	20.615         	1.962
MS.235         	20.573         	1.853
MS.236         	20.532         	1.817
MS.237         	20.49          	1.869
MS.238         	20.45          	1.752
MS.239         	20.41          	1.714
MS.240         	20.368         	1.65
MS.241         	20.327         	1.736
MS.242         	20.288         	1.662
MS.243         	20.247         	1.545
MS.244         	20.205         	1.603
MS.245         	20.165         	1.601
MS.246         	20.125         	1.533
MS.247         	20.085         	1.603
MS.248         	20.045         	1.424
MS.249         	20.005         	1.543
MS.250         	19.965         	1.456
MS.251         	19.925         	1.573
MS.252         	19.885         	1.488
MS.253         	19.845         	1.364
MS.254         	19.805         	1.436
MS.255         	19.767         	1.43
MS.256         	19.727         	1.384
MS.257         	19.688         	1.444
MS.258         	19.647         	1.501
MS.259         	19.61          	1.49
MS.260         	19.57          	1.374
MS.261         	19.53          	1.293
MS.262         	19.493         	1.335
MS.263         	19.452         	1.42
MS.264         	19.415         	1.261
MS.265         	19.375         	1.428
MS.266         	19.337         	1.41
MS.267         	19.297         	1.285
MS.268         	19.26          	1.414
MS.269         	19.22          	1.299
MS.270         	19.182         	1.245
MS.271         	19.145         	1.295
MS.272         	19.105         	1.295
MS.273         	19.067         	1.329
MS.274         	19.03          	1.267
MS.275         	18.993         	1.249
MS.276         	18.952         	1.255
MS.277         	18.915         	1.227
MS.278         	18.877         	1.162
MS.279         	18.84          	1.233
MS.280         	18.802         	1.202
MS.281         	18.765         	1.184
MS.282         	18.727         	1.219
MS.283         	18.69          	1.219
MS.284         	18.653         	1.186
MS.285         	18.615         	1.221
MS.286         	18.577         	1.182
MS.287         	18.54          	1.086
MS.288         	18.505         	1.17
MS.289         	18.467         	1.086
MS.290         	18.43          	1.168
MS.291         	18.392         	1.1
MS.292         	18.358         	1.009
MS.293         	18.32          	1.124
MS.294         	18.282         	1.023
MS.295         	18.247         	0.995
MS.296         	18.21          	0.985
MS.297         	18.175         	0.997
MS.298         	18.137         	0.975
MS.299         	18.102         	1.102
MS.300         	18.065         	0.959
MS.301         	18.03          	1.1
MS.302         	17.993         	0.826
MS.303         	17.958         	0.864
MS.304         	17.92          	0.85
MS.305         	17.885         	0.89
MS.306         	17.85          	0.824
MS.307         	17.815         	0.864
MS.308         	17.778         	0.842
MS.309         	17.743         	0.721
MS.310         	17.708         	0.699
MS.311         	17.672         	0.697
MS.312         	17.637         	0.647
MS.313         	17.602         	0.759
MS.314         	17.567         	0.719
MS.315         	17.53          	0.647
MS.316         	17.495         	0.723
MS.317         	17.46          	0.669
MS.318         	17.427         	0.693
MS.319         	17.392         	0.687
MS.320         	17.358         	0.669
MS.321         	17.323         	0.622
MS.322         	17.288         	0.673
MS.323         	17.253         	0.612
MS.324         	17.217         	0.604
MS.325         	17.185         	0.626
MS.326         	17.15          	0.596
MS.327         	17.115         	0.649
MS.328         	17.083         	0.612
MS.329         	17.047         	0.622
MS.330         	17.012         	0.653
MS.331         	16.98          	0.568
MS.332         	16.945         	0.562
MS.333         	16.913         	0.538
MS.334         	16.878         	0.588
MS.335         	16.845         	0.612
MS.336         	16.81          	0.598
MS.337         	16.778         	0.594
MS.338         	16.743         	0.572
MS.339         	16.71          	0.538
MS.340         	16.675         	0.548
MS.341         	16.642         	0.504
MS.342         	16.61          	0.558
MS.343         	16.577         	0.524
MS.344         	16.542         	0.55
MS.345         	16.51          	0.471
MS.346         	16.477         	0.502
MS.347         	16.445         	0.512
MS.348         	16.413         	0.54
MS.349         	16.378         	0.534
MS.350         	16.345         	0.481
MS.351         	16.312         	0.518
MS.352         	16.28          	0.451
MS.353         	16.247         	0.489
MS.354         	16.215         	0.443
MS.355         	16.182         	0.459
MS.356         	16.15          	0.429
MS.357         	16.118         	0.467
MS.358         	16.087         	0.506
MS.359         	16.055         	0.457
MS.360         	16.022         	0.437
MS.361         	15.99          	0.457
MS.362         	15.957         	0.411
MS.363         	15.927         	0.407
MS.364         	15.895         	0.435
MS.365         	15.862         	0.409
MS.366         	15.83          	0.443
MS.367         	15.8           	0.441
MS.368         	15.767         	0.423
MS.369         	15.737         	0.475
MS.370         	15.705         	0.399
MS.371         	15.672         	0.413
MS.372         	15.642         	0.389
MS.373         	15.61          	0.427
MS.374         	15.58          	0.377
MS.375         	15.55          	0.451
MS.376         	15.517         	0.389
MS.377         	15.487         	0.403
MS.378         	15.455         	0.399
MS.379         	15.425         	0.379
MS.380         	15.395         	0.367
MS.381         	15.362         	0.405
MS.382         	15.332         	0.383
MS.383         	15.302         	0.375
MS.384         	15.273         	0.435
MS.385         	15.24          	0.381
MS.386         	15.21          	0.371
MS.387         	15.18          	0.359
MS.388         	15.15          	0.377
MS.389         	15.12          	0.357
MS.390         	15.09          	0.379
MS.391         	15.06          	0.35
MS.392         	15.03          	0.363
MS.393         	15             	0.344
MS.394         	14.97          	0.371
MS.395         	14.94          	0.354
MS.396         	14.91          	0.346
MS.397         	14.88          	0.359
MS.398         	14.85          	0.365
MS.399         	14.82          	0.328
MS.400         	14.79          	0.361
MS.401         	14.76          	0.35
MS.402         	14.733         	0.342
MS.403         	14.702         	0.365
MS.404         	14.672         	0.344
MS.405         	14.642         	0.348
MS.406         	14.615         	0.352
MS.407         	14.585         	0.352
MS.408         	14.555         	0.322
MS.409         	14.527         	0.332
MS.410         	14.497         	0.361
MS.411         	14.467         	0.34
MS.412         	14.44          	0.346
MS.413         	14.41          	0.332
MS.414         	14.382         	0.336
MS.415         	14.352         	0.336
MS.416         	14.325         	0.344
MS.417         	14.295         	0.326
MS.418         	14.267         	0.34
MS.419         	14.24          	0.338
MS.420         	14.21          	0.332
MS.421         	14.182         	0.354
MS.422         	14.155         	0.338
MS.423         	14.125         	0.338
MS.424         	14.097         	0.354
MS.425         	14.07          	0.328
MS.426         	14.04          	0.324
MS.427         	14.012         	0.324
MS.428         	13.985         	0.334
MS.429         	13.957         	0.32
MS.430         	13.93          	0.316
MS.431         	13.903         	0.328
MS.432         	13.872         	0.308
MS.433         	13.845         	0.342
MS.434         	13.818         	0.312
MS.435         	13.79          	0.322
MS.436         	13.762         	0.328
MS.437         	13.735         	0.326
MS.438         	13.707         	0.322
MS.439         	13.68          	0.328
MS.440         	13.653         	0.332
MS.441         	13.625         	0.326
MS.442         	13.6           	0.324
MS.443         	13.572         	0.286
MS.444         	13.545         	0.314
MS.445         	13.517         	0.338
MS.446         	13.49          	0.32
MS.447         	13.462         	0.3
MS.448         	13.438         	0.308
MS.449         	13.41          	0.302
MS.450         	13.382         	0.296
MS.451         	13.355         	0.306
MS.452         	13.33          	0.3
MS.453         	13.302         	0.274
MS.454         	13.278         	0.302
MS.455         	13.25          	0.26
MS.456         	13.222         	0.314
MS.457         	13.197         	0.276
MS.458         	13.17          	0.256
MS.459         	13.145         	0.254
MS.460         	13.117         	0.266
MS.461         	13.092         	0.268
MS.462         	13.065         	0.266
MS.463         	13.04          	0.27
MS.464         	13.012         	0.264
MS.465         	12.987         	0.268
MS.466         	12.962         	0.286
MS.467         	12.935         	0.25
MS.468         	12.91          	0.236
MS.469         	12.885         	0.248
MS.470         	12.858         	0.294
MS.471         	12.832         	0.234
MS.472         	12.807         	0.24
MS.473         	12.782         	0.242
MS.474         	12.755         	0.23
MS.475         	12.73          	0.226
MS.476         	12.705         	0.228
MS.477         	12.68          	0.26
MS.478         	12.655         	0.23
MS.479         	12.63          	0.254
MS.480         	12.602         	0.224
MS.481         	12.577         	0.211
MS.482         	12.552         	0.23
MS.483         	12.528         	0.23
MS.484         	12.502         	0.264
MS.485         	12.477         	0.234
MS.486         	12.452         	0.238
MS.487         	12.427         	0.226
MS.488         	12.403         	0.242
MS.489         	12.38          	0.234
MS.490         	12.355         	0.25
MS.491         	12.33          	0.214
MS.492         	12.305         	0.236
MS.493         	12.28          	0.181
MS.494         	12.255         	0.23
MS.495         	12.23          	0.228
MS.496         	12.207         	0.179
MS.497         	12.182         	0.222
MS.498         	12.157         	0.181
MS.499         	12.132         	0.23
MS.500         	12.11          	0.226
