File:              	C:\Qtrac\Data\Daniel M Sørensen\MScan multicentre study\Data from centres\Oslo\IronKey\Oslo_NC_first examination\SZC00602C.QZD
Name:              	NO.OSL.NC.15.1
Protocol:          	MSCAN-R2
Date:              	2/6/20
Start time:        	16:38:47
Age:               	41
Sex:               	M
Temperature:       	35
S/R sites:         	Peroneal TA
NC/disease:        	NC15
Operator:          	SZ
Comments:          	Test1
M-SCAN DATA (18.3-6.7m)
Scanpts: 22, 42, 1165, 1176
Stim. (mA)     	Amp. (mV)
MS.1           	35             	8.139
MS.2           	35             	8.147
MS.3           	35             	8.141
MS.4           	35             	8.101
MS.5           	35             	8.069
MS.6           	35             	8.087
MS.7           	35             	8.099
MS.8           	35             	8.069
MS.9           	35             	8.034
MS.10          	35             	8.03
MS.11          	35             	8.045
MS.12          	35             	8.012
MS.13          	35             	8.008
MS.14          	35             	7.978
MS.15          	35             	8.036
MS.16          	35             	8.069
MS.17          	35             	8.02
MS.18          	35             	8.022
MS.19          	35             	8.059
MS.20          	35             	8.049
MS.21          	35             	8.041
MS.22          	35             	8.073
MS.23          	35             	8.085
MS.24          	34.79          	8.057
MS.25          	34.72          	8.016
MS.26          	34.653         	8.053
MS.27          	34.583         	8.032
MS.28          	34.513         	8.01
MS.29          	34.445         	8.02
MS.30          	34.375         	8.008
MS.31          	34.307         	8.028
MS.32          	34.237         	8.049
MS.33          	34.17          	8.018
MS.34          	34.103         	8.039
MS.35          	34.032         	8.055
MS.36          	33.965         	7.998
MS.37          	33.897         	8.008
MS.38          	33.83          	7.998
MS.39          	33.763         	8.012
MS.40          	33.695         	8.026
MS.41          	33.627         	8.018
MS.42          	33.56          	7.998
MS.43          	33.493         	8.006
MS.44          	33.427         	8.055
MS.45          	33.36          	8.03
MS.46          	33.292         	8.024
MS.47          	33.228         	8.041
MS.48          	33.16          	7.984
MS.49          	33.092         	8.032
MS.50          	33.028         	8.012
MS.51          	32.962         	8.053
MS.52          	32.895         	8.014
MS.53          	32.83          	8.004
MS.54          	32.765         	7.982
MS.55          	32.7           	8.077
MS.56          	32.632         	8.004
MS.57          	32.568         	7.988
MS.58          	32.502         	8.022
MS.59          	32.438         	8.016
MS.60          	32.372         	7.966
MS.61          	32.31          	7.984
MS.62          	32.245         	7.972
MS.63          	32.18          	7.958
MS.64          	32.115         	7.986
MS.65          	32.052         	7.958
MS.66          	31.987         	7.992
MS.67          	31.922         	7.986
MS.68          	31.86          	8.008
MS.69          	31.795         	7.968
MS.70          	31.733         	7.942
MS.71          	31.67          	7.96
MS.72          	31.605         	7.964
MS.73          	31.542         	7.968
MS.74          	31.48          	7.924
MS.75          	31.417         	7.922
MS.76          	31.355         	7.968
MS.77          	31.292         	7.93
MS.78          	31.23          	7.972
MS.79          	31.167         	7.93
MS.80          	31.105         	7.928
MS.81          	31.042         	7.964
MS.82          	30.98          	7.922
MS.83          	30.917         	7.914
MS.84          	30.858         	7.924
MS.85          	30.795         	7.934
MS.86          	30.733         	7.936
MS.87          	30.672         	7.936
MS.88          	30.61          	7.974
MS.89          	30.55          	7.896
MS.90          	30.487         	7.918
MS.91          	30.427         	7.91
MS.92          	30.367         	7.93
MS.93          	30.305         	7.936
MS.94          	30.245         	7.926
MS.95          	30.185         	7.922
MS.96          	30.125         	7.914
MS.97          	30.065         	7.916
MS.98          	30.005         	7.934
MS.99          	29.945         	7.912
MS.100         	29.885         	7.906
MS.101         	29.825         	7.902
MS.102         	29.765         	7.918
MS.103         	29.705         	7.926
MS.104         	29.647         	7.914
MS.105         	29.587         	7.873
MS.106         	29.528         	7.906
MS.107         	29.47          	7.875
MS.108         	29.41          	7.877
MS.109         	29.352         	7.853
MS.110         	29.292         	7.881
MS.111         	29.235         	7.867
MS.112         	29.175         	7.92
MS.113         	29.117         	7.867
MS.114         	29.06          	7.867
MS.115         	29.002         	7.851
MS.116         	28.942         	7.793
MS.117         	28.885         	7.817
MS.118         	28.827         	7.855
MS.119         	28.77          	7.825
MS.120         	28.712         	7.857
MS.121         	28.655         	7.845
MS.122         	28.597         	7.831
MS.123         	28.54          	7.877
MS.124         	28.485         	7.831
MS.125         	28.427         	7.847
MS.126         	28.37          	7.881
MS.127         	28.312         	7.841
MS.128         	28.257         	7.851
MS.129         	28.2           	7.863
MS.130         	28.145         	7.831
MS.131         	28.087         	7.849
MS.132         	28.032         	7.831
MS.133         	27.975         	7.855
MS.134         	27.92          	7.799
MS.135         	27.865         	7.825
MS.136         	27.807         	7.789
MS.137         	27.752         	7.837
MS.138         	27.698         	7.839
MS.139         	27.642         	7.783
MS.140         	27.587         	7.839
MS.141         	27.532         	7.843
MS.142         	27.477         	7.821
MS.143         	27.422         	7.831
MS.144         	27.368         	7.787
MS.145         	27.312         	7.835
MS.146         	27.257         	7.787
MS.147         	27.202         	7.789
MS.148         	27.15          	7.821
MS.149         	27.095         	7.801
MS.150         	27.04          	7.813
MS.151         	26.987         	7.785
MS.152         	26.932         	7.803
MS.153         	26.88          	7.787
MS.154         	26.825         	7.789
MS.155         	26.772         	7.773
MS.156         	26.717         	7.821
MS.157         	26.665         	7.789
MS.158         	26.612         	7.835
MS.159         	26.557         	7.771
MS.160         	26.505         	7.797
MS.161         	26.452         	7.785
MS.162         	26.4           	7.791
MS.163         	26.347         	7.805
MS.164         	26.295         	7.759
MS.165         	26.243         	7.797
MS.166         	26.19          	7.827
MS.167         	26.137         	7.771
MS.168         	26.085         	7.771
MS.169         	26.032         	7.791
MS.170         	25.98          	7.809
MS.171         	25.927         	7.803
MS.172         	25.877         	7.803
MS.173         	25.825         	7.801
MS.174         	25.772         	7.75
MS.175         	25.722         	7.771
MS.176         	25.67          	7.759
MS.177         	25.62          	7.738
MS.178         	25.567         	7.757
MS.179         	25.517         	7.748
MS.180         	25.465         	7.748
MS.181         	25.415         	7.757
MS.182         	25.365         	7.785
MS.183         	25.312         	7.753
MS.184         	25.262         	7.761
MS.185         	25.212         	7.765
MS.186         	25.163         	7.775
MS.187         	25.112         	7.785
MS.188         	25.062         	7.769
MS.189         	25.012         	7.775
MS.190         	24.962         	7.785
MS.191         	24.913         	7.742
MS.192         	24.862         	7.761
MS.193         	24.812         	7.748
MS.194         	24.762         	7.736
MS.195         	24.712         	7.757
MS.196         	24.665         	7.779
MS.197         	24.615         	7.827
MS.198         	24.565         	7.797
MS.199         	24.517         	7.803
MS.200         	24.467         	7.728
MS.201         	24.417         	7.742
MS.202         	24.37          	7.724
MS.203         	24.32          	7.799
MS.204         	24.272         	7.7
MS.205         	24.225         	7.803
MS.206         	24.175         	7.779
MS.207         	24.127         	7.759
MS.208         	24.08          	7.748
MS.209         	24.03          	7.803
MS.210         	23.983         	7.821
MS.211         	23.935         	7.795
MS.212         	23.887         	7.783
MS.213         	23.84          	7.791
MS.214         	23.792         	7.773
MS.215         	23.745         	7.755
MS.216         	23.698         	7.773
MS.217         	23.65          	7.781
MS.218         	23.602         	7.761
MS.219         	23.555         	7.807
MS.220         	23.507         	7.801
MS.221         	23.46          	7.775
MS.222         	23.415         	7.797
MS.223         	23.368         	7.783
MS.224         	23.32          	7.74
MS.225         	23.275         	7.809
MS.226         	23.227         	7.779
MS.227         	23.18          	7.795
MS.228         	23.135         	7.742
MS.229         	23.087         	7.748
MS.230         	23.042         	7.791
MS.231         	22.997         	7.746
MS.232         	22.95          	7.734
MS.233         	22.905         	7.742
MS.234         	22.86          	7.734
MS.235         	22.812         	7.726
MS.236         	22.767         	7.73
MS.237         	22.722         	7.767
MS.238         	22.677         	7.753
MS.239         	22.632         	7.728
MS.240         	22.587         	7.771
MS.241         	22.54          	7.757
MS.242         	22.495         	7.771
MS.243         	22.45          	7.738
MS.244         	22.407         	7.742
MS.245         	22.362         	7.771
MS.246         	22.317         	7.748
MS.247         	22.272         	7.75
MS.248         	22.227         	7.771
MS.249         	22.182         	7.761
MS.250         	22.14          	7.763
MS.251         	22.095         	7.763
MS.252         	22.05          	7.761
MS.253         	22.007         	7.724
MS.254         	21.962         	7.696
MS.255         	21.92          	7.738
MS.256         	21.875         	7.748
MS.257         	21.833         	7.72
MS.258         	21.788         	7.746
MS.259         	21.745         	7.765
MS.260         	21.7           	7.708
MS.261         	21.657         	7.714
MS.262         	21.615         	7.728
MS.263         	21.57          	7.692
MS.264         	21.528         	7.706
MS.265         	21.485         	7.706
MS.266         	21.442         	7.706
MS.267         	21.4           	7.714
MS.268         	21.355         	7.72
MS.269         	21.312         	7.704
MS.270         	21.27          	7.734
MS.271         	21.227         	7.708
MS.272         	21.185         	7.702
MS.273         	21.142         	7.71
MS.274         	21.102         	7.72
MS.275         	21.06          	7.688
MS.276         	21.017         	7.726
MS.277         	20.975         	7.674
MS.278         	20.932         	7.724
MS.279         	20.892         	7.748
MS.280         	20.85          	7.704
MS.281         	20.807         	7.726
MS.282         	20.767         	7.718
MS.283         	20.725         	7.72
MS.284         	20.682         	7.718
MS.285         	20.642         	7.698
MS.286         	20.6           	7.698
MS.287         	20.56          	7.716
MS.288         	20.52          	7.698
MS.289         	20.477         	7.714
MS.290         	20.438         	7.72
MS.291         	20.395         	7.73
MS.292         	20.355         	7.722
MS.293         	20.315         	7.644
MS.294         	20.275         	7.714
MS.295         	20.233         	7.696
MS.296         	20.192         	7.728
MS.297         	20.153         	7.72
MS.298         	20.112         	7.688
MS.299         	20.073         	7.682
MS.300         	20.032         	7.688
MS.301         	19.993         	7.71
MS.302         	19.952         	7.678
MS.303         	19.913         	7.666
MS.304         	19.872         	7.678
MS.305         	19.833         	7.688
MS.306         	19.792         	7.672
MS.307         	19.755         	7.692
MS.308         	19.715         	7.7
MS.309         	19.675         	7.692
MS.310         	19.635         	7.688
MS.311         	19.597         	7.662
MS.312         	19.557         	7.704
MS.313         	19.517         	7.686
MS.314         	19.48          	7.7
MS.315         	19.44          	7.684
MS.316         	19.403         	7.712
MS.317         	19.362         	7.652
MS.318         	19.325         	7.692
MS.319         	19.285         	7.72
MS.320         	19.247         	7.68
MS.321         	19.208         	7.714
MS.322         	19.17          	7.69
MS.323         	19.132         	7.706
MS.324         	19.092         	7.696
MS.325         	19.055         	7.67
MS.326         	19.017         	7.678
MS.327         	18.98          	7.684
MS.328         	18.942         	7.682
MS.329         	18.903         	7.658
MS.330         	18.865         	7.69
MS.331         	18.827         	7.652
MS.332         	18.79          	7.688
MS.333         	18.753         	7.686
MS.334         	18.715         	7.682
MS.335         	18.677         	7.65
MS.336         	18.64          	7.716
MS.337         	18.602         	7.636
MS.338         	18.565         	7.654
MS.339         	18.53          	7.72
MS.340         	18.493         	7.66
MS.341         	18.455         	7.692
MS.342         	18.417         	7.597
MS.343         	18.382         	7.658
MS.344         	18.345         	7.634
MS.345         	18.307         	7.636
MS.346         	18.272         	7.644
MS.347         	18.235         	7.616
MS.348         	18.198         	7.652
MS.349         	18.163         	7.652
MS.350         	18.125         	7.648
MS.351         	18.09          	7.605
MS.352         	18.052         	7.66
MS.353         	18.017         	7.601
MS.354         	17.983         	7.644
MS.355         	17.945         	7.597
MS.356         	17.91          	7.62
MS.357         	17.875         	7.664
MS.358         	17.837         	7.614
MS.359         	17.802         	7.571
MS.360         	17.767         	7.597
MS.361         	17.733         	7.567
MS.362         	17.695         	7.555
MS.363         	17.66          	7.599
MS.364         	17.625         	7.583
MS.365         	17.59          	7.601
MS.366         	17.555         	7.553
MS.367         	17.52          	7.523
MS.368         	17.485         	7.491
MS.369         	17.45          	7.531
MS.370         	17.415         	7.497
MS.371         	17.38          	7.575
MS.372         	17.345         	7.507
MS.373         	17.31          	7.555
MS.374         	17.278         	7.513
MS.375         	17.243         	7.541
MS.376         	17.208         	7.543
MS.377         	17.172         	7.279
MS.378         	17.14          	7.354
MS.379         	17.105         	7.473
MS.380         	17.07          	7.456
MS.381         	17.038         	7.334
MS.382         	17.003         	7.503
MS.383         	16.967         	7.446
MS.384         	16.935         	7.346
MS.385         	16.9           	7.471
MS.386         	16.868         	7.311
MS.387         	16.833         	7.334
MS.388         	16.8           	7.471
MS.389         	16.765         	7.16
MS.390         	16.733         	7.382
MS.391         	16.7           	7.279
MS.392         	16.665         	7.255
MS.393         	16.632         	7.231
MS.394         	16.6           	7.509
MS.395         	16.565         	7.279
MS.396         	16.532         	7.265
MS.397         	16.5           	7.18
MS.398         	16.467         	7.315
MS.399         	16.435         	7.152
MS.400         	16.4           	7.158
MS.401         	16.368         	7.205
MS.402         	16.335         	7.152
MS.403         	16.302         	7.13
MS.404         	16.27          	7.152
MS.405         	16.237         	7.241
MS.406         	16.205         	7.152
MS.407         	16.172         	7.052
MS.408         	16.14          	7.132
MS.409         	16.108         	7.168
MS.410         	16.077         	7.025
MS.411         	16.045         	6.951
MS.412         	16.012         	7.037
MS.413         	15.98          	7.031
MS.414         	15.947         	7.054
MS.415         	15.917         	6.987
MS.416         	15.885         	6.973
MS.417         	15.852         	6.975
MS.418         	15.82          	7.015
MS.419         	15.79          	7.009
MS.420         	15.757         	7.088
MS.421         	15.727         	6.971
MS.422         	15.695         	6.963
MS.423         	15.662         	7.001
MS.424         	15.632         	6.957
MS.425         	15.6           	6.985
MS.426         	15.57          	6.925
MS.427         	15.54          	6.987
MS.428         	15.507         	6.919
MS.429         	15.477         	6.939
MS.430         	15.445         	6.905
MS.431         	15.415         	6.909
MS.432         	15.385         	6.892
MS.433         	15.352         	6.907
MS.434         	15.322         	6.929
MS.435         	15.292         	6.957
MS.436         	15.262         	6.886
MS.437         	15.23          	6.915
MS.438         	15.2           	6.945
MS.439         	15.17          	6.874
MS.440         	15.14          	6.905
MS.441         	15.11          	6.905
MS.442         	15.08          	6.862
MS.443         	15.05          	6.925
MS.444         	15.02          	6.842
MS.445         	14.99          	6.826
MS.446         	14.96          	6.852
MS.447         	14.93          	6.745
MS.448         	14.9           	6.749
MS.449         	14.87          	6.753
MS.450         	14.84          	6.751
MS.451         	14.81          	6.834
MS.452         	14.78          	6.826
MS.453         	14.752         	6.818
MS.454         	14.722         	6.842
MS.455         	14.693         	6.846
MS.456         	14.662         	6.711
MS.457         	14.635         	6.84
MS.458         	14.605         	6.711
MS.459         	14.575         	6.701
MS.460         	14.547         	6.878
MS.461         	14.517         	6.774
MS.462         	14.487         	6.663
MS.463         	14.46          	6.723
MS.464         	14.43          	6.651
MS.465         	14.403         	6.683
MS.466         	14.372         	6.641
MS.467         	14.345         	6.737
MS.468         	14.315         	6.707
MS.469         	14.287         	6.679
MS.470         	14.257         	6.584
MS.471         	14.23          	6.713
MS.472         	14.202         	6.643
MS.473         	14.172         	6.627
MS.474         	14.145         	6.677
MS.475         	14.117         	6.61
MS.476         	14.087         	6.667
MS.477         	14.06          	6.608
MS.478         	14.032         	6.556
MS.479         	14.005         	6.653
MS.480         	13.975         	6.538
MS.481         	13.947         	6.558
MS.482         	13.92          	6.57
MS.483         	13.892         	6.564
MS.484         	13.865         	6.528
MS.485         	13.837         	6.578
MS.486         	13.81          	6.514
MS.487         	13.782         	6.554
MS.488         	13.755         	6.59
MS.489         	13.727         	6.594
MS.490         	13.7           	6.522
MS.491         	13.672         	6.494
MS.492         	13.645         	6.556
MS.493         	13.617         	6.542
MS.494         	13.59          	6.514
MS.495         	13.562         	6.465
MS.496         	13.535         	6.447
MS.497         	13.51          	6.459
MS.498         	13.483         	6.518
MS.499         	13.455         	6.417
MS.500         	13.427         	6.492
