File:              	C:\Qtrac\Data\Daniel M Sørensen\MScan multicentre study\Data from centres\Oslo\IronKey\Oslo_NC_first examination\SZC00507C.QZD
Name:              	NO.OSL.NC.7.1
Protocol:          	MSCAN-R2
Date:              	7/5/20
Start time:        	16:17:26
Age:               	30
Sex:               	F
Temperature:       	31.0
S/R sites:         	Peroneal TA
NC/disease:        	NC7
Operator:          	SZ
Comments:          	Test 1
M-SCAN DATA (10.8-2.5m)
Scanpts: 18, 35, 849, 871
Stim. (mA)     	Amp. (mV)
MS.1           	38             	8.323
MS.2           	38             	8.316
MS.3           	38             	8.335
MS.4           	38             	8.349
MS.5           	38             	8.343
MS.6           	38             	8.383
MS.7           	38             	8.355
MS.8           	38             	8.345
MS.9           	38             	8.345
MS.10          	38             	8.349
MS.11          	38             	8.357
MS.12          	38             	8.3
MS.13          	38             	8.363
MS.14          	38             	8.355
MS.15          	38             	8.355
MS.16          	38             	8.359
MS.17          	38             	8.327
MS.18          	38             	8.347
MS.19          	38             	8.333
MS.20          	38             	8.381
MS.21          	38             	8.357
MS.22          	38             	8.341
MS.23          	38             	8.325
MS.24          	37.847         	8.312
MS.25          	37.772         	8.262
MS.26          	37.697         	8.353
MS.27          	37.622         	8.341
MS.28          	37.548         	8.323
MS.29          	37.472         	8.341
MS.30          	37.397         	8.353
MS.31          	37.322         	8.331
MS.32          	37.247         	8.3
MS.33          	37.173         	8.365
MS.34          	37.097         	8.351
MS.35          	37.025         	8.306
MS.36          	36.95          	8.345
MS.37          	36.877         	8.306
MS.38          	36.802         	8.316
MS.39          	36.73          	8.318
MS.40          	36.655         	8.318
MS.41          	36.583         	8.341
MS.42          	36.51          	8.318
MS.43          	36.438         	8.327
MS.44          	36.365         	8.323
MS.45          	36.292         	8.347
MS.46          	36.22          	8.318
MS.47          	36.147         	8.306
MS.48          	36.075         	8.329
MS.49          	36.002         	8.262
MS.50          	35.93          	8.335
MS.51          	35.857         	8.304
MS.52          	35.787         	8.343
MS.53          	35.715         	8.294
MS.54          	35.645         	8.296
MS.55          	35.572         	8.308
MS.56          	35.502         	8.288
MS.57          	35.43          	8.276
MS.58          	35.36          	8.308
MS.59          	35.29          	8.288
MS.60          	35.22          	8.276
MS.61          	35.147         	8.272
MS.62          	35.077         	8.296
MS.63          	35.007         	8.294
MS.64          	34.938         	8.276
MS.65          	34.868         	8.302
MS.66          	34.8           	8.276
MS.67          	34.73          	8.296
MS.68          	34.66          	8.298
MS.69          	34.59          	8.3
MS.70          	34.522         	8.296
MS.71          	34.452         	8.294
MS.72          	34.382         	8.296
MS.73          	34.315         	8.304
MS.74          	34.247         	8.306
MS.75          	34.177         	8.325
MS.76          	34.11          	8.28
MS.77          	34.042         	8.29
MS.78          	33.972         	8.3
MS.79          	33.905         	8.28
MS.80          	33.837         	8.31
MS.81          	33.77          	8.306
MS.82          	33.702         	8.3
MS.83          	33.635         	8.29
MS.84          	33.568         	8.302
MS.85          	33.5           	8.302
MS.86          	33.435         	8.314
MS.87          	33.368         	8.284
MS.88          	33.3           	8.29
MS.89          	33.235         	8.278
MS.90          	33.167         	8.316
MS.91          	33.103         	8.272
MS.92          	33.035         	8.27
MS.93          	32.97          	8.318
MS.94          	32.903         	8.298
MS.95          	32.837         	8.268
MS.96          	32.772         	8.282
MS.97          	32.708         	8.242
MS.98          	32.642         	8.246
MS.99          	32.575         	8.284
MS.100         	32.51          	8.256
MS.101         	32.445         	8.254
MS.102         	32.382         	8.22
MS.103         	32.318         	8.244
MS.104         	32.252         	8.246
MS.105         	32.188         	8.27
MS.106         	32.122         	8.224
MS.107         	32.06          	8.282
MS.108         	31.995         	8.224
MS.109         	31.93          	8.27
MS.110         	31.867         	8.196
MS.111         	31.802         	8.186
MS.112         	31.74          	8.182
MS.113         	31.677         	8.149
MS.114         	31.612         	8.151
MS.115         	31.55          	8.129
MS.116         	31.487         	8.163
MS.117         	31.425         	8.151
MS.118         	31.362         	8.133
MS.119         	31.3           	8.095
MS.120         	31.237         	8.147
MS.121         	31.175         	8.129
MS.122         	31.112         	8.145
MS.123         	31.05          	8.149
MS.124         	30.987         	8.101
MS.125         	30.925         	8.141
MS.126         	30.865         	8.103
MS.127         	30.802         	8.151
MS.128         	30.74          	8.063
MS.129         	30.68          	8.125
MS.130         	30.617         	8.107
MS.131         	30.557         	8.119
MS.132         	30.495         	8.121
MS.133         	30.435         	8.061
MS.134         	30.375         	8.061
MS.135         	30.312         	8.039
MS.136         	30.252         	8.045
MS.137         	30.192         	8.032
MS.138         	30.132         	8.006
MS.139         	30.073         	8.018
MS.140         	30.012         	7.952
MS.141         	29.952         	8.012
MS.142         	29.892         	8.045
MS.143         	29.832         	7.992
MS.144         	29.772         	7.972
MS.145         	29.712         	7.962
MS.146         	29.653         	7.97
MS.147         	29.595         	7.966
MS.148         	29.535         	7.889
MS.149         	29.475         	7.849
MS.150         	29.417         	7.998
MS.151         	29.358         	7.879
MS.152         	29.3           	7.881
MS.153         	29.242         	7.893
MS.154         	29.182         	7.839
MS.155         	29.125         	7.841
MS.156         	29.067         	7.853
MS.157         	29.007         	7.849
MS.158         	28.95          	7.75
MS.159         	28.892         	7.763
MS.160         	28.835         	7.734
MS.161         	28.778         	7.74
MS.162         	28.72          	7.757
MS.163         	28.662         	7.708
MS.164         	28.605         	7.68
MS.165         	28.547         	7.66
MS.166         	28.49          	7.744
MS.167         	28.435         	7.672
MS.168         	28.377         	7.668
MS.169         	28.32          	7.666
MS.170         	28.265         	7.626
MS.171         	28.207         	7.642
MS.172         	28.15          	7.585
MS.173         	28.095         	7.656
MS.174         	28.037         	7.624
MS.175         	27.983         	7.563
MS.176         	27.927         	7.531
MS.177         	27.87          	7.491
MS.178         	27.815         	7.539
MS.179         	27.76          	7.503
MS.180         	27.705         	7.458
MS.181         	27.65          	7.46
MS.182         	27.592         	7.515
MS.183         	27.537         	7.454
MS.184         	27.483         	7.452
MS.185         	27.427         	7.422
MS.186         	27.372         	7.432
MS.187         	27.32          	7.412
MS.188         	27.265         	7.34
MS.189         	27.21          	7.376
MS.190         	27.155         	7.305
MS.191         	27.102         	7.319
MS.192         	27.047         	7.346
MS.193         	26.993         	7.37
MS.194         	26.94          	7.219
MS.195         	26.885         	7.245
MS.196         	26.832         	7.178
MS.197         	26.778         	7.253
MS.198         	26.725         	7.164
MS.199         	26.67          	7.191
MS.200         	26.618         	7.154
MS.201         	26.565         	7.1
MS.202         	26.512         	7.17
MS.203         	26.457         	7.189
MS.204         	26.405         	7.082
MS.205         	26.352         	7.114
MS.206         	26.3           	7.06
MS.207         	26.247         	7.031
MS.208         	26.195         	7.033
MS.209         	26.142         	7.052
MS.210         	26.09          	6.959
MS.211         	26.037         	6.967
MS.212         	25.987         	6.955
MS.213         	25.935         	6.929
MS.214         	25.882         	6.882
MS.215         	25.83          	6.909
MS.216         	25.78          	6.826
MS.217         	25.727         	6.961
MS.218         	25.677         	6.866
MS.219         	25.625         	6.844
MS.220         	25.575         	6.828
MS.221         	25.522         	6.77
MS.222         	25.472         	6.798
MS.223         	25.42          	6.766
MS.224         	25.37          	6.798
MS.225         	25.32          	6.727
MS.226         	25.27          	6.733
MS.227         	25.217         	6.699
MS.228         	25.167         	6.629
MS.229         	25.118         	6.681
MS.230         	25.067         	6.657
MS.231         	25.017         	6.657
MS.232         	24.967         	6.558
MS.233         	24.917         	6.625
MS.234         	24.868         	6.518
MS.235         	24.817         	6.514
MS.236         	24.767         	6.506
MS.237         	24.72          	6.536
MS.238         	24.67          	6.546
MS.239         	24.62          	6.49
MS.240         	24.573         	6.431
MS.241         	24.522         	6.391
MS.242         	24.472         	6.339
MS.243         	24.425         	6.282
MS.244         	24.375         	6.371
MS.245         	24.327         	6.246
MS.246         	24.278         	6.288
MS.247         	24.23          	6.175
MS.248         	24.182         	6.061
MS.249         	24.132         	6.091
MS.250         	24.085         	6.147
MS.251         	24.038         	6.024
MS.252         	23.987         	6.109
MS.253         	23.94          	5.974
MS.254         	23.892         	5.968
MS.255         	23.845         	5.91
MS.256         	23.797         	5.906
MS.257         	23.75          	5.861
MS.258         	23.702         	5.853
MS.259         	23.655         	5.791
MS.260         	23.608         	5.817
MS.261         	23.56          	5.704
MS.262         	23.512         	5.718
MS.263         	23.467         	5.658
MS.264         	23.42          	5.632
MS.265         	23.372         	5.658
MS.266         	23.327         	5.676
MS.267         	23.28          	5.64
MS.268         	23.233         	5.617
MS.269         	23.188         	5.533
MS.270         	23.14          	5.535
MS.271         	23.095         	5.519
MS.272         	23.047         	5.47
MS.273         	23.002         	5.448
MS.274         	22.955         	5.491
MS.275         	22.91          	5.416
MS.276         	22.865         	5.404
MS.277         	22.82          	5.41
MS.278         	22.772         	5.299
MS.279         	22.727         	5.342
MS.280         	22.682         	5.166
MS.281         	22.637         	5.223
MS.282         	22.592         	5.19
MS.283         	22.547         	5.267
MS.284         	22.502         	5.227
MS.285         	22.457         	5.128
MS.286         	22.413         	5.197
MS.287         	22.368         	5.025
MS.288         	22.323         	5.088
MS.289         	22.278         	4.995
MS.290         	22.233         	5.029
MS.291         	22.188         	4.963
MS.292         	22.145         	4.858
MS.293         	22.1           	4.89
MS.294         	22.055         	4.884
MS.295         	22.012         	4.864
MS.296         	21.967         	4.832
MS.297         	21.925         	4.766
MS.298         	21.88          	4.759
MS.299         	21.837         	4.755
MS.300         	21.792         	4.713
MS.301         	21.75          	4.723
MS.302         	21.705         	4.731
MS.303         	21.663         	4.663
MS.304         	21.62          	4.618
MS.305         	21.575         	4.631
MS.306         	21.532         	4.614
MS.307         	21.49          	4.647
MS.308         	21.448         	4.57
MS.309         	21.405         	4.594
MS.310         	21.362         	4.502
MS.311         	21.317         	4.54
MS.312         	21.275         	4.461
MS.313         	21.233         	4.477
MS.314         	21.19          	4.465
MS.315         	21.15          	4.492
MS.316         	21.108         	4.415
MS.317         	21.065         	4.477
MS.318         	21.022         	4.351
MS.319         	20.98          	4.403
MS.320         	20.938         	4.322
MS.321         	20.897         	4.343
MS.322         	20.855         	4.264
MS.323         	20.812         	4.248
MS.324         	20.772         	4.185
MS.325         	20.73          	4.121
MS.326         	20.688         	4.175
MS.327         	20.647         	4.107
MS.328         	20.605         	4.089
MS.329         	20.565         	4.115
MS.330         	20.525         	3.988
MS.331         	20.483         	4.03
MS.332         	20.442         	3.98
MS.333         	20.4           	4.016
MS.334         	20.36          	3.972
MS.335         	20.32          	3.928
MS.336         	20.28          	3.831
MS.337         	20.237         	3.847
MS.338         	20.198         	3.859
MS.339         	20.157         	3.889
MS.340         	20.118         	3.885
MS.341         	20.077         	3.746
MS.342         	20.038         	3.799
MS.343         	19.997         	3.67
MS.344         	19.958         	3.591
MS.345         	19.917         	3.678
MS.346         	19.877         	3.682
MS.347         	19.837         	3.648
MS.348         	19.797         	3.619
MS.349         	19.757         	3.644
MS.350         	19.72          	3.573
MS.351         	19.68          	3.591
MS.352         	19.64          	3.513
MS.353         	19.6           	3.523
MS.354         	19.562         	3.487
MS.355         	19.522         	3.519
MS.356         	19.485         	3.513
MS.357         	19.445         	3.448
MS.358         	19.405         	3.356
MS.359         	19.368         	3.317
MS.360         	19.327         	3.331
MS.361         	19.29          	3.295
MS.362         	19.252         	3.311
MS.363         	19.212         	3.207
MS.364         	19.175         	3.219
MS.365         	19.135         	3.174
MS.366         	19.097         	3.223
MS.367         	19.06          	3.062
MS.368         	19.022         	3.198
MS.369         	18.983         	3.124
MS.370         	18.945         	3.06
MS.371         	18.907         	2.935
MS.372         	18.87          	3.027
MS.373         	18.833         	2.967
MS.374         	18.795         	2.908
MS.375         	18.757         	2.828
MS.376         	18.72          	2.866
MS.377         	18.682         	2.81
MS.378         	18.645         	2.773
MS.379         	18.608         	2.751
MS.380         	18.57          	2.735
MS.381         	18.532         	2.721
MS.382         	18.497         	2.689
MS.383         	18.46          	2.677
MS.384         	18.422         	2.675
MS.385         	18.385         	2.693
MS.386         	18.35          	2.711
MS.387         	18.312         	2.653
MS.388         	18.275         	2.733
MS.389         	18.24          	2.633
MS.390         	18.202         	2.602
MS.391         	18.167         	2.592
MS.392         	18.13          	2.536
MS.393         	18.095         	2.526
MS.394         	18.057         	2.544
MS.395         	18.022         	2.572
MS.396         	17.985         	2.542
MS.397         	17.95          	2.566
MS.398         	17.915         	2.522
MS.399         	17.878         	2.492
MS.400         	17.842         	2.447
MS.401         	17.807         	2.463
MS.402         	17.772         	2.445
MS.403         	17.735         	2.475
MS.404         	17.7           	2.425
MS.405         	17.665         	2.387
MS.406         	17.63          	2.413
MS.407         	17.595         	2.395
MS.408         	17.56          	2.294
MS.409         	17.525         	2.298
MS.410         	17.49          	2.169
MS.411         	17.455         	2.262
MS.412         	17.42          	2.197
MS.413         	17.385         	2.228
MS.414         	17.35          	2.105
MS.415         	17.315         	2.137
MS.416         	17.28          	2.137
MS.417         	17.245         	2.04
MS.418         	17.212         	2.24
MS.419         	17.177         	2.093
MS.420         	17.142         	2.04
MS.421         	17.108         	2.062
MS.422         	17.075         	2.067
MS.423         	17.04          	2.02
MS.424         	17.007         	2.099
MS.425         	16.972         	2.022
MS.426         	16.938         	1.938
MS.427         	16.905         	2.014
MS.428         	16.87          	1.988
MS.429         	16.837         	1.96
MS.430         	16.802         	1.917
MS.431         	16.77          	1.952
MS.432         	16.737         	1.859
MS.433         	16.702         	1.853
MS.434         	16.67          	1.911
MS.435         	16.635         	1.815
MS.436         	16.602         	1.815
MS.437         	16.57          	1.839
MS.438         	16.538         	1.865
MS.439         	16.503         	1.833
MS.440         	16.47          	1.857
MS.441         	16.438         	1.785
MS.442         	16.405         	1.783
MS.443         	16.372         	1.77
MS.444         	16.34          	1.746
MS.445         	16.307         	1.724
MS.446         	16.275         	1.712
MS.447         	16.243         	1.746
MS.448         	16.21          	1.676
MS.449         	16.177         	1.704
MS.450         	16.145         	1.688
MS.451         	16.112         	1.69
MS.452         	16.08          	1.692
MS.453         	16.047         	1.623
MS.454         	16.015         	1.644
MS.455         	15.985         	1.652
MS.456         	15.952         	1.646
MS.457         	15.92          	1.539
MS.458         	15.887         	1.555
MS.459         	15.858         	1.573
MS.460         	15.825         	1.583
MS.461         	15.792         	1.535
MS.462         	15.762         	1.593
MS.463         	15.73          	1.563
MS.464         	15.7           	1.557
MS.465         	15.667         	1.529
MS.466         	15.635         	1.515
MS.467         	15.605         	1.531
MS.468         	15.572         	1.517
MS.469         	15.542         	1.503
MS.470         	15.512         	1.446
MS.471         	15.48          	1.535
MS.472         	15.45          	1.44
MS.473         	15.417         	1.472
MS.474         	15.387         	1.45
MS.475         	15.358         	1.41
MS.476         	15.327         	1.358
MS.477         	15.295         	1.36
MS.478         	15.265         	1.368
MS.479         	15.235         	1.442
MS.480         	15.205         	1.42
MS.481         	15.175         	1.313
MS.482         	15.142         	1.341
MS.483         	15.112         	1.309
MS.484         	15.082         	1.305
MS.485         	15.052         	1.309
MS.486         	15.023         	1.311
MS.487         	14.992         	1.366
MS.488         	14.962         	1.295
MS.489         	14.932         	1.313
MS.490         	14.902         	1.307
MS.491         	14.872         	1.285
MS.492         	14.845         	1.325
MS.493         	14.815         	1.293
MS.494         	14.785         	1.271
MS.495         	14.755         	1.289
MS.496         	14.725         	1.291
MS.497         	14.695         	1.289
MS.498         	14.667         	1.277
MS.499         	14.637         	1.2
MS.500         	14.608         	1.229
