File:              	C:\Qtrac\Data\Daniel M Sørensen\MScan multicentre study\Data from centres\Oslo\IronKey\Oslo_NC_first examination\SZC00611C.QZD
Name:              	NO.OSL.NC.18.1
Protocol:          	MSCAN-R2
Date:              	11/6/20
Start time:        	17:41:17
Age:               	32
Sex:               	F
Temperature:       	32.4
S/R sites:         	Peroneal TA
NC/disease:        	NC18
Operator:          	SZ
Comments:          	Test
M-SCAN DATA (8-2.9m)
Scanpts: 8, 11, 533, 554
Stim. (mA)     	Amp. (mV)
MS.1           	32             	6.097
MS.2           	32             	6.155
MS.3           	32             	6.157
MS.4           	32             	6.081
MS.5           	32             	6.075
MS.6           	32             	6.109
MS.7           	32             	6.061
MS.8           	32             	6.085
MS.9           	32             	6.04
MS.10          	32             	6.01
MS.11          	32             	6.053
MS.12          	32             	6.119
MS.13          	32             	6.038
MS.14          	32             	6.049
MS.15          	32             	6.097
MS.16          	32             	6.063
MS.17          	32             	6.107
MS.18          	32             	6.03
MS.19          	32             	6.038
MS.20          	32             	6.077
MS.21          	32             	6.012
MS.22          	32             	6.075
MS.23          	32             	6.145
MS.24          	31.872         	6.03
MS.25          	31.807         	6.03
MS.26          	31.745         	6
MS.27          	31.682         	6.026
MS.28          	31.617         	6.053
MS.29          	31.555         	5.97
MS.30          	31.492         	6.034
MS.31          	31.43          	6.038
MS.32          	31.365         	6.018
MS.33          	31.302         	6.002
MS.34          	31.24          	6.028
MS.35          	31.177         	5.984
MS.36          	31.117         	5.996
MS.37          	31.055         	5.926
MS.38          	30.992         	5.962
MS.39          	30.93          	5.918
MS.40          	30.867         	5.968
MS.41          	30.807         	5.948
MS.42          	30.745         	5.984
MS.43          	30.682         	6.014
MS.44          	30.622         	5.966
MS.45          	30.56          	5.938
MS.46          	30.5           	5.97
MS.47          	30.44          	6.055
MS.48          	30.377         	5.962
MS.49          	30.317         	5.893
MS.50          	30.257         	5.932
MS.51          	30.198         	5.966
MS.52          	30.137         	5.918
MS.53          	30.075         	5.871
MS.54          	30.015         	5.811
MS.55          	29.955         	5.901
MS.56          	29.895         	5.873
MS.57          	29.837         	5.789
MS.58          	29.778         	5.825
MS.59          	29.717         	5.779
MS.60          	29.657         	5.732
MS.61          	29.597         	5.843
MS.62          	29.54          	5.869
MS.63          	29.48          	5.801
MS.64          	29.422         	5.748
MS.65          	29.362         	5.69
MS.66          	29.305         	5.676
MS.67          	29.245         	5.676
MS.68          	29.188         	5.738
MS.69          	29.13          	5.696
MS.70          	29.07          	5.734
MS.71          	29.012         	5.748
MS.72          	28.955         	5.71
MS.73          	28.897         	5.65
MS.74          	28.84          	5.708
MS.75          	28.782         	5.644
MS.76          	28.725         	5.626
MS.77          	28.667         	5.634
MS.78          	28.61          	5.706
MS.79          	28.552         	5.636
MS.80          	28.495         	5.648
MS.81          	28.438         	5.622
MS.82          	28.382         	5.597
MS.83          	28.325         	5.583
MS.84          	28.267         	5.613
MS.85          	28.212         	5.583
MS.86          	28.155         	5.577
MS.87          	28.1           	5.601
MS.88          	28.042         	5.605
MS.89          	27.987         	5.573
MS.90          	27.93          	5.434
MS.91          	27.875         	5.527
MS.92          	27.82          	5.481
MS.93          	27.765         	5.523
MS.94          	27.707         	5.364
MS.95          	27.653         	5.422
MS.96          	27.597         	5.541
MS.97          	27.542         	5.285
MS.98          	27.487         	5.36
MS.99          	27.432         	5.36
MS.100         	27.377         	5.352
MS.101         	27.323         	5.366
MS.102         	27.267         	5.301
MS.103         	27.215         	5.213
MS.104         	27.16          	5.122
MS.105         	27.105         	5.122
MS.106         	27.05          	5.019
MS.107         	26.997         	5.08
MS.108         	26.942         	5.203
MS.109         	26.89          	5.019
MS.110         	26.835         	5.221
MS.111         	26.782         	4.953
MS.112         	26.727         	5.001
MS.113         	26.675         	5.003
MS.114         	26.622         	5.058
MS.115         	26.567         	4.915
MS.116         	26.515         	5.021
MS.117         	26.462         	4.965
MS.118         	26.41          	4.919
MS.119         	26.358         	4.87
MS.120         	26.305         	4.846
MS.121         	26.252         	4.904
MS.122         	26.2           	4.848
MS.123         	26.147         	4.9
MS.124         	26.095         	4.731
MS.125         	26.042         	4.757
MS.126         	25.99          	4.882
MS.127         	25.938         	4.834
MS.128         	25.887         	4.874
MS.129         	25.835         	4.814
MS.130         	25.782         	4.78
MS.131         	25.733         	4.83
MS.132         	25.68          	4.868
MS.133         	25.63          	4.554
MS.134         	25.577         	4.796
MS.135         	25.528         	4.772
MS.136         	25.475         	4.737
MS.137         	25.425         	4.665
MS.138         	25.375         	4.653
MS.139         	25.323         	4.556
MS.140         	25.272         	4.675
MS.141         	25.222         	4.564
MS.142         	25.172         	4.508
MS.143         	25.122         	4.465
MS.144         	25.073         	4.518
MS.145         	25.022         	4.475
MS.146         	24.972         	4.54
MS.147         	24.922         	4.598
MS.148         	24.872         	4.359
MS.149         	24.823         	4.524
MS.150         	24.772         	4.332
MS.151         	24.722         	4.296
MS.152         	24.672         	4.119
MS.153         	24.625         	4.145
MS.154         	24.575         	4.328
MS.155         	24.525         	4.125
MS.156         	24.477         	4.26
MS.157         	24.427         	4.27
MS.158         	24.38          	4.087
MS.159         	24.33          	4.155
MS.160         	24.282         	4.036
MS.161         	24.233         	3.887
MS.162         	24.185         	3.92
MS.163         	24.137         	4.002
MS.164         	24.087         	3.779
MS.165         	24.04          	4.075
MS.166         	23.993         	3.756
MS.167         	23.945         	3.783
MS.168         	23.897         	3.732
MS.169         	23.85          	3.718
MS.170         	23.8           	3.652
MS.171         	23.752         	3.68
MS.172         	23.705         	3.72
MS.173         	23.657         	3.698
MS.174         	23.612         	3.702
MS.175         	23.565         	3.625
MS.176         	23.517         	3.706
MS.177         	23.47          	3.581
MS.178         	23.422         	3.837
MS.179         	23.377         	3.674
MS.180         	23.33          	3.704
MS.181         	23.282         	3.525
MS.182         	23.237         	3.519
MS.183         	23.19          	3.515
MS.184         	23.145         	3.789
MS.185         	23.097         	3.636
MS.186         	23.052         	3.563
MS.187         	23.005         	3.593
MS.188         	22.96          	3.785
MS.189         	22.913         	3.682
MS.190         	22.868         	3.656
MS.191         	22.823         	3.414
MS.192         	22.778         	3.581
MS.193         	22.73          	3.503
MS.194         	22.685         	3.44
MS.195         	22.64          	3.533
MS.196         	22.595         	3.625
MS.197         	22.55          	3.448
MS.198         	22.505         	3.337
MS.199         	22.46          	3.525
MS.200         	22.415         	3.46
MS.201         	22.37          	3.317
MS.202         	22.325         	3.478
MS.203         	22.28          	3.231
MS.204         	22.237         	3.235
MS.205         	22.192         	3.235
MS.206         	22.147         	3.309
MS.207         	22.102         	2.963
MS.208         	22.06          	3.311
MS.209         	22.015         	2.961
MS.210         	21.97          	3.068
MS.211         	21.927         	3.17
MS.212         	21.882         	2.985
MS.213         	21.84          	3.013
MS.214         	21.795         	3.213
MS.215         	21.752         	3.1
MS.216         	21.71          	3.203
MS.217         	21.665         	3.102
MS.218         	21.622         	2.929
MS.219         	21.58          	2.989
MS.220         	21.535         	3.076
MS.221         	21.493         	3.015
MS.222         	21.45          	3.027
MS.223         	21.407         	2.876
MS.224         	21.365         	2.921
MS.225         	21.323         	2.649
MS.226         	21.28          	2.79
MS.227         	21.237         	2.731
MS.228         	21.195         	2.79
MS.229         	21.153         	2.778
MS.230         	21.11          	2.776
MS.231         	21.067         	2.576
MS.232         	21.025         	2.52
MS.233         	20.983         	2.665
MS.234         	20.942         	2.59
MS.235         	20.9           	2.6
MS.236         	20.858         	2.554
MS.237         	20.815         	2.451
MS.238         	20.775         	2.5
MS.239         	20.733         	2.508
MS.240         	20.692         	2.447
MS.241         	20.65          	2.473
MS.242         	20.61          	2.477
MS.243         	20.567         	2.284
MS.244         	20.528         	2.33
MS.245         	20.485         	2.459
MS.246         	20.445         	2.286
MS.247         	20.405         	2.349
MS.248         	20.362         	2.23
MS.249         	20.323         	2.369
MS.250         	20.282         	2.236
MS.251         	20.243         	2.254
MS.252         	20.2           	2.218
MS.253         	20.16          	2.351
MS.254         	20.12          	2.143
MS.255         	20.08          	2.22
MS.256         	20.04          	2.179
MS.257         	20             	2.181
MS.258         	19.96          	2.103
MS.259         	19.92          	2.028
MS.260         	19.88          	2.155
MS.261         	19.84          	1.936
MS.262         	19.8           	2.036
MS.263         	19.762         	2.133
MS.264         	19.722         	1.901
MS.265         	19.682         	2.04
MS.266         	19.642         	1.879
MS.267         	19.605         	1.801
MS.268         	19.565         	1.897
MS.269         	19.525         	1.988
MS.270         	19.487         	1.825
MS.271         	19.448         	1.801
MS.272         	19.41          	1.877
MS.273         	19.37          	1.847
MS.274         	19.333         	1.811
MS.275         	19.292         	1.827
MS.276         	19.255         	1.716
MS.277         	19.215         	1.785
MS.278         	19.177         	1.75
MS.279         	19.14          	1.529
MS.280         	19.1           	1.621
MS.281         	19.062         	1.545
MS.282         	19.025         	1.692
MS.283         	18.987         	1.565
MS.284         	18.948         	1.537
MS.285         	18.91          	1.615
MS.286         	18.872         	1.541
MS.287         	18.835         	1.454
MS.288         	18.797         	1.541
MS.289         	18.76          	1.37
MS.290         	18.722         	1.374
MS.291         	18.685         	1.41
MS.292         	18.647         	1.339
MS.293         	18.61          	1.4
MS.294         	18.573         	1.341
MS.295         	18.538         	1.307
MS.296         	18.5           	1.476
MS.297         	18.462         	1.279
MS.298         	18.425         	1.13
MS.299         	18.387         	1.1
MS.300         	18.352         	1.003
MS.301         	18.315         	1.063
MS.302         	18.278         	1.219
MS.303         	18.243         	1.074
MS.304         	18.205         	1.164
MS.305         	18.17          	1.158
MS.306         	18.132         	1.061
MS.307         	18.097         	1.074
MS.308         	18.06          	0.908
MS.309         	18.025         	1.043
MS.310         	17.987         	0.975
MS.311         	17.952         	0.846
MS.312         	17.917         	0.969
MS.313         	17.88          	0.792
MS.314         	17.845         	0.914
MS.315         	17.81          	0.886
MS.316         	17.775         	0.792
MS.317         	17.737         	0.818
MS.318         	17.702         	0.872
MS.319         	17.667         	0.755
MS.320         	17.632         	0.836
MS.321         	17.597         	0.812
MS.322         	17.562         	0.786
MS.323         	17.528         	0.725
MS.324         	17.493         	0.713
MS.325         	17.458         	0.667
MS.326         	17.422         	0.735
MS.327         	17.387         	0.663
MS.328         	17.352         	0.659
MS.329         	17.317         	0.636
MS.330         	17.282         	0.693
MS.331         	17.247         	0.703
MS.332         	17.215         	0.602
MS.333         	17.18          	0.62
MS.334         	17.145         	0.584
MS.335         	17.11          	0.584
MS.336         	17.077         	0.651
MS.337         	17.042         	0.62
MS.338         	17.01          	0.616
MS.339         	16.975         	0.624
MS.340         	16.94          	0.558
MS.341         	16.907         	0.566
MS.342         	16.872         	0.479
MS.343         	16.84          	0.624
MS.344         	16.805         	0.602
MS.345         	16.772         	0.538
MS.346         	16.74          	0.518
MS.347         	16.705         	0.578
MS.348         	16.672         	0.493
MS.349         	16.637         	0.433
MS.350         	16.605         	0.477
MS.351         	16.573         	0.473
MS.352         	16.54          	0.457
MS.353         	16.505         	0.471
MS.354         	16.472         	0.502
MS.355         	16.44          	0.463
MS.356         	16.407         	0.469
MS.357         	16.375         	0.465
MS.358         	16.342         	0.481
MS.359         	16.31          	0.465
MS.360         	16.278         	0.455
MS.361         	16.245         	0.441
MS.362         	16.212         	0.471
MS.363         	16.18          	0.421
MS.364         	16.147         	0.405
MS.365         	16.115         	0.449
MS.366         	16.083         	0.435
MS.367         	16.05          	0.439
MS.368         	16.017         	0.449
MS.369         	15.987         	0.469
MS.370         	15.955         	0.431
MS.371         	15.922         	0.397
MS.372         	15.89          	0.403
MS.373         	15.86          	0.431
MS.374         	15.827         	0.391
MS.375         	15.795         	0.399
MS.376         	15.765         	0.395
MS.377         	15.733         	0.365
MS.378         	15.7           	0.427
MS.379         	15.67          	0.389
MS.380         	15.637         	0.346
MS.381         	15.608         	0.407
MS.382         	15.575         	0.369
MS.383         	15.545         	0.411
MS.384         	15.515         	0.383
MS.385         	15.483         	0.35
MS.386         	15.452         	0.395
MS.387         	15.42          	0.322
MS.388         	15.39          	0.409
MS.389         	15.36          	0.373
MS.390         	15.33          	0.326
MS.391         	15.297         	0.338
MS.392         	15.267         	0.35
MS.393         	15.237         	0.363
MS.394         	15.207         	0.369
MS.395         	15.177         	0.375
MS.396         	15.145         	0.359
MS.397         	15.115         	0.354
MS.398         	15.085         	0.324
MS.399         	15.055         	0.318
MS.400         	15.025         	0.318
MS.401         	14.995         	0.322
MS.402         	14.965         	0.322
MS.403         	14.935         	0.316
MS.404         	14.905         	0.33
MS.405         	14.875         	0.292
MS.406         	14.845         	0.282
MS.407         	14.818         	0.326
MS.408         	14.787         	0.282
MS.409         	14.757         	0.304
MS.410         	14.727         	0.276
MS.411         	14.697         	0.296
MS.412         	14.67          	0.31
MS.413         	14.64          	0.288
MS.414         	14.61          	0.282
MS.415         	14.58          	0.268
MS.416         	14.552         	0.288
MS.417         	14.523         	0.29
MS.418         	14.495         	0.282
MS.419         	14.465         	0.272
MS.420         	14.435         	0.316
MS.421         	14.407         	0.282
MS.422         	14.377         	0.282
MS.423         	14.35          	0.268
MS.424         	14.32          	0.276
MS.425         	14.292         	0.274
MS.426         	14.265         	0.258
MS.427         	14.235         	0.256
MS.428         	14.207         	0.258
MS.429         	14.177         	0.25
MS.430         	14.15          	0.27
MS.431         	14.122         	0.29
MS.432         	14.095         	0.27
MS.433         	14.065         	0.276
MS.434         	14.037         	0.264
MS.435         	14.01          	0.26
MS.436         	13.983         	0.258
MS.437         	13.952         	0.272
MS.438         	13.925         	0.234
MS.439         	13.898         	0.266
MS.440         	13.87          	0.27
MS.441         	13.842         	0.254
MS.442         	13.815         	0.264
MS.443         	13.787         	0.266
MS.444         	13.76          	0.252
MS.445         	13.733         	0.268
MS.446         	13.705         	0.248
MS.447         	13.677         	0.187
MS.448         	13.65          	0.254
MS.449         	13.622         	0.252
MS.450         	13.595         	0.141
MS.451         	13.568         	0.189
MS.452         	13.54          	0.252
MS.453         	13.515         	0.153
MS.454         	13.487         	0.26
MS.455         	13.46          	0.274
MS.456         	13.432         	0.282
MS.457         	13.407         	0.276
MS.458         	13.38          	0.183
MS.459         	13.352         	0.151
MS.460         	13.325         	0.135
MS.461         	13.3           	0.197
MS.462         	13.273         	0.147
MS.463         	13.247         	0.179
MS.464         	13.22          	0.163
MS.465         	13.193         	0.179
MS.466         	13.167         	0.187
MS.467         	13.14          	0.197
MS.468         	13.115         	0.155
MS.469         	13.087         	0.083
MS.470         	13.062         	0.185
MS.471         	13.035         	0.137
MS.472         	13.01          	0.151
MS.473         	12.985         	0.143
MS.474         	12.957         	0.141
MS.475         	12.932         	0.137
MS.476         	12.907         	0.163
MS.477         	12.88          	0.147
MS.478         	12.855         	0.119
MS.479         	12.83          	0.151
MS.480         	12.802         	0.155
MS.481         	12.778         	0.157
MS.482         	12.752         	0.083
MS.483         	12.727         	0.091
MS.484         	12.702         	0.073
MS.485         	12.677         	0.079
MS.486         	12.65          	0.149
MS.487         	12.625         	0.145
MS.488         	12.6           	0.161
MS.489         	12.575         	0.04
MS.490         	12.55          	0.062
MS.491         	12.525         	0.097
MS.492         	12.5           	0.079
MS.493         	12.475         	0.099
MS.494         	12.45          	0.093
MS.495         	12.425         	0.097
MS.496         	12.4           	-0.028
MS.497         	12.375         	0.089
MS.498         	12.35          	0.099
MS.499         	12.327         	-0.014
MS.500         	12.302         	-0.018
