File:              	C:\Qtrac\Data\Daniel M Sørensen\MScan multicentre study\Data from centres\Oslo\Processed data\SZC00526E.QZD
Name:              	NO.OSL.NC.12.2
Protocol:          	MSCAN-R2
Date:              	26/5/20
Start time:        	17:54:10
Age:               	53
Sex:               	F
Temperature:       	30.6
S/R sites:         	TA
NC/disease:        	NC12
Operator:          	SZ
Comments:          	Test2
M-SCAN DATA (5.6-1.4m)
Scanpts: 8, 19, 399, 421
Stim. (mA)     	Amp. (mV)
MS.1           	37.5           	5.458
MS.2           	37.5           	5.436
MS.3           	37.5           	5.414
MS.4           	37.5           	5.372
MS.5           	37.5           	5.368
MS.6           	37.5           	5.356
MS.7           	37.5           	5.392
MS.8           	37.5           	5.384
MS.9           	37.5           	5.384
MS.10          	37.5           	5.392
MS.11          	37.5           	5.38
MS.12          	37.5           	5.348
MS.13          	37.5           	5.354
MS.14          	37.5           	5.354
MS.15          	37.5           	5.354
MS.16          	37.5           	5.36
MS.17          	37.5           	5.354
MS.18          	37.5           	5.37
MS.19          	37.5           	5.358
MS.20          	37.5           	5.386
MS.21          	37.5           	5.376
MS.22          	37.5           	5.364
MS.23          	37.5           	5.396
MS.24          	37.275         	5.368
MS.25          	37.2           	5.344
MS.26          	37.127         	5.346
MS.27          	37.052         	5.36
MS.28          	36.978         	5.344
MS.29          	36.905         	5.329
MS.30          	36.83          	5.368
MS.31          	36.757         	5.346
MS.32          	36.685         	5.269
MS.33          	36.61          	5.374
MS.34          	36.537         	5.265
MS.35          	36.465         	5.36
MS.36          	36.392         	5.344
MS.37          	36.32          	5.348
MS.38          	36.247         	5.342
MS.39          	36.175         	5.275
MS.40          	36.103         	5.321
MS.41          	36.03          	5.333
MS.42          	35.958         	5.327
MS.43          	35.885         	5.259
MS.44          	35.815         	5.323
MS.45          	35.743         	5.275
MS.46          	35.67          	5.243
MS.47          	35.6           	5.249
MS.48          	35.528         	5.253
MS.49          	35.458         	5.257
MS.50          	35.388         	5.243
MS.51          	35.315         	5.253
MS.52          	35.245         	5.259
MS.53          	35.175         	5.303
MS.54          	35.105         	5.235
MS.55          	35.035         	5.231
MS.56          	34.965         	5.215
MS.57          	34.895         	5.229
MS.58          	34.825         	5.213
MS.59          	34.755         	5.203
MS.60          	34.685         	5.223
MS.61          	34.618         	5.219
MS.62          	34.548         	5.174
MS.63          	34.478         	5.186
MS.64          	34.41          	5.166
MS.65          	34.34          	5.154
MS.66          	34.272         	5.14
MS.67          	34.205         	5.197
MS.68          	34.135         	5.164
MS.69          	34.068         	5.168
MS.70          	34             	5.146
MS.71          	33.93          	5.11
MS.72          	33.862         	5.098
MS.73          	33.795         	5.128
MS.74          	33.728         	5.06
MS.75          	33.66          	5.102
MS.76          	33.592         	5.084
MS.77          	33.528         	5.058
MS.78          	33.46          	5.066
MS.79          	33.392         	5.108
MS.80          	33.325         	5.043
MS.81          	33.26          	5.017
MS.82          	33.193         	4.943
MS.83          	33.127         	5.019
MS.84          	33.06          	4.943
MS.85          	32.995         	5.072
MS.86          	32.927         	4.963
MS.87          	32.862         	4.953
MS.88          	32.798         	4.999
MS.89          	32.732         	4.971
MS.90          	32.665         	4.925
MS.91          	32.6           	4.904
MS.92          	32.535         	4.971
MS.93          	32.47          	4.955
MS.94          	32.405         	4.963
MS.95          	32.34          	4.941
MS.96          	32.278         	4.89
MS.97          	32.212         	4.866
MS.98          	32.147         	4.884
MS.99          	32.083         	4.83
MS.100         	32.02          	4.806
MS.101         	31.955         	4.784
MS.102         	31.892         	4.836
MS.103         	31.827         	4.874
MS.104         	31.765         	4.83
MS.105         	31.7           	4.77
MS.106         	31.637         	4.856
MS.107         	31.575         	4.725
MS.108         	31.51          	4.759
MS.109         	31.448         	4.743
MS.110         	31.385         	4.649
MS.111         	31.323         	4.713
MS.112         	31.26          	4.655
MS.113         	31.198         	4.598
MS.114         	31.135         	4.739
MS.115         	31.073         	4.608
MS.116         	31.01          	4.586
MS.117         	30.95          	4.622
MS.118         	30.887         	4.604
MS.119         	30.825         	4.52
MS.120         	30.762         	4.566
MS.121         	30.702         	4.496
MS.122         	30.64          	4.479
MS.123         	30.58          	4.492
MS.124         	30.517         	4.471
MS.125         	30.457         	4.457
MS.126         	30.397         	4.479
MS.127         	30.335         	4.421
MS.128         	30.275         	4.415
MS.129         	30.215         	4.415
MS.130         	30.155         	4.341
MS.131         	30.095         	4.238
MS.132         	30.035         	4.2
MS.133         	29.975         	4.224
MS.134         	29.915         	4.226
MS.135         	29.855         	4.183
MS.136         	29.795         	4.177
MS.137         	29.735         	4.089
MS.138         	29.675         	4.135
MS.139         	29.617         	4.139
MS.140         	29.557         	4.061
MS.141         	29.497         	4.073
MS.142         	29.44          	4.119
MS.143         	29.38          	3.964
MS.144         	29.323         	4.117
MS.145         	29.262         	3.916
MS.146         	29.205         	3.976
MS.147         	29.147         	4.103
MS.148         	29.087         	3.891
MS.149         	29.03          	3.92
MS.150         	28.972         	3.893
MS.151         	28.915         	3.885
MS.152         	28.858         	3.916
MS.153         	28.8           	3.867
MS.154         	28.743         	3.867
MS.155         	28.685         	3.833
MS.156         	28.627         	3.835
MS.157         	28.57          	3.779
MS.158         	28.512         	3.797
MS.159         	28.455         	3.779
MS.160         	28.397         	3.728
MS.161         	28.342         	3.702
MS.162         	28.285         	3.748
MS.163         	28.227         	3.698
MS.164         	28.172         	3.712
MS.165         	28.115         	3.662
MS.166         	28.06          	3.611
MS.167         	28.002         	3.581
MS.168         	27.948         	3.599
MS.169         	27.892         	3.553
MS.170         	27.835         	3.482
MS.171         	27.78          	3.593
MS.172         	27.725         	3.464
MS.173         	27.67          	3.553
MS.174         	27.615         	3.472
MS.175         	27.56          	3.333
MS.176         	27.505         	3.462
MS.177         	27.45          	3.382
MS.178         	27.395         	3.331
MS.179         	27.34          	3.285
MS.180         	27.285         	3.269
MS.181         	27.23          	3.269
MS.182         	27.175         	3.273
MS.183         	27.122         	3.231
MS.184         	27.067         	3.273
MS.185         	27.012         	3.203
MS.186         	26.96          	3.066
MS.187         	26.905         	3.029
MS.188         	26.852         	3.064
MS.189         	26.797         	3.062
MS.190         	26.745         	3.041
MS.191         	26.692         	2.977
MS.192         	26.637         	3.041
MS.193         	26.585         	3.001
MS.194         	26.532         	3.066
MS.195         	26.477         	2.91
MS.196         	26.425         	3.051
MS.197         	26.372         	2.84
MS.198         	26.32          	2.866
MS.199         	26.267         	2.908
MS.200         	26.215         	2.892
MS.201         	26.162         	2.874
MS.202         	26.11          	2.743
MS.203         	26.057         	2.759
MS.204         	26.005         	2.884
MS.205         	25.955         	2.655
MS.206         	25.903         	2.763
MS.207         	25.85          	2.661
MS.208         	25.8           	2.687
MS.209         	25.747         	2.669
MS.210         	25.695         	2.635
MS.211         	25.645         	2.574
MS.212         	25.592         	2.675
MS.213         	25.542         	2.481
MS.214         	25.493         	2.481
MS.215         	25.44          	2.465
MS.216         	25.39          	2.413
MS.217         	25.34          	2.381
MS.218         	25.288         	2.304
MS.219         	25.237         	2.373
MS.220         	25.188         	2.316
MS.221         	25.137         	2.353
MS.222         	25.087         	2.278
MS.223         	25.038         	2.286
MS.224         	24.987         	2.306
MS.225         	24.938         	2.284
MS.226         	24.887         	2.216
MS.227         	24.837         	2.238
MS.228         	24.788         	2.189
MS.229         	24.737         	2.147
MS.230         	24.688         	2.232
MS.231         	24.64          	2.103
MS.232         	24.59          	2.054
MS.233         	24.54          	2.032
MS.234         	24.493         	2.091
MS.235         	24.442         	2.006
MS.236         	24.395         	1.976
MS.237         	24.345         	2.111
MS.238         	24.297         	2.05
MS.239         	24.247         	1.964
MS.240         	24.2           	1.968
MS.241         	24.153         	1.94
MS.242         	24.102         	1.909
MS.243         	24.055         	1.887
MS.244         	24.007         	1.889
MS.245         	23.96          	1.815
MS.246         	23.91          	1.839
MS.247         	23.862         	1.849
MS.248         	23.815         	1.807
MS.249         	23.767         	1.837
MS.250         	23.72          	1.835
MS.251         	23.672         	1.785
MS.252         	23.625         	1.768
MS.253         	23.577         	1.752
MS.254         	23.532         	1.615
MS.255         	23.485         	1.69
MS.256         	23.438         	1.704
MS.257         	23.39          	1.67
MS.258         	23.345         	1.579
MS.259         	23.297         	1.549
MS.260         	23.25          	1.631
MS.261         	23.205         	1.611
MS.262         	23.157         	1.585
MS.263         	23.112         	1.551
MS.264         	23.065         	1.607
MS.265         	23.02          	1.452
MS.266         	22.972         	1.462
MS.267         	22.927         	1.545
MS.268         	22.882         	1.537
MS.269         	22.835         	1.492
MS.270         	22.79          	1.438
MS.271         	22.745         	1.352
MS.272         	22.7           	1.376
MS.273         	22.655         	1.434
MS.274         	22.608         	1.303
MS.275         	22.562         	1.325
MS.276         	22.517         	1.299
MS.277         	22.472         	1.273
MS.278         	22.427         	1.273
MS.279         	22.385         	1.229
MS.280         	22.34          	1.211
MS.281         	22.295         	1.17
MS.282         	22.25          	1.182
MS.283         	22.205         	1.182
MS.284         	22.16          	1.086
MS.285         	22.118         	1.11
MS.286         	22.073         	1.106
MS.287         	22.028         	1.108
MS.288         	21.985         	1.031
MS.289         	21.94          	1.068
MS.290         	21.897         	0.975
MS.291         	21.852         	0.983
MS.292         	21.81          	1.037
MS.293         	21.765         	1.037
MS.294         	21.722         	0.943
MS.295         	21.68          	0.989
MS.296         	21.635         	0.945
MS.297         	21.592         	0.864
MS.298         	21.55          	0.824
MS.299         	21.505         	0.818
MS.300         	21.462         	0.82
MS.301         	21.42          	0.844
MS.302         	21.377         	0.82
MS.303         	21.335         	0.769
MS.304         	21.292         	0.693
MS.305         	21.25          	0.745
MS.306         	21.208         	0.638
MS.307         	21.165         	0.665
MS.308         	21.122         	0.55
MS.309         	21.08          	0.552
MS.310         	21.038         	0.653
MS.311         	20.995         	0.534
MS.312         	20.955         	0.63
MS.313         	20.913         	0.548
MS.314         	20.87          	0.516
MS.315         	20.83          	0.506
MS.316         	20.788         	0.491
MS.317         	20.745         	0.542
MS.318         	20.705         	0.427
MS.319         	20.663         	0.524
MS.320         	20.622         	0.395
MS.321         	20.58          	0.429
MS.322         	20.54          	0.429
MS.323         	20.497         	0.316
MS.324         	20.458         	0.338
MS.325         	20.417         	0.367
MS.326         	20.375         	0.371
MS.327         	20.335         	0.346
MS.328         	20.295         	0.314
MS.329         	20.252         	0.29
MS.330         	20.212         	0.312
MS.331         	20.172         	0.363
MS.332         	20.132         	0.266
MS.333         	20.092         	0.228
MS.334         	20.052         	0.304
MS.335         	20.012         	0.292
MS.336         	19.972         	0.236
MS.337         	19.932         	0.211
MS.338         	19.892         	0.211
MS.339         	19.852         	0.161
MS.340         	19.812         	0.203
MS.341         	19.772         	0.175
MS.342         	19.735         	0.222
MS.343         	19.695         	0.113
MS.344         	19.655         	0.117
MS.345         	19.615         	0.125
MS.346         	19.577         	0.107
MS.347         	19.538         	0.101
MS.348         	19.497         	0.119
MS.349         	19.46          	0.097
MS.350         	19.42          	0.083
MS.351         	19.382         	0.109
MS.352         	19.342         	0.058
MS.353         	19.305         	0.083
MS.354         	19.265         	0.064
MS.355         	19.227         	0.073
MS.356         	19.19          	0.042
MS.357         	19.15          	0.034
MS.358         	19.112         	0.01
MS.359         	19.075         	0.06
MS.360         	19.035         	0.091
MS.361         	18.997         	-0.016
MS.362         	18.96          	0.024
MS.363         	18.922         	0.016
MS.364         	18.885         	0.006
MS.365         	18.847         	0.032
MS.366         	18.81          	0.002
MS.367         	18.772         	0.054
MS.368         	18.735         	0.022
MS.369         	18.698         	0.026
MS.370         	18.66          	0.01
MS.371         	18.622         	0.002
MS.372         	18.585         	-0.034
MS.373         	18.547         	0.016
MS.374         	18.51          	-0.032
MS.375         	18.472         	-0.03
MS.376         	18.438         	0.016
MS.377         	18.4           	-0.008
MS.378         	18.362         	-0.046
MS.379         	18.327         	-0.052
MS.380         	18.29          	-0.032
MS.381         	18.253         	-0.048
MS.382         	18.217         	0.004
MS.383         	18.18          	-0.034
MS.384         	18.145         	-0.06
MS.385         	18.108         	-0.018
MS.386         	18.073         	-0.018
MS.387         	18.035         	-0.075
MS.388         	18             	-0.056
MS.389         	17.962         	-0.079
MS.390         	17.927         	-0.095
MS.391         	17.892         	-0.07
MS.392         	17.855         	-0.089
MS.393         	17.82          	-0.081
MS.394         	17.785         	-0.062
MS.395         	17.75          	-0.07
MS.396         	17.712         	-0.077
MS.397         	17.677         	-0.083
MS.398         	17.642         	-0.093
MS.399         	17.608         	-0.079
MS.400         	17.573         	-0.077
MS.401         	17.538         	-0.085
MS.402         	17.503         	-0.079
MS.403         	17.467         	-0.079
MS.404         	17.432         	-0.077
MS.405         	17.397         	-0.079
MS.406         	17.362         	-0.081
MS.407         	17.327         	-0.073
MS.408         	17.292         	-0.081
MS.409         	17.26          	-0.085
MS.410         	17.225         	-0.083
MS.411         	17.19          	-0.081
MS.412         	17.155         	-0.068
MS.413         	17.122         	-0.079
MS.414         	17.087         	-0.085
MS.415         	17.052         	-0.089
MS.416         	17.02          	-0.085
MS.417         	16.985         	-0.091
MS.418         	16.95          	-0.077
MS.419         	16.917         	-0.081
MS.420         	16.882         	-0.077
MS.421         	16.85          	-0.077
MS.422         	16.815         	-0.081
MS.423         	16.782         	-0.087
MS.424         	16.75          	-0.085
MS.425         	16.715         	-0.07
MS.426         	16.682         	-0.087
MS.427         	16.65          	-0.073
MS.428         	16.615         	-0.081
MS.429         	16.583         	-0.081
MS.430         	16.55          	-0.093
MS.431         	16.515         	-0.079
MS.432         	16.483         	-0.091
MS.433         	16.45          	-0.075
MS.434         	16.417         	-0.087
MS.435         	16.385         	-0.085
MS.436         	16.352         	-0.089
MS.437         	16.32          	-0.07
MS.438         	16.288         	-0.087
MS.439         	16.255         	-0.087
MS.440         	16.222         	-0.085
MS.441         	16.19          	-0.093
MS.442         	16.157         	-0.083
MS.443         	16.125         	-0.07
MS.444         	16.092         	-0.077
MS.445         	16.06          	-0.081
MS.446         	16.028         	-0.083
MS.447         	15.995         	-0.091
MS.448         	15.965         	-0.077
MS.449         	15.932         	-0.077
MS.450         	15.9           	-0.085
MS.451         	15.867         	-0.081
MS.452         	15.837         	-0.093
MS.453         	15.805         	-0.083
MS.454         	15.773         	-0.085
MS.455         	15.742         	-0.079
MS.456         	15.71          	-0.089
MS.457         	15.68          	-0.099
MS.458         	15.648         	-0.079
MS.459         	15.617         	-0.075
MS.460         	15.585         	-0.087
MS.461         	15.555         	-0.083
DERIVED EXCITABILITY VARIABLES
Program = QTracP 3/4/2020
Threshold method = 6 (optimised for CAP, using data for present condition only)
SR method = 1 (using actual data values)
6.                 	0.000               	Peak response\(mV)
9.                 	30.6                	Temperature ( C)
17.                	53                  	Age (years)
18.                	2                   	Sex (M=1, F=2)

EXTRA VARIABLES

MScPeak(mV) = 5.46
MScS5(mA) = 20.07
MScS50(mA) = 25.93
MScS95(mA) = 34.32
MScNSteps = 1
MScSteps(%) = 2.5
MScStepMax(%) = 2.5
MScD50 = 57
MScSlope = 3.85
MSFPeakAmp(mV) = 5.45
MSFNUnits = 199
MSFMeanUnitAmp(uV) = 27.4
MSFHuntTime(m) = 3.21
MSFError(%) = 1.58
MSFNLarge = 80.55
MSFMedianAmp(%) = 0.479
MSFMedianAmp(mV) = 0.0261
MSFHalfAmpAmp(%) = 0.501
MSFHalfAmpAmp(mV) = 0.0273
MSFLargestAmp(%) = 1.23
MSFLargestAmp(mV) = 0.0671
MSFMeanRS(%) = 2
MSFOpts = 10106121
MScDuration(min) = 4.2
MSFTraces = 414
MSFSizeLimit(uV) = 13.6
MSFLimitType = 1
MSFSmallestAmp(uV) = 17.7

EXTRA WAVEFORMS


!MScan Model
!199
	1	17.86	0.34	2
	2	18.21	0.46	2
	3	18.66	0.78	2
	4	18.97	0.58	2
	5	19.18	0.54	2
	6	19.34	0.47	2
	7	19.46	0.45	2
	8	19.57	0.41	2
	9	19.67	0.44	2
	10	19.77	0.43	2
	11	19.86	0.43	2
	12	19.95	0.46	2
	13	20.04	0.49	2
	14	20.13	0.46	2
	15	20.21	0.49	2
	16	20.32	0.63	2
	17	20.42	0.63	2
	18	20.52	0.64	2
	19	20.62	0.66	2
	20	20.69	0.47	2
	21	20.76	0.48	2
	22	20.82	0.51	2
