File:              	C:\Qtrac\Data\Daniel M Sørensen\MScan multicentre study\Data from centres\Oslo\IronKey\Oslo_NC_first examination\SZC00701C.QZD
Name:              	NO.OSL.NC.23.1
Protocol:          	MSCAN-R2
Date:              	1/7/20
Start time:        	16:06:22
Age:               	35
Sex:               	F
Temperature:       	32.0
S/R sites:         	Peroneal TA
NC/disease:        	NC23
Operator:          	SZ
Comments:          	Test1
M-SCAN DATA (11.5-4.8m)
Scanpts: 8, 11, 631, 643
Stim. (mA)     	Amp. (mV)
MS.1           	33.5           	6.953
MS.2           	33.5           	7.009
MS.3           	33.5           	6.977
MS.4           	33.5           	6.985
MS.5           	33.5           	6.957
MS.6           	33.5           	6.917
MS.7           	33.5           	6.898
MS.8           	33.5           	6.925
MS.9           	33.5           	6.913
MS.10          	33.5           	6.925
MS.11          	33.5           	6.915
MS.12          	33.5           	6.913
MS.13          	33.5           	6.947
MS.14          	33.5           	6.937
MS.15          	33.5           	6.967
MS.16          	33.5           	6.975
MS.17          	33.5           	7.025
MS.18          	33.5           	7.009
MS.19          	33.5           	7.037
MS.20          	33.5           	7.062
MS.21          	33.5           	7.029
MS.22          	33.5           	7.06
MS.23          	33.365         	6.985
MS.24          	33.3           	6.971
MS.25          	33.232         	6.884
MS.26          	33.167         	6.896
MS.27          	33.1           	6.878
MS.28          	33.035         	6.896
MS.29          	32.967         	6.951
MS.30          	32.903         	6.939
MS.31          	32.837         	6.913
MS.32          	32.77          	6.886
MS.33          	32.705         	6.949
MS.34          	32.64          	6.905
MS.35          	32.575         	6.894
MS.36          	32.51          	6.842
MS.37          	32.445         	6.838
MS.38          	32.38          	6.854
MS.39          	32.315         	6.862
MS.40          	32.25          	6.86
MS.41          	32.188         	6.836
MS.42          	32.122         	6.83
MS.43          	32.057         	6.884
MS.44          	31.995         	6.84
MS.45          	31.93          	6.834
MS.46          	31.865         	6.778
MS.47          	31.802         	6.812
MS.48          	31.74          	6.794
MS.49          	31.675         	6.822
MS.50          	31.612         	6.778
MS.51          	31.55          	6.772
MS.52          	31.485         	6.808
MS.53          	31.422         	6.776
MS.54          	31.36          	6.741
MS.55          	31.297         	6.766
MS.56          	31.235         	6.786
MS.57          	31.172         	6.729
MS.58          	31.11          	6.721
MS.59          	31.047         	6.707
MS.60          	30.985         	6.703
MS.61          	30.925         	6.729
MS.62          	30.862         	6.717
MS.63          	30.8           	6.701
MS.64          	30.74          	6.645
MS.65          	30.677         	6.681
MS.66          	30.617         	6.657
MS.67          	30.555         	6.647
MS.68          	30.495         	6.649
MS.69          	30.432         	6.655
MS.70          	30.372         	6.621
MS.71          	30.312         	6.673
MS.72          	30.252         	6.566
MS.73          	30.19          	6.574
MS.74          	30.13          	6.56
MS.75          	30.07          	6.586
MS.76          	30.01          	6.617
MS.77          	29.95          	6.57
MS.78          	29.89          	6.542
MS.79          	29.83          	6.54
MS.80          	29.77          	6.57
MS.81          	29.712         	6.534
MS.82          	29.653         	6.542
MS.83          	29.592         	6.546
MS.84          	29.535         	6.484
MS.85          	29.475         	6.526
MS.86          	29.415         	6.488
MS.87          	29.358         	6.457
MS.88          	29.297         	6.498
MS.89          	29.24          	6.427
MS.90          	29.182         	6.496
MS.91          	29.122         	6.409
MS.92          	29.065         	6.447
MS.93          	29.007         	6.429
MS.94          	28.95          	6.399
MS.95          	28.892         	6.375
MS.96          	28.832         	6.345
MS.97          	28.775         	6.421
MS.98          	28.717         	6.383
MS.99          	28.66          	6.371
MS.100         	28.605         	6.351
MS.101         	28.547         	6.328
MS.102         	28.49          	6.345
MS.103         	28.432         	6.341
MS.104         	28.375         	6.312
MS.105         	28.32          	6.278
MS.106         	28.262         	6.294
MS.107         	28.205         	6.236
MS.108         	28.15          	6.286
MS.109         	28.092         	6.248
MS.110         	28.037         	6.224
MS.111         	27.983         	6.204
MS.112         	27.925         	6.236
MS.113         	27.87          	6.19
MS.114         	27.815         	6.179
MS.115         	27.757         	6.188
MS.116         	27.702         	6.159
MS.117         	27.647         	6.183
MS.118         	27.592         	6.099
MS.119         	27.537         	6.105
MS.120         	27.483         	6.125
MS.121         	27.427         	6.083
MS.122         	27.372         	6.105
MS.123         	27.317         	6.059
MS.124         	27.262         	6.067
MS.125         	27.21          	5.97
MS.126         	27.155         	6.018
MS.127         	27.1           	5.988
MS.128         	27.045         	5.98
MS.129         	26.993         	5.958
MS.130         	26.938         	5.952
MS.131         	26.885         	5.96
MS.132         	26.83          	5.857
MS.133         	26.778         	5.841
MS.134         	26.722         	5.783
MS.135         	26.67          	5.811
MS.136         	26.618         	5.835
MS.137         	26.562         	5.773
MS.138         	26.51          	5.853
MS.139         	26.457         	5.758
MS.140         	26.405         	5.702
MS.141         	26.352         	5.694
MS.142         	26.3           	5.638
MS.143         	26.247         	5.722
MS.144         	26.195         	5.664
MS.145         	26.142         	5.615
MS.146         	26.09          	5.599
MS.147         	26.037         	5.573
MS.148         	25.985         	5.601
MS.149         	25.932         	5.567
MS.150         	25.882         	5.583
MS.151         	25.83          	5.557
MS.152         	25.778         	5.571
MS.153         	25.727         	5.521
MS.154         	25.675         	5.477
MS.155         	25.625         	5.559
MS.156         	25.573         	5.517
MS.157         	25.522         	5.396
MS.158         	25.47          	5.497
MS.159         	25.42          	5.442
MS.160         	25.37          	5.366
MS.161         	25.317         	5.366
MS.162         	25.267         	5.374
MS.163         	25.217         	5.39
MS.164         	25.167         	5.315
MS.165         	25.118         	5.327
MS.166         	25.067         	5.255
MS.167         	25.017         	5.319
MS.168         	24.967         	5.275
MS.169         	24.917         	5.293
MS.170         	24.868         	5.255
MS.171         	24.817         	5.269
MS.172         	24.767         	5.18
MS.173         	24.717         	5.193
MS.174         	24.67          	5.239
MS.175         	24.62          	5.144
MS.176         	24.57          	5.06
MS.177         	24.522         	5.072
MS.178         	24.472         	5.021
MS.179         	24.422         	5.035
MS.180         	24.375         	4.979
MS.181         	24.325         	5.056
MS.182         	24.278         	4.977
MS.183         	24.23          	4.927
MS.184         	24.18          	4.957
MS.185         	24.132         	4.838
MS.186         	24.085         	4.902
MS.187         	24.035         	4.909
MS.188         	23.987         	4.894
MS.189         	23.94          	4.882
MS.190         	23.892         	4.838
MS.191         	23.845         	4.796
MS.192         	23.797         	4.741
MS.193         	23.75          	4.727
MS.194         	23.702         	4.778
MS.195         	23.655         	4.739
MS.196         	23.608         	4.757
MS.197         	23.56          	4.693
MS.198         	23.512         	4.719
MS.199         	23.465         	4.606
MS.200         	23.42          	4.663
MS.201         	23.372         	4.657
MS.202         	23.325         	4.586
MS.203         	23.28          	4.653
MS.204         	23.233         	4.566
MS.205         	23.185         	4.6
MS.206         	23.14          	4.552
MS.207         	23.092         	4.568
MS.208         	23.047         	4.502
MS.209         	23             	4.528
MS.210         	22.955         	4.53
MS.211         	22.91          	4.413
MS.212         	22.862         	4.592
MS.213         	22.817         	4.399
MS.214         	22.772         	4.443
MS.215         	22.727         	4.355
MS.216         	22.682         	4.403
MS.217         	22.635         	4.393
MS.218         	22.59          	4.351
MS.219         	22.545         	4.433
MS.220         	22.5           	4.284
MS.221         	22.455         	4.282
MS.222         	22.41          	4.286
MS.223         	22.365         	4.25
MS.224         	22.323         	4.28
MS.225         	22.278         	4.306
MS.226         	22.233         	4.27
MS.227         	22.188         	4.278
MS.228         	22.142         	4.294
MS.229         	22.1           	4.208
MS.230         	22.055         	4.175
MS.231         	22.01          	4.129
MS.232         	21.967         	4.099
MS.233         	21.922         	4.093
MS.234         	21.88          	4.093
MS.235         	21.835         	4.059
MS.236         	21.792         	4.008
MS.237         	21.747         	3.916
MS.238         	21.705         	3.94
MS.239         	21.663         	3.952
MS.240         	21.618         	3.936
MS.241         	21.575         	3.783
MS.242         	21.532         	3.813
MS.243         	21.49          	3.841
MS.244         	21.445         	3.807
MS.245         	21.403         	3.766
MS.246         	21.36          	3.766
MS.247         	21.317         	3.686
MS.248         	21.275         	3.766
MS.249         	21.233         	3.728
MS.250         	21.19          	3.64
MS.251         	21.147         	3.65
MS.252         	21.105         	3.698
MS.253         	21.062         	3.625
MS.254         	21.022         	3.66
MS.255         	20.98          	3.573
MS.256         	20.938         	3.529
MS.257         	20.895         	3.587
MS.258         	20.855         	3.605
MS.259         	20.812         	3.589
MS.260         	20.77          	3.529
MS.261         	20.73          	3.472
MS.262         	20.688         	3.549
MS.263         	20.647         	3.567
MS.264         	20.605         	3.545
MS.265         	20.565         	3.43
MS.266         	20.522         	3.509
MS.267         	20.483         	3.392
MS.268         	20.44          	3.43
MS.269         	20.4           	3.43
MS.270         	20.36          	3.412
MS.271         	20.317         	3.41
MS.272         	20.278         	3.474
MS.273         	20.237         	3.315
MS.274         	20.198         	3.313
MS.275         	20.157         	3.374
MS.276         	20.118         	3.319
MS.277         	20.077         	3.378
MS.278         	20.035         	3.289
MS.279         	19.995         	3.293
MS.280         	19.955         	3.221
MS.281         	19.917         	3.217
MS.282         	19.877         	3.241
MS.283         	19.837         	3.142
MS.284         	19.797         	3.122
MS.285         	19.757         	3.154
MS.286         	19.717         	3.261
MS.287         	19.68          	3.124
MS.288         	19.64          	3.08
MS.289         	19.6           	3.066
MS.290         	19.56          	3.062
MS.291         	19.522         	3.031
MS.292         	19.483         	3.011
MS.293         	19.445         	3.043
MS.294         	19.405         	3.035
MS.295         	19.368         	2.951
MS.296         	19.327         	2.908
MS.297         	19.29          	2.91
MS.298         	19.25          	2.985
MS.299         	19.212         	2.955
MS.300         	19.172         	2.858
MS.301         	19.135         	2.933
MS.302         	19.097         	2.838
MS.303         	19.06          	2.927
MS.304         	19.02          	2.782
MS.305         	18.983         	2.81
MS.306         	18.945         	2.776
MS.307         	18.907         	2.763
MS.308         	18.87          	2.852
MS.309         	18.833         	2.771
MS.310         	18.795         	2.784
MS.311         	18.757         	2.788
MS.312         	18.72          	2.643
MS.313         	18.682         	2.719
MS.314         	18.645         	2.723
MS.315         	18.608         	2.661
MS.316         	18.57          	2.695
MS.317         	18.532         	2.689
MS.318         	18.495         	2.699
MS.319         	18.46          	2.624
MS.320         	18.422         	2.685
MS.321         	18.385         	2.707
MS.322         	18.347         	2.614
MS.323         	18.312         	2.626
MS.324         	18.275         	2.624
MS.325         	18.237         	2.57
MS.326         	18.202         	2.58
MS.327         	18.165         	2.59
MS.328         	18.13          	2.562
MS.329         	18.092         	2.602
MS.330         	18.057         	2.506
MS.331         	18.02          	2.55
MS.332         	17.985         	2.459
MS.333         	17.95          	2.487
MS.334         	17.913         	2.461
MS.335         	17.878         	2.55
MS.336         	17.842         	2.409
MS.337         	17.805         	2.397
MS.338         	17.77          	2.439
MS.339         	17.735         	2.427
MS.340         	17.7           	2.419
MS.341         	17.665         	2.375
MS.342         	17.63          	2.32
MS.343         	17.592         	2.359
MS.344         	17.557         	2.274
MS.345         	17.522         	2.234
MS.346         	17.487         	2.242
MS.347         	17.452         	2.246
MS.348         	17.417         	2.23
MS.349         	17.385         	2.173
MS.350         	17.35          	2.181
MS.351         	17.315         	2.203
MS.352         	17.28          	2.089
MS.353         	17.245         	2.187
MS.354         	17.21          	2.111
MS.355         	17.177         	2.135
MS.356         	17.142         	2.119
MS.357         	17.108         	2.125
MS.358         	17.073         	2.115
MS.359         	17.04          	2.071
MS.360         	17.005         	2.062
MS.361         	16.972         	2.042
MS.362         	16.938         	2.097
MS.363         	16.905         	2.004
MS.364         	16.87          	2.026
MS.365         	16.837         	1.972
MS.366         	16.802         	1.972
MS.367         	16.77          	2.008
MS.368         	16.735         	1.964
MS.369         	16.702         	1.907
MS.370         	16.67          	1.97
MS.371         	16.635         	1.861
MS.372         	16.602         	1.867
MS.373         	16.57          	1.903
MS.374         	16.535         	1.839
MS.375         	16.503         	1.807
MS.376         	16.47          	1.851
MS.377         	16.438         	1.934
MS.378         	16.405         	1.873
MS.379         	16.372         	1.849
MS.380         	16.34          	1.781
MS.381         	16.305         	1.853
MS.382         	16.272         	1.712
MS.383         	16.24          	1.712
MS.384         	16.208         	1.686
MS.385         	16.175         	1.625
MS.386         	16.145         	1.696
MS.387         	16.112         	1.64
MS.388         	16.08          	1.545
MS.389         	16.047         	1.541
MS.390         	16.015         	1.631
MS.391         	15.983         	1.579
MS.392         	15.952         	1.553
MS.393         	15.92          	1.495
MS.394         	15.887         	1.472
MS.395         	15.855         	1.462
MS.396         	15.825         	1.486
MS.397         	15.792         	1.521
MS.398         	15.76          	1.478
MS.399         	15.73          	1.406
MS.400         	15.697         	1.42
MS.401         	15.667         	1.416
MS.402         	15.635         	1.482
MS.403         	15.605         	1.436
MS.404         	15.572         	1.38
MS.405         	15.542         	1.388
MS.406         	15.51          	1.372
MS.407         	15.48          	1.343
MS.408         	15.45          	1.301
MS.409         	15.417         	1.275
MS.410         	15.387         	1.307
MS.411         	15.358         	1.261
MS.412         	15.325         	1.267
MS.413         	15.295         	1.257
MS.414         	15.265         	1.358
MS.415         	15.235         	1.275
MS.416         	15.202         	1.243
MS.417         	15.172         	1.249
MS.418         	15.142         	1.227
MS.419         	15.112         	1.202
MS.420         	15.082         	1.213
MS.421         	15.052         	1.219
MS.422         	15.023         	1.215
MS.423         	14.992         	1.215
MS.424         	14.962         	1.19
MS.425         	14.932         	1.192
MS.426         	14.902         	1.1
MS.427         	14.872         	1.16
MS.428         	14.842         	1.215
MS.429         	14.812         	1.176
MS.430         	14.785         	1.152
MS.431         	14.755         	1.102
MS.432         	14.725         	1.122
MS.433         	14.695         	1.009
MS.434         	14.665         	1.07
MS.435         	14.637         	1.049
MS.436         	14.608         	0.985
MS.437         	14.577         	1.005
MS.438         	14.55          	1.108
MS.439         	14.52          	0.999
MS.440         	14.49          	0.939
MS.441         	14.462         	1.009
MS.442         	14.432         	0.943
MS.443         	14.405         	0.989
MS.444         	14.375         	0.951
MS.445         	14.347         	1.013
MS.446         	14.318         	0.912
MS.447         	14.29          	0.884
MS.448         	14.26          	0.894
MS.449         	14.233         	0.882
MS.450         	14.205         	0.92
MS.451         	14.175         	0.896
MS.452         	14.148         	0.931
MS.453         	14.12          	0.918
MS.454         	14.09          	0.872
MS.455         	14.062         	0.866
MS.456         	14.035         	0.844
MS.457         	14.007         	0.836
MS.458         	13.98          	0.832
MS.459         	13.95          	0.888
MS.460         	13.922         	0.86
MS.461         	13.895         	0.786
MS.462         	13.867         	0.792
MS.463         	13.84          	0.773
MS.464         	13.812         	0.763
MS.465         	13.785         	0.765
MS.466         	13.757         	0.749
MS.467         	13.73          	0.737
MS.468         	13.702         	0.741
MS.469         	13.675         	0.723
MS.470         	13.648         	0.705
MS.471         	13.62          	0.737
MS.472         	13.592         	0.729
MS.473         	13.565         	0.715
MS.474         	13.537         	0.689
MS.475         	13.512         	0.733
MS.476         	13.485         	0.667
MS.477         	13.457         	0.707
MS.478         	13.43          	0.655
MS.479         	13.405         	0.709
MS.480         	13.377         	0.725
MS.481         	13.35          	0.663
MS.482         	13.322         	0.699
MS.483         	13.297         	0.675
MS.484         	13.27          	0.681
MS.485         	13.245         	0.663
MS.486         	13.217         	0.689
MS.487         	13.19          	0.667
MS.488         	13.165         	0.651
MS.489         	13.137         	0.673
MS.490         	13.112         	0.689
MS.491         	13.085         	0.679
MS.492         	13.06          	0.653
MS.493         	13.032         	0.663
MS.494         	13.007         	0.626
MS.495         	12.983         	0.651
MS.496         	12.955         	0.622
MS.497         	12.93          	0.643
MS.498         	12.905         	0.614
MS.499         	12.877         	0.645
MS.500         	12.852         	0.634
