File:              	C:\Qtrac\Data\Daniel M Sørensen\MScan multicentre study\Data from centres\Oslo\Processed data\SZC00507F.QZD
Name:              	NO.OSL.NC.5.2
Protocol:          	MSCAN-R2
Date:              	7/5/20
Start time:        	17:15:37
Age:               	56
Sex:               	F
Temperature:
S/R sites:         	TA
NC/disease:        	NC5
Operator:          	SZ
Comments:          	Test2
M-SCAN DATA (15.7-6.4m)
Scanpts: 9, 15, 955, 976
Stim. (mA)     	Amp. (mV)
MS.1           	37.5           	6.901
MS.2           	37.5           	6.925
MS.3           	37.5           	6.923
MS.4           	37.5           	6.905
MS.5           	37.5           	6.884
MS.6           	37.5           	6.834
MS.7           	37.5           	6.83
MS.8           	37.5           	6.848
MS.9           	37.5           	6.83
MS.10          	37.5           	6.81
MS.11          	37.5           	6.824
MS.12          	37.5           	6.794
MS.13          	37.5           	6.816
MS.14          	37.5           	6.782
MS.15          	37.5           	6.85
MS.16          	37.5           	6.82
MS.17          	37.5           	6.796
MS.18          	37.5           	6.784
MS.19          	37.5           	6.78
MS.20          	37.5           	6.772
MS.21          	37.5           	6.794
MS.22          	37.5           	6.792
MS.23          	37.5           	6.816
MS.24          	37.275         	6.758
MS.25          	37.2           	6.758
MS.26          	37.127         	6.751
MS.27          	37.052         	6.786
MS.28          	36.978         	6.751
MS.29          	36.905         	6.749
MS.30          	36.83          	6.747
MS.31          	36.757         	6.751
MS.32          	36.685         	6.747
MS.33          	36.61          	6.749
MS.34          	36.537         	6.753
MS.35          	36.465         	6.725
MS.36          	36.392         	6.753
MS.37          	36.32          	6.731
MS.38          	36.247         	6.719
MS.39          	36.175         	6.703
MS.40          	36.103         	6.711
MS.41          	36.03          	6.711
MS.42          	35.958         	6.723
MS.43          	35.885         	6.679
MS.44          	35.815         	6.685
MS.45          	35.743         	6.727
MS.46          	35.67          	6.693
MS.47          	35.6           	6.681
MS.48          	35.528         	6.689
MS.49          	35.458         	6.695
MS.50          	35.388         	6.701
MS.51          	35.315         	6.701
MS.52          	35.245         	6.675
MS.53          	35.175         	6.705
MS.54          	35.105         	6.721
MS.55          	35.035         	6.697
MS.56          	34.965         	6.701
MS.57          	34.895         	6.715
MS.58          	34.825         	6.671
MS.59          	34.755         	6.701
MS.60          	34.685         	6.667
MS.61          	34.618         	6.679
MS.62          	34.548         	6.679
MS.63          	34.478         	6.661
MS.64          	34.41          	6.683
MS.65          	34.34          	6.661
MS.66          	34.272         	6.683
MS.67          	34.205         	6.697
MS.68          	34.135         	6.673
MS.69          	34.068         	6.681
MS.70          	34             	6.661
MS.71          	33.93          	6.673
MS.72          	33.862         	6.665
MS.73          	33.795         	6.643
MS.74          	33.728         	6.677
MS.75          	33.66          	6.675
MS.76          	33.592         	6.685
MS.77          	33.528         	6.657
MS.78          	33.46          	6.673
MS.79          	33.392         	6.699
MS.80          	33.325         	6.683
MS.81          	33.26          	6.659
MS.82          	33.193         	6.659
MS.83          	33.127         	6.681
MS.84          	33.06          	6.643
MS.85          	32.995         	6.657
MS.86          	32.927         	6.673
MS.87          	32.862         	6.653
MS.88          	32.798         	6.645
MS.89          	32.732         	6.639
MS.90          	32.665         	6.659
MS.91          	32.6           	6.627
MS.92          	32.535         	6.641
MS.93          	32.47          	6.633
MS.94          	32.405         	6.641
MS.95          	32.34          	6.627
MS.96          	32.278         	6.637
MS.97          	32.212         	6.629
MS.98          	32.147         	6.635
MS.99          	32.083         	6.621
MS.100         	32.02          	6.617
MS.101         	31.955         	6.627
MS.102         	31.892         	6.619
MS.103         	31.827         	6.623
MS.104         	31.765         	6.61
MS.105         	31.7           	6.61
MS.106         	31.637         	6.6
MS.107         	31.575         	6.6
MS.108         	31.51          	6.615
MS.109         	31.448         	6.594
MS.110         	31.385         	6.588
MS.111         	31.323         	6.635
MS.112         	31.26          	6.56
MS.113         	31.198         	6.612
MS.114         	31.135         	6.602
MS.115         	31.073         	6.617
MS.116         	31.01          	6.576
MS.117         	30.95          	6.606
MS.118         	30.887         	6.564
MS.119         	30.825         	6.57
MS.120         	30.762         	6.566
MS.121         	30.702         	6.58
MS.122         	30.64          	6.548
MS.123         	30.58          	6.554
MS.124         	30.517         	6.548
MS.125         	30.457         	6.552
MS.126         	30.397         	6.57
MS.127         	30.335         	6.534
MS.128         	30.275         	6.582
MS.129         	30.215         	6.518
MS.130         	30.155         	6.524
MS.131         	30.095         	6.52
MS.132         	30.035         	6.486
MS.133         	29.975         	6.516
MS.134         	29.915         	6.54
MS.135         	29.855         	6.506
MS.136         	29.795         	6.482
MS.137         	29.735         	6.53
MS.138         	29.675         	6.514
MS.139         	29.617         	6.504
MS.140         	29.557         	6.524
MS.141         	29.497         	6.459
MS.142         	29.44          	6.508
MS.143         	29.38          	6.48
MS.144         	29.323         	6.514
MS.145         	29.262         	6.52
MS.146         	29.205         	6.445
MS.147         	29.147         	6.409
MS.148         	29.087         	6.417
MS.149         	29.03          	6.461
MS.150         	28.972         	6.429
MS.151         	28.915         	6.403
MS.152         	28.858         	6.419
MS.153         	28.8           	6.425
MS.154         	28.743         	6.469
MS.155         	28.685         	6.445
MS.156         	28.627         	6.391
MS.157         	28.57          	6.353
MS.158         	28.512         	6.383
MS.159         	28.455         	6.367
MS.160         	28.397         	6.383
MS.161         	28.342         	6.331
MS.162         	28.285         	6.391
MS.163         	28.227         	6.322
MS.164         	28.172         	6.373
MS.165         	28.115         	6.361
MS.166         	28.06          	6.306
MS.167         	28.002         	6.3
MS.168         	27.948         	6.347
MS.169         	27.892         	6.278
MS.170         	27.835         	6.32
MS.171         	27.78          	6.328
MS.172         	27.725         	6.337
MS.173         	27.67          	6.278
MS.174         	27.615         	6.286
MS.175         	27.56          	6.288
MS.176         	27.505         	6.339
MS.177         	27.45          	6.3
MS.178         	27.395         	6.238
MS.179         	27.34          	6.28
MS.180         	27.285         	6.258
MS.181         	27.23          	6.246
MS.182         	27.175         	6.258
MS.183         	27.122         	6.218
MS.184         	27.067         	6.284
MS.185         	27.012         	6.23
MS.186         	26.96          	6.254
MS.187         	26.905         	6.244
MS.188         	26.852         	6.24
MS.189         	26.797         	6.228
MS.190         	26.745         	6.183
MS.191         	26.692         	6.204
MS.192         	26.637         	6.196
MS.193         	26.585         	6.248
MS.194         	26.532         	6.159
MS.195         	26.477         	6.234
MS.196         	26.425         	6.167
MS.197         	26.372         	6.117
MS.198         	26.32          	6.143
MS.199         	26.267         	6.129
MS.200         	26.215         	6.151
MS.201         	26.162         	6.077
MS.202         	26.11          	6.101
MS.203         	26.057         	6.093
MS.204         	26.005         	6.038
MS.205         	25.955         	6.121
MS.206         	25.903         	6.107
MS.207         	25.85          	6.022
MS.208         	25.8           	6.129
MS.209         	25.747         	6.059
MS.210         	25.695         	6.057
MS.211         	25.645         	6.075
MS.212         	25.592         	6.065
MS.213         	25.542         	6.028
MS.214         	25.493         	6.047
MS.215         	25.44          	6.087
MS.216         	25.39          	6.075
MS.217         	25.34          	6.012
MS.218         	25.288         	6.083
MS.219         	25.237         	5.978
MS.220         	25.188         	6.101
MS.221         	25.137         	6.061
MS.222         	25.087         	6.051
MS.223         	25.038         	6.077
MS.224         	24.987         	5.98
MS.225         	24.938         	5.97
MS.226         	24.887         	6.051
MS.227         	24.837         	5.996
MS.228         	24.788         	5.998
MS.229         	24.737         	6.02
MS.230         	24.688         	5.936
MS.231         	24.64          	5.966
MS.232         	24.59          	5.972
MS.233         	24.54          	5.906
MS.234         	24.493         	5.897
MS.235         	24.442         	5.881
MS.236         	24.395         	5.891
MS.237         	24.345         	5.942
MS.238         	24.297         	5.795
MS.239         	24.247         	5.841
MS.240         	24.2           	5.942
MS.241         	24.153         	5.891
MS.242         	24.102         	5.851
MS.243         	24.055         	5.785
MS.244         	24.007         	5.839
MS.245         	23.96          	5.883
MS.246         	23.91          	5.857
MS.247         	23.862         	5.787
MS.248         	23.815         	5.76
MS.249         	23.767         	5.849
MS.250         	23.72          	5.885
MS.251         	23.672         	5.763
MS.252         	23.625         	5.843
MS.253         	23.577         	5.843
MS.254         	23.532         	5.773
MS.255         	23.485         	5.791
MS.256         	23.438         	5.807
MS.257         	23.39          	5.752
MS.258         	23.345         	5.791
MS.259         	23.297         	5.696
MS.260         	23.25          	5.728
MS.261         	23.205         	5.736
MS.262         	23.157         	5.744
MS.263         	23.112         	5.654
MS.264         	23.065         	5.642
MS.265         	23.02          	5.622
MS.266         	22.972         	5.617
MS.267         	22.927         	5.652
MS.268         	22.882         	5.634
MS.269         	22.835         	5.646
MS.270         	22.79          	5.605
MS.271         	22.745         	5.632
MS.272         	22.7           	5.565
MS.273         	22.655         	5.537
MS.274         	22.608         	5.575
MS.275         	22.562         	5.575
MS.276         	22.517         	5.479
MS.277         	22.472         	5.541
MS.278         	22.427         	5.545
MS.279         	22.385         	5.485
MS.280         	22.34          	5.531
MS.281         	22.295         	5.466
MS.282         	22.25          	5.43
MS.283         	22.205         	5.398
MS.284         	22.16          	5.46
MS.285         	22.118         	5.426
MS.286         	22.073         	5.307
MS.287         	22.028         	5.422
MS.288         	21.985         	5.346
MS.289         	21.94          	5.251
MS.290         	21.897         	5.257
MS.291         	21.852         	5.289
MS.292         	21.81          	5.279
MS.293         	21.765         	5.259
MS.294         	21.722         	5.257
MS.295         	21.68          	5.178
MS.296         	21.635         	5.162
MS.297         	21.592         	5.084
MS.298         	21.55          	5.239
MS.299         	21.505         	5.229
MS.300         	21.462         	5.18
MS.301         	21.42          	5.13
MS.302         	21.377         	5.094
MS.303         	21.335         	5.124
MS.304         	21.292         	5.134
MS.305         	21.25          	4.985
MS.306         	21.208         	5.084
MS.307         	21.165         	4.993
MS.308         	21.122         	5.005
MS.309         	21.08          	4.977
MS.310         	21.038         	4.969
MS.311         	20.995         	5.025
MS.312         	20.955         	4.943
MS.313         	20.913         	4.906
MS.314         	20.87          	4.945
MS.315         	20.83          	4.975
MS.316         	20.788         	4.929
MS.317         	20.745         	4.782
MS.318         	20.705         	4.906
MS.319         	20.663         	4.88
MS.320         	20.622         	4.804
MS.321         	20.58          	4.812
MS.322         	20.54          	4.776
MS.323         	20.497         	4.729
MS.324         	20.458         	4.796
MS.325         	20.417         	4.711
MS.326         	20.375         	4.729
MS.327         	20.335         	4.796
MS.328         	20.295         	4.723
MS.329         	20.252         	4.745
MS.330         	20.212         	4.713
MS.331         	20.172         	4.733
MS.332         	20.132         	4.669
MS.333         	20.092         	4.655
MS.334         	20.052         	4.659
MS.335         	20.012         	4.649
MS.336         	19.972         	4.657
MS.337         	19.932         	4.631
MS.338         	19.892         	4.578
MS.339         	19.852         	4.625
MS.340         	19.812         	4.55
MS.341         	19.772         	4.586
MS.342         	19.735         	4.552
MS.343         	19.695         	4.471
MS.344         	19.655         	4.514
MS.345         	19.615         	4.538
MS.346         	19.577         	4.451
MS.347         	19.538         	4.439
MS.348         	19.497         	4.453
MS.349         	19.46          	4.477
MS.350         	19.42          	4.375
MS.351         	19.382         	4.435
MS.352         	19.342         	4.397
MS.353         	19.305         	4.353
MS.354         	19.265         	4.389
MS.355         	19.227         	4.312
MS.356         	19.19          	4.3
MS.357         	19.15          	4.322
MS.358         	19.112         	4.29
MS.359         	19.075         	4.248
MS.360         	19.035         	4.316
MS.361         	18.997         	4.272
MS.362         	18.96          	4.236
MS.363         	18.922         	4.2
MS.364         	18.885         	4.169
MS.365         	18.847         	4.238
MS.366         	18.81          	4.185
MS.367         	18.772         	4.181
MS.368         	18.735         	4.137
MS.369         	18.698         	4.143
MS.370         	18.66          	4.147
MS.371         	18.622         	4.113
MS.372         	18.585         	4.097
MS.373         	18.547         	4.061
MS.374         	18.51          	4.087
MS.375         	18.472         	4.028
MS.376         	18.438         	4.081
MS.377         	18.4           	4.028
MS.378         	18.362         	3.994
MS.379         	18.327         	4.02
MS.380         	18.29          	3.992
MS.381         	18.253         	3.954
MS.382         	18.217         	3.871
MS.383         	18.18          	3.926
MS.384         	18.145         	3.942
MS.385         	18.108         	3.956
MS.386         	18.073         	3.934
MS.387         	18.035         	3.839
MS.388         	18             	3.867
MS.389         	17.962         	3.871
MS.390         	17.927         	3.833
MS.391         	17.892         	3.825
MS.392         	17.855         	3.883
MS.393         	17.82          	3.783
MS.394         	17.785         	3.744
MS.395         	17.75          	3.652
MS.396         	17.712         	3.773
MS.397         	17.677         	3.762
MS.398         	17.642         	3.752
MS.399         	17.608         	3.66
MS.400         	17.573         	3.716
MS.401         	17.538         	3.656
MS.402         	17.503         	3.634
MS.403         	17.467         	3.509
MS.404         	17.432         	3.567
MS.405         	17.397         	3.533
MS.406         	17.362         	3.523
MS.407         	17.327         	3.484
MS.408         	17.292         	3.593
MS.409         	17.26          	3.438
MS.410         	17.225         	3.4
MS.411         	17.19          	3.416
MS.412         	17.155         	3.354
MS.413         	17.122         	3.428
MS.414         	17.087         	3.37
MS.415         	17.052         	3.378
MS.416         	17.02          	3.364
MS.417         	16.985         	3.327
MS.418         	16.95          	3.275
MS.419         	16.917         	3.267
MS.420         	16.882         	3.273
MS.421         	16.85          	3.211
MS.422         	16.815         	3.211
MS.423         	16.782         	3.205
MS.424         	16.75          	3.233
MS.425         	16.715         	3.192
MS.426         	16.682         	3.142
MS.427         	16.65          	3.1
MS.428         	16.615         	3.07
MS.429         	16.583         	3.112
MS.430         	16.55          	3.007
MS.431         	16.515         	3.116
MS.432         	16.483         	3.156
MS.433         	16.45          	3.074
MS.434         	16.417         	3.035
MS.435         	16.385         	3.09
MS.436         	16.352         	3.025
MS.437         	16.32          	2.963
MS.438         	16.288         	3.015
MS.439         	16.255         	2.894
MS.440         	16.222         	2.973
MS.441         	16.19          	2.947
MS.442         	16.157         	2.939
MS.443         	16.125         	2.876
MS.444         	16.092         	2.917
MS.445         	16.06          	2.939
MS.446         	16.028         	2.947
MS.447         	15.995         	2.88
MS.448         	15.965         	2.822
MS.449         	15.932         	2.78
MS.450         	15.9           	2.862
MS.451         	15.867         	2.822
MS.452         	15.837         	2.798
MS.453         	15.805         	2.83
MS.454         	15.773         	2.79
MS.455         	15.742         	2.751
MS.456         	15.71          	2.705
MS.457         	15.68          	2.745
MS.458         	15.648         	2.697
MS.459         	15.617         	2.717
MS.460         	15.585         	2.643
MS.461         	15.555         	2.58
MS.462         	15.523         	2.596
MS.463         	15.492         	2.6
MS.464         	15.46          	2.608
MS.465         	15.43          	2.608
MS.466         	15.4           	2.524
MS.467         	15.37          	2.586
MS.468         	15.337         	2.518
MS.469         	15.307         	2.459
MS.470         	15.277         	2.526
MS.471         	15.247         	2.536
MS.472         	15.215         	2.494
MS.473         	15.185         	2.5
MS.474         	15.155         	2.518
MS.475         	15.125         	2.467
MS.476         	15.095         	2.409
MS.477         	15.065         	2.349
MS.478         	15.035         	2.389
MS.479         	15.005         	2.409
MS.480         	14.975         	2.377
MS.481         	14.945         	2.357
MS.482         	14.915         	2.33
MS.483         	14.885         	2.334
MS.484         	14.855         	2.379
MS.485         	14.825         	2.342
MS.486         	14.795         	2.266
MS.487         	14.765         	2.222
MS.488         	14.737         	2.27
MS.489         	14.707         	2.26
MS.490         	14.677         	2.208
MS.491         	14.648         	2.256
MS.492         	14.62          	2.201
MS.493         	14.59          	2.206
MS.494         	14.56          	2.191
MS.495         	14.532         	2.113
MS.496         	14.502         	2.183
MS.497         	14.475         	2.109
MS.498         	14.445         	2.147
MS.499         	14.415         	2.087
MS.500         	14.387         	2.087
MS.501         	14.358         	2.04
