File:              	C:\Qtrac\Data\Daniel M Sørensen\MScan multicentre study\Data from centres\Oslo\Processed data\SZC00505C.QZD
Name:              	NO.OSL.NC.2.2
Protocol:          	MSCAN-R2
Date:              	5/5/20
Start time:        	16:29:07
Age:               	41
Sex:               	F
Temperature:       	32.8
S/R sites:         	TA
NC/disease:        	NC2
Operator:          	SZ
Comments:          	Test2
M-SCAN DATA (10.2-4.8m)
Scanpts: 15, 22, 555, 576
Stim. (mA)     	Amp. (mV)
MS.1           	24             	10.337
MS.2           	24             	10.339
MS.3           	24             	10.337
MS.4           	24             	10.28
MS.5           	24             	10.24
MS.6           	24             	10.206
MS.7           	24             	10.226
MS.8           	24             	10.182
MS.9           	24             	10.18
MS.10          	24             	10.172
MS.11          	24             	10.155
MS.12          	24             	10.172
MS.13          	24             	10.157
MS.14          	24             	10.174
MS.15          	24             	10.184
MS.16          	24             	10.167
MS.17          	24             	10.167
MS.18          	24             	10.178
MS.19          	24             	10.188
MS.20          	24             	10.192
MS.21          	24             	10.176
MS.22          	24             	10.141
MS.23          	23.905         	10.143
MS.24          	23.858         	10.127
MS.25          	23.807         	10.178
MS.26          	23.76          	10.167
MS.27          	23.712         	10.153
MS.28          	23.665         	10.131
MS.29          	23.62          	10.145
MS.30          	23.573         	10.135
MS.31          	23.525         	10.113
MS.32          	23.477         	10.151
MS.33          	23.43          	10.159
MS.34          	23.385         	10.169
MS.35          	23.337         	10.141
MS.36          	23.29          	10.157
MS.37          	23.245         	10.153
MS.38          	23.198         	10.139
MS.39          	23.153         	10.089
MS.40          	23.105         	10.143
MS.41          	23.06          	10.101
MS.42          	23.012         	10.143
MS.43          	22.967         	10.143
MS.44          	22.92          	10.129
MS.45          	22.875         	10.107
MS.46          	22.83          	10.141
MS.47          	22.785         	10.129
MS.48          	22.737         	10.115
MS.49          	22.692         	10.105
MS.50          	22.647         	10.119
MS.51          	22.602         	10.135
MS.52          	22.557         	10.139
MS.53          	22.512         	10.105
MS.54          	22.467         	10.077
MS.55          	22.422         	10.101
MS.56          	22.377         	10.109
MS.57          	22.332         	10.145
MS.58          	22.288         	10.123
MS.59          	22.243         	10.095
MS.60          	22.2           	10.069
MS.61          	22.155         	10.085
MS.62          	22.11          	10.069
MS.63          	22.067         	10.047
MS.64          	22.022         	10.063
MS.65          	21.977         	10.079
MS.66          	21.935         	10.091
MS.67          	21.89          	10.053
MS.68          	21.847         	10.093
MS.69          	21.802         	10.033
MS.70          	21.76          	10.029
MS.71          	21.715         	10.02
MS.72          	21.672         	10.067
MS.73          	21.63          	10.061
MS.74          	21.585         	9.992
MS.75          	21.542         	10.01
MS.76          	21.5           	10.043
MS.77          	21.458         	10.031
MS.78          	21.415         	10.085
MS.79          	21.372         	10.043
MS.80          	21.327         	10.045
MS.81          	21.285         	9.982
MS.82          	21.243         	10.024
MS.83          	21.2           	9.944
MS.84          	21.157         	9.972
MS.85          	21.118         	9.982
MS.86          	21.075         	9.948
MS.87          	21.032         	9.968
MS.88          	20.99          	9.924
MS.89          	20.948         	9.966
MS.90          	20.907         	9.946
MS.91          	20.865         	9.962
MS.92          	20.823         	9.898
MS.93          	20.78          	9.902
MS.94          	20.74          	9.902
MS.95          	20.698         	9.902
MS.96          	20.657         	9.912
MS.97          	20.615         	10.012
MS.98          	20.575         	9.92
MS.99          	20.532         	9.94
MS.100         	20.493         	9.797
MS.101         	20.452         	9.827
MS.102         	20.41          	9.869
MS.103         	20.37          	9.885
MS.104         	20.33          	9.668
MS.105         	20.288         	9.821
MS.106         	20.247         	9.926
MS.107         	20.208         	9.813
MS.108         	20.167         	9.642
MS.109         	20.127         	9.817
MS.110         	20.087         	9.626
MS.111         	20.047         	9.642
MS.112         	20.007         	9.694
MS.113         	19.967         	9.896
MS.114         	19.927         	9.666
MS.115         	19.887         	9.624
MS.116         	19.847         	9.783
MS.117         	19.807         	9.779
MS.118         	19.767         	9.811
MS.119         	19.727         	9.626
MS.120         	19.69          	9.593
MS.121         	19.65          	9.61
MS.122         	19.61          	9.545
MS.123         	19.57          	9.543
MS.124         	19.532         	9.606
MS.125         	19.493         	9.614
MS.126         	19.455         	9.61
MS.127         	19.415         	9.535
MS.128         	19.377         	9.589
MS.129         	19.337         	9.4
MS.130         	19.3           	9.547
MS.131         	19.26          	9.571
MS.132         	19.222         	9.519
MS.133         	19.182         	9.483
MS.134         	19.145         	9.42
MS.135         	19.108         	9.454
MS.136         	19.067         	9.499
MS.137         	19.03          	9.475
MS.138         	18.993         	9.44
MS.139         	18.955         	9.473
MS.140         	18.917         	9.519
MS.141         	18.88          	9.442
MS.142         	18.842         	9.181
MS.143         	18.802         	9.452
MS.144         	18.765         	9.307
MS.145         	18.727         	9.283
MS.146         	18.69          	9.422
MS.147         	18.655         	9.392
MS.148         	18.618         	9.301
MS.149         	18.58          	9.285
MS.150         	18.542         	9.394
MS.151         	18.505         	9.144
MS.152         	18.467         	9.122
MS.153         	18.432         	9.219
MS.154         	18.395         	9.203
MS.155         	18.358         	9.253
MS.156         	18.32          	9.187
MS.157         	18.285         	9.235
MS.158         	18.247         	9.209
MS.159         	18.212         	9.164
MS.160         	18.175         	8.979
MS.161         	18.137         	9.044
MS.162         	18.102         	9.054
MS.163         	18.067         	8.899
MS.164         	18.03          	8.822
MS.165         	17.995         	8.721
MS.166         	17.958         	8.804
MS.167         	17.922         	8.923
MS.168         	17.887         	9.052
MS.169         	17.85          	8.943
MS.170         	17.815         	8.727
MS.171         	17.78          	8.747
MS.172         	17.745         	8.59
MS.173         	17.708         	8.613
MS.174         	17.672         	8.661
MS.175         	17.637         	8.731
MS.176         	17.602         	8.731
MS.177         	17.567         	8.607
MS.178         	17.532         	8.377
MS.179         	17.497         	8.546
MS.180         	17.462         	8.635
MS.181         	17.427         	8.339
MS.182         	17.392         	8.274
MS.183         	17.358         	8.472
MS.184         	17.323         	8.202
MS.185         	17.288         	8.433
MS.186         	17.255         	8.409
MS.187         	17.22          	8.347
MS.188         	17.185         	8.049
MS.189         	17.15          	8.333
MS.190         	17.118         	8.355
MS.191         	17.083         	8.357
MS.192         	17.047         	8.051
MS.193         	17.015         	8.25
MS.194         	16.98          	7.789
MS.195         	16.948         	8.23
MS.196         	16.913         	8.272
MS.197         	16.878         	7.928
MS.198         	16.845         	7.916
MS.199         	16.812         	7.952
MS.200         	16.778         	7.95
MS.201         	16.745         	7.702
MS.202         	16.71          	7.761
MS.203         	16.677         	7.64
MS.204         	16.645         	7.555
MS.205         	16.61          	7.805
MS.206         	16.577         	7.775
MS.207         	16.545         	7.406
MS.208         	16.512         	7.593
MS.209         	16.477         	7.585
MS.210         	16.445         	7.265
MS.211         	16.413         	7.462
MS.212         	16.38          	7.477
MS.213         	16.347         	7.386
MS.214         	16.315         	7.513
MS.215         	16.282         	7.195
MS.216         	16.25          	7.235
MS.217         	16.217         	7.176
MS.218         	16.185         	7.259
MS.219         	16.153         	7.283
MS.220         	16.12          	7.128
MS.221         	16.087         	7.138
MS.222         	16.055         	7.074
MS.223         	16.022         	7.009
MS.224         	15.992         	6.999
MS.225         	15.96          	7.352
MS.226         	15.927         	6.975
MS.227         	15.895         	7.104
MS.228         	15.865         	6.947
MS.229         	15.832         	7.07
MS.230         	15.8           	6.909
MS.231         	15.77          	6.828
MS.232         	15.737         	6.788
MS.233         	15.705         	6.735
MS.234         	15.675         	6.876
MS.235         	15.642         	6.903
MS.236         	15.612         	6.766
MS.237         	15.58          	6.679
MS.238         	15.55          	6.713
MS.239         	15.52          	6.745
MS.240         	15.487         	6.764
MS.241         	15.457         	6.717
MS.242         	15.425         	6.604
MS.243         	15.395         	6.683
MS.244         	15.365         	6.633
MS.245         	15.332         	6.516
MS.246         	15.302         	6.381
MS.247         	15.273         	6.532
MS.248         	15.242         	6.441
MS.249         	15.212         	6.335
MS.250         	15.18          	6.437
MS.251         	15.15          	6.405
MS.252         	15.12          	6.395
MS.253         	15.09          	6.31
MS.254         	15.06          	6.294
MS.255         	15.03          	6.322
MS.256         	15             	6.28
MS.257         	14.97          	6.324
MS.258         	14.94          	6.212
MS.259         	14.91          	6.298
MS.260         	14.88          	6.069
MS.261         	14.85          	6.107
MS.262         	14.82          	6.111
MS.263         	14.792         	5.938
MS.264         	14.762         	6.119
MS.265         	14.733         	5.829
MS.266         	14.702         	5.881
MS.267         	14.672         	5.779
MS.268         	14.645         	6.04
MS.269         	14.615         	6.014
MS.270         	14.585         	5.777
MS.271         	14.557         	5.72
MS.272         	14.527         	5.474
MS.273         	14.497         	5.732
MS.274         	14.47          	5.527
MS.275         	14.44          	5.513
MS.276         	14.412         	5.394
MS.277         	14.382         	5.658
MS.278         	14.355         	5.273
MS.279         	14.325         	5.45
MS.280         	14.297         	5.543
MS.281         	14.267         	5.245
MS.282         	14.24          	5.309
MS.283         	14.212         	5.37
MS.284         	14.182         	5.442
MS.285         	14.155         	5.245
MS.286         	14.127         	5.275
MS.287         	14.097         	5.231
MS.288         	14.07          	5.043
MS.289         	14.042         	5.035
MS.290         	14.015         	5.094
MS.291         	13.985         	5.172
MS.292         	13.957         	4.957
MS.293         	13.93          	4.848
MS.294         	13.903         	4.707
MS.295         	13.875         	4.663
MS.296         	13.847         	4.52
MS.297         	13.82          	4.81
MS.298         	13.792         	4.729
MS.299         	13.765         	4.508
MS.300         	13.737         	4.629
MS.301         	13.71          	4.371
MS.302         	13.682         	4.457
MS.303         	13.655         	4.373
MS.304         	13.627         	4.391
MS.305         	13.6           	4.415
MS.306         	13.572         	4.437
MS.307         	13.545         	4.463
MS.308         	13.517         	4.3
MS.309         	13.492         	4.141
MS.310         	13.465         	4.204
MS.311         	13.438         	4.115
MS.312         	13.41          	3.916
MS.313         	13.385         	3.994
MS.314         	13.358         	4.244
MS.315         	13.33          	4.012
MS.316         	13.305         	3.849
MS.317         	13.278         	4.059
MS.318         	13.25          	3.922
MS.319         	13.225         	4.036
MS.320         	13.197         	3.74
MS.321         	13.172         	3.444
MS.322         	13.145         	3.867
MS.323         	13.12          	3.66
MS.324         	13.092         	3.503
MS.325         	13.068         	3.871
MS.326         	13.04          	3.311
MS.327         	13.015         	3.478
MS.328         	12.987         	3.527
MS.329         	12.962         	3.505
MS.330         	12.938         	3.491
MS.331         	12.91          	3.253
MS.332         	12.885         	3.362
MS.333         	12.86          	3.305
MS.334         	12.832         	3.376
MS.335         	12.807         	3.162
MS.336         	12.782         	3.164
MS.337         	12.757         	3.243
MS.338         	12.73          	2.947
MS.339         	12.705         	2.971
MS.340         	12.68          	3.116
MS.341         	12.655         	2.923
MS.342         	12.63          	2.927
MS.343         	12.605         	2.917
MS.344         	12.58          	2.84
MS.345         	12.555         	2.902
MS.346         	12.53          	2.884
MS.347         	12.505         	2.691
MS.348         	12.48          	2.592
MS.349         	12.455         	2.681
MS.350         	12.43          	2.663
MS.351         	12.405         	2.649
MS.352         	12.38          	2.612
MS.353         	12.355         	2.729
MS.354         	12.33          	2.594
MS.355         	12.305         	2.576
MS.356         	12.28          	2.475
MS.357         	12.257         	2.423
MS.358         	12.233         	2.224
MS.359         	12.207         	2.181
MS.360         	12.182         	2.159
MS.361         	12.16          	2.226
MS.362         	12.135         	2.212
MS.363         	12.11          	2.216
MS.364         	12.085         	2.224
MS.365         	12.062         	2.109
MS.366         	12.037         	2.05
MS.367         	12.012         	2.016
MS.368         	11.99          	2.153
MS.369         	11.965         	1.915
MS.370         	11.943         	2.163
MS.371         	11.917         	2
MS.372         	11.895         	2.052
MS.373         	11.87          	1.805
MS.374         	11.847         	1.956
MS.375         	11.822         	2.032
MS.376         	11.8           	1.928
MS.377         	11.775         	2.018
MS.378         	11.752         	1.96
MS.379         	11.73          	1.99
MS.380         	11.705         	1.754
MS.381         	11.682         	1.827
MS.382         	11.657         	1.791
MS.383         	11.635         	1.633
MS.384         	11.613         	1.656
MS.385         	11.59          	1.708
MS.386         	11.565         	1.825
MS.387         	11.542         	1.492
MS.388         	11.52          	1.613
MS.389         	11.497         	1.708
MS.390         	11.472         	1.458
MS.391         	11.45          	1.509
MS.392         	11.427         	1.49
MS.393         	11.405         	1.472
MS.394         	11.382         	1.41
MS.395         	11.36          	1.468
MS.396         	11.337         	1.456
MS.397         	11.315         	1.349
MS.398         	11.292         	1.488
MS.399         	11.27          	1.269
MS.400         	11.247         	1.249
MS.401         	11.225         	1.255
MS.402         	11.202         	1.418
MS.403         	11.18          	1.184
MS.404         	11.157         	1.15
MS.405         	11.135         	1.188
MS.406         	11.113         	1.11
MS.407         	11.09          	1.065
MS.408         	11.068         	0.965
MS.409         	11.045         	1.082
MS.410         	11.023         	1.023
MS.411         	11.002         	0.951
MS.412         	10.98          	1.017
MS.413         	10.957         	0.969
MS.414         	10.935         	1.045
MS.415         	10.915         	0.8
MS.416         	10.892         	0.949
MS.417         	10.87          	0.822
MS.418         	10.85          	0.963
MS.419         	10.827         	0.943
MS.420         	10.805         	0.918
MS.421         	10.785         	0.693
MS.422         	10.762         	0.832
MS.423         	10.74          	0.914
MS.424         	10.72          	0.81
MS.425         	10.698         	0.735
MS.426         	10.677         	0.786
MS.427         	10.655         	0.826
MS.428         	10.635         	0.614
MS.429         	10.613         	0.608
MS.430         	10.592         	0.665
MS.431         	10.57          	0.62
MS.432         	10.55          	0.638
MS.433         	10.528         	0.608
MS.434         	10.507         	0.651
MS.435         	10.485         	0.602
MS.436         	10.465         	0.55
MS.437         	10.445         	0.643
MS.438         	10.422         	0.616
MS.439         	10.403         	0.574
MS.440         	10.382         	0.582
MS.441         	10.36          	0.493
MS.442         	10.34          	0.502
MS.443         	10.32          	0.554
MS.444         	10.3           	0.461
MS.445         	10.278         	0.52
MS.446         	10.257         	0.463
MS.447         	10.238         	0.334
MS.448         	10.217         	0.427
MS.449         	10.198         	0.429
MS.450         	10.175         	0.397
MS.451         	10.155         	0.415
MS.452         	10.135         	0.443
MS.453         	10.115         	0.35
MS.454         	10.095         	0.405
MS.455         	10.075         	0.389
MS.456         	10.055         	0.369
MS.457         	10.035         	0.276
MS.458         	10.015         	0.29
MS.459         	9.995          	0.332
MS.460         	9.975          	0.268
MS.461         	9.955          	0.312
MS.462         	9.935          	0.332
MS.463         	9.915          	0.296
MS.464         	9.895          	0.383
MS.465         	9.875          	0.312
MS.466         	9.855          	0.238
MS.467         	9.835          	0.326
MS.468         	9.818          	0.272
MS.469         	9.797          	0.288
MS.470         	9.778          	0.29
MS.471         	9.757          	0.216
MS.472         	9.738          	0.22
MS.473         	9.717          	0.278
MS.474         	9.7            	0.242
MS.475         	9.68           	0.216
MS.476         	9.66           	0.252
MS.477         	9.64           	0.232
MS.478         	9.622          	0.246
MS.479         	9.602          	0.195
MS.480         	9.582          	0.185
MS.481         	9.565          	0.165
MS.482         	9.545          	0.143
MS.483         	9.525          	0.175
MS.484         	9.507          	0.171
MS.485         	9.488          	0.171
MS.486         	9.47           	0.163
MS.487         	9.45           	0.165
MS.488         	9.432          	0.151
MS.489         	9.412          	0.195
MS.490         	9.395          	0.179
MS.491         	9.375          	0.129
MS.492         	9.358          	0.137
MS.493         	9.337          	0.123
MS.494         	9.32           	0.131
MS.495         	9.3            	0.141
MS.496         	9.283          	0.097
MS.497         	9.262          	0.125
MS.498         	9.245          	0.145
MS.499         	9.225          	0.143
