File:              	C:\Qtrac\Data\Daniel M Sørensen\MScan multicentre study\Data from centres\Bucharest\Processed data\TDLC00910C.QZD
Name:              	RO.BU.NC.5.2
Protocol:          	MSCAN-R2
Date:              	10/9/20
Start time:        	16:27:12
Age:               	53
Sex:               	F
Temperature:       	35.5
S/R sites:         	TA
NC/disease:        	NC
Operator:          	TL
Comments:          	RONC5.2.
M-SCAN DATA (7.7-1.7m)
Scanpts: 35, 42, 621, 643
Stim. (mA)     	Amp. (mV)
MS.1           	15             	5.736
MS.2           	15             	5.728
MS.3           	15             	5.742
MS.4           	15             	5.698
MS.5           	15             	5.664
MS.6           	15             	5.678
MS.7           	15             	5.68
MS.8           	15             	5.66
MS.9           	15             	5.666
MS.10          	15             	5.674
MS.11          	15             	5.672
MS.12          	15             	5.676
MS.13          	15             	5.684
MS.14          	15             	5.666
MS.15          	15             	5.67
MS.16          	15             	5.674
MS.17          	15             	5.668
MS.18          	15             	5.652
MS.19          	15             	5.686
MS.20          	15             	5.694
MS.21          	15             	5.662
MS.22          	15             	5.656
MS.23          	15             	5.662
MS.24          	14.94          	5.682
MS.25          	14.91          	5.67
MS.26          	14.88          	5.668
MS.27          	14.85          	5.674
MS.28          	14.82          	5.67
MS.29          	14.792         	5.656
MS.30          	14.762         	5.644
MS.31          	14.733         	5.674
MS.32          	14.702         	5.658
MS.33          	14.672         	5.676
MS.34          	14.645         	5.666
MS.35          	14.615         	5.658
MS.36          	14.585         	5.674
MS.37          	14.557         	5.676
MS.38          	14.527         	5.668
MS.39          	14.497         	5.674
MS.40          	14.47          	5.67
MS.41          	14.44          	5.662
MS.42          	14.412         	5.668
MS.43          	14.382         	5.66
MS.44          	14.355         	5.668
MS.45          	14.325         	5.658
MS.46          	14.297         	5.674
MS.47          	14.267         	5.67
MS.48          	14.24          	5.666
MS.49          	14.212         	5.672
MS.50          	14.182         	5.682
MS.51          	14.155         	5.676
MS.52          	14.127         	5.656
MS.53          	14.097         	5.632
MS.54          	14.07          	5.672
MS.55          	14.042         	5.682
MS.56          	14.015         	5.66
MS.57          	13.985         	5.672
MS.58          	13.957         	5.648
MS.59          	13.93          	5.668
MS.60          	13.903         	5.678
MS.61          	13.875         	5.672
MS.62          	13.847         	5.654
MS.63          	13.82          	5.67
MS.64          	13.792         	5.664
MS.65          	13.765         	5.682
MS.66          	13.737         	5.672
MS.67          	13.71          	5.682
MS.68          	13.682         	5.686
MS.69          	13.655         	5.674
MS.70          	13.627         	5.666
MS.71          	13.6           	5.65
MS.72          	13.572         	5.658
MS.73          	13.545         	5.654
MS.74          	13.517         	5.668
MS.75          	13.492         	5.654
MS.76          	13.465         	5.648
MS.77          	13.438         	5.666
MS.78          	13.41          	5.666
MS.79          	13.385         	5.648
MS.80          	13.358         	5.656
MS.81          	13.33          	5.64
MS.82          	13.305         	5.668
MS.83          	13.278         	5.628
MS.84          	13.25          	5.634
MS.85          	13.225         	5.638
MS.86          	13.197         	5.644
MS.87          	13.172         	5.63
MS.88          	13.145         	5.652
MS.89          	13.12          	5.634
MS.90          	13.092         	5.632
MS.91          	13.068         	5.65
MS.92          	13.04          	5.624
MS.93          	13.015         	5.634
MS.94          	12.987         	5.64
MS.95          	12.962         	5.601
MS.96          	12.938         	5.624
MS.97          	12.91          	5.636
MS.98          	12.885         	5.632
MS.99          	12.86          	5.64
MS.100         	12.832         	5.634
MS.101         	12.807         	5.622
MS.102         	12.782         	5.638
MS.103         	12.757         	5.626
MS.104         	12.73          	5.626
MS.105         	12.705         	5.601
MS.106         	12.68          	5.603
MS.107         	12.655         	5.611
MS.108         	12.63          	5.597
MS.109         	12.605         	5.599
MS.110         	12.58          	5.561
MS.111         	12.555         	5.585
MS.112         	12.53          	5.595
MS.113         	12.505         	5.603
MS.114         	12.48          	5.579
MS.115         	12.455         	5.569
MS.116         	12.43          	5.603
MS.117         	12.405         	5.605
MS.118         	12.38          	5.527
MS.119         	12.355         	5.599
MS.120         	12.33          	5.589
MS.121         	12.305         	5.567
MS.122         	12.28          	5.603
MS.123         	12.257         	5.527
MS.124         	12.233         	5.555
MS.125         	12.207         	5.543
MS.126         	12.182         	5.519
MS.127         	12.157         	5.519
MS.128         	12.135         	5.543
MS.129         	12.11          	5.517
MS.130         	12.085         	5.503
MS.131         	12.062         	5.551
MS.132         	12.037         	5.537
MS.133         	12.012         	5.511
MS.134         	11.99          	5.462
MS.135         	11.965         	5.491
MS.136         	11.943         	5.495
MS.137         	11.917         	5.46
MS.138         	11.895         	5.499
MS.139         	11.87          	5.452
MS.140         	11.847         	5.529
MS.141         	11.822         	5.474
MS.142         	11.8           	5.414
MS.143         	11.775         	5.452
MS.144         	11.752         	5.43
MS.145         	11.73          	5.464
MS.146         	11.705         	5.42
MS.147         	11.682         	5.422
MS.148         	11.657         	5.434
MS.149         	11.635         	5.426
MS.150         	11.613         	5.42
MS.151         	11.59          	5.398
MS.152         	11.565         	5.4
MS.153         	11.542         	5.418
MS.154         	11.52          	5.372
MS.155         	11.497         	5.376
MS.156         	11.472         	5.424
MS.157         	11.45          	5.352
MS.158         	11.427         	5.368
MS.159         	11.405         	5.412
MS.160         	11.382         	5.414
MS.161         	11.36          	5.378
MS.162         	11.337         	5.333
MS.163         	11.315         	5.329
MS.164         	11.292         	5.34
MS.165         	11.27          	5.412
MS.166         	11.247         	5.325
MS.167         	11.225         	5.329
MS.168         	11.202         	5.313
MS.169         	11.18          	5.34
MS.170         	11.157         	5.275
MS.171         	11.135         	5.271
MS.172         	11.113         	5.297
MS.173         	11.09          	5.271
MS.174         	11.068         	5.207
MS.175         	11.045         	5.319
MS.176         	11.023         	5.243
MS.177         	11.002         	5.18
MS.178         	10.98          	5.259
MS.179         	10.957         	5.142
MS.180         	10.935         	5.271
MS.181         	10.915         	5.281
MS.182         	10.892         	5.11
MS.183         	10.87          	5.203
MS.184         	10.847         	5.227
MS.185         	10.827         	5.172
MS.186         	10.805         	5.118
MS.187         	10.785         	5.188
MS.188         	10.762         	5.207
MS.189         	10.74          	5.037
MS.190         	10.72          	5.106
MS.191         	10.698         	5.1
MS.192         	10.677         	5.068
MS.193         	10.655         	5.08
MS.194         	10.635         	5.019
MS.195         	10.613         	5.033
MS.196         	10.592         	5.019
MS.197         	10.57          	4.993
MS.198         	10.55          	4.987
MS.199         	10.528         	5.029
MS.200         	10.507         	4.971
MS.201         	10.485         	4.977
MS.202         	10.465         	4.985
MS.203         	10.445         	5.005
MS.204         	10.422         	4.977
MS.205         	10.403         	5.019
MS.206         	10.382         	4.949
MS.207         	10.36          	4.949
MS.208         	10.34          	4.923
MS.209         	10.32          	4.876
MS.210         	10.3           	4.886
MS.211         	10.278         	4.906
MS.212         	10.257         	4.876
MS.213         	10.238         	4.888
MS.214         	10.217         	4.898
MS.215         	10.198         	4.832
MS.216         	10.175         	4.864
MS.217         	10.155         	4.826
MS.218         	10.135         	4.862
MS.219         	10.115         	4.82
MS.220         	10.095         	4.824
MS.221         	10.075         	4.792
MS.222         	10.055         	4.784
MS.223         	10.035         	4.772
MS.224         	10.015         	4.8
MS.225         	9.995          	4.784
MS.226         	9.975          	4.824
MS.227         	9.955          	4.78
MS.228         	9.935          	4.689
MS.229         	9.915          	4.699
MS.230         	9.895          	4.699
MS.231         	9.875          	4.725
MS.232         	9.855          	4.671
MS.233         	9.835          	4.695
MS.234         	9.818          	4.735
MS.235         	9.797          	4.697
MS.236         	9.778          	4.697
MS.237         	9.757          	4.735
MS.238         	9.738          	4.689
MS.239         	9.717          	4.635
MS.240         	9.7            	4.673
MS.241         	9.68           	4.635
MS.242         	9.66           	4.637
MS.243         	9.64           	4.606
MS.244         	9.622          	4.568
MS.245         	9.602          	4.604
MS.246         	9.582          	4.544
MS.247         	9.565          	4.53
MS.248         	9.545          	4.568
MS.249         	9.525          	4.558
MS.250         	9.507          	4.518
MS.251         	9.488          	4.538
MS.252         	9.47           	4.546
MS.253         	9.45           	4.53
MS.254         	9.432          	4.488
MS.255         	9.412          	4.526
MS.256         	9.395          	4.514
MS.257         	9.375          	4.441
MS.258         	9.358          	4.411
MS.259         	9.337          	4.403
MS.260         	9.32           	4.469
MS.261         	9.3            	4.486
MS.262         	9.283          	4.308
MS.263         	9.262          	4.379
MS.264         	9.245          	4.391
MS.265         	9.225          	4.306
MS.266         	9.207          	4.296
MS.267         	9.19           	4.252
MS.268         	9.17           	4.296
MS.269         	9.153          	4.268
MS.270         	9.135          	4.193
MS.271         	9.115          	4.216
MS.272         	9.097          	4.149
MS.273         	9.08           	4.161
MS.274         	9.062          	4.175
MS.275         	9.042          	4.167
MS.276         	9.025          	4.105
MS.277         	9.007          	4.141
MS.278         	8.99           	4.111
MS.279         	8.972          	4.101
MS.280         	8.952          	4.067
MS.281         	8.935          	3.853
MS.282         	8.917          	3.984
MS.283         	8.9            	4.026
MS.284         	8.882          	3.99
MS.285         	8.865          	4.028
MS.286         	8.847          	3.891
MS.287         	8.83           	3.914
MS.288         	8.812          	3.94
MS.289         	8.795          	3.887
MS.290         	8.775          	3.756
MS.291         	8.757          	3.857
MS.292         	8.74           	3.843
MS.293         	8.722          	3.881
MS.294         	8.707          	3.72
MS.295         	8.69           	3.728
MS.296         	8.672          	3.789
MS.297         	8.655          	3.668
MS.298         	8.637          	3.805
MS.299         	8.62           	3.69
MS.300         	8.602          	3.732
MS.301         	8.585          	3.704
MS.302         	8.568          	3.67
MS.303         	8.55           	3.766
MS.304         	8.535          	3.607
MS.305         	8.517          	3.557
MS.306         	8.5            	3.607
MS.307         	8.483          	3.535
MS.308         	8.465          	3.557
MS.309         	8.45           	3.487
MS.310         	8.432          	3.484
MS.311         	8.415          	3.448
MS.312         	8.398          	3.545
MS.313         	8.382          	3.4
MS.314         	8.365          	3.37
MS.315         	8.347          	3.362
MS.316         	8.332          	3.378
MS.317         	8.315          	3.422
MS.318         	8.297          	3.287
MS.319         	8.283          	3.337
MS.320         	8.265          	3.263
MS.321         	8.247          	3.209
MS.322         	8.233          	3.295
MS.323         	8.215          	3.253
MS.324         	8.2            	3.164
MS.325         	8.182          	3.166
MS.326         	8.167          	3.126
MS.327         	8.15           	3.045
MS.328         	8.135          	3.098
MS.329         	8.117          	3.092
MS.330         	8.102          	3.062
MS.331         	8.085          	3.049
MS.332         	8.07           	3.126
MS.333         	8.052          	3.114
MS.334         	8.037          	2.989
MS.335         	8.02           	2.872
MS.336         	8.005          	2.977
MS.337         	7.99           	3.009
MS.338         	7.972          	2.9
MS.339         	7.957          	2.832
MS.340         	7.94           	2.943
MS.341         	7.925          	2.868
MS.342         	7.91           	2.888
MS.343         	7.892          	2.798
MS.344         	7.878          	2.808
MS.345         	7.862          	2.679
MS.346         	7.847          	2.735
MS.347         	7.83           	2.757
MS.348         	7.815          	2.641
MS.349         	7.8            	2.665
MS.350         	7.785          	2.604
MS.351         	7.767          	2.6
MS.352         	7.753          	2.584
MS.353         	7.737          	2.54
MS.354         	7.722          	2.616
MS.355         	7.707          	2.53
MS.356         	7.69           	2.548
MS.357         	7.675          	2.512
MS.358         	7.66           	2.485
MS.359         	7.645          	2.473
MS.360         	7.63           	2.477
MS.361         	7.615          	2.453
MS.362         	7.6            	2.32
MS.363         	7.585          	2.415
MS.364         	7.57           	2.455
MS.365         	7.555          	2.31
MS.366         	7.537          	2.232
MS.367         	7.523          	2.244
MS.368         	7.507          	2.308
MS.369         	7.492          	2.302
MS.370         	7.477          	2.163
MS.371         	7.462          	2.201
MS.372         	7.447          	2.254
MS.373         	7.435          	2.101
MS.374         	7.42           	2.131
MS.375         	7.405          	2.119
MS.376         	7.39           	2.097
MS.377         	7.375          	2.081
MS.378         	7.36           	2.131
MS.379         	7.345          	2.038
MS.380         	7.33           	2.038
MS.381         	7.315          	2.042
MS.382         	7.302          	2.014
MS.383         	7.287          	1.978
MS.384         	7.273          	1.913
MS.385         	7.257          	1.966
MS.386         	7.242          	1.958
MS.387         	7.227          	2.01
MS.388         	7.215          	1.875
MS.389         	7.2            	1.851
MS.390         	7.185          	1.815
MS.391         	7.17           	1.867
MS.392         	7.157          	1.631
MS.393         	7.142          	1.779
MS.394         	7.128          	1.774
MS.395         	7.115          	1.736
MS.396         	7.1            	1.688
MS.397         	7.085          	1.791
MS.398         	7.072          	1.742
MS.399         	7.057          	1.656
MS.400         	7.043          	1.605
MS.401         	7.03           	1.583
MS.402         	7.015          	1.646
MS.403         	7              	1.682
MS.404         	6.987          	1.569
MS.405         	6.972          	1.513
MS.406         	6.96           	1.464
MS.407         	6.945          	1.406
MS.408         	6.932          	1.466
MS.409         	6.918          	1.47
MS.410         	6.902          	1.458
MS.411         	6.89           	1.462
MS.412         	6.875          	1.376
MS.413         	6.862          	1.426
MS.414         	6.847          	1.239
MS.415         	6.835          	1.301
MS.416         	6.822          	1.245
MS.417         	6.807          	1.265
MS.418         	6.795          	1.247
MS.419         	6.78           	1.356
MS.420         	6.767          	1.2
MS.421         	6.753          	1.192
MS.422         	6.74           	1.176
MS.423         	6.727          	1.198
MS.424         	6.712          	1.136
MS.425         	6.7            	1.096
MS.426         	6.685          	1.072
MS.427         	6.672          	1.096
MS.428         	6.66           	1.094
MS.429         	6.645          	1.057
MS.430         	6.632          	0.945
MS.431         	6.62           	0.971
MS.432         	6.608          	1.009
MS.433         	6.592          	0.914
MS.434         	6.58           	0.939
MS.435         	6.567          	0.854
MS.436         	6.555          	0.916
MS.437         	6.54           	0.961
MS.438         	6.527          	0.939
MS.439         	6.515          	0.924
MS.440         	6.503          	0.828
MS.441         	6.487          	0.759
MS.442         	6.475          	0.842
MS.443         	6.462          	0.832
MS.444         	6.45           	0.769
MS.445         	6.438          	0.709
MS.446         	6.425          	0.707
MS.447         	6.41           	0.709
MS.448         	6.398          	0.709
MS.449         	6.385          	0.705
MS.450         	6.372          	0.701
MS.451         	6.36           	0.634
MS.452         	6.347          	0.697
MS.453         	6.335          	0.677
MS.454         	6.322          	0.622
MS.455         	6.31           	0.661
MS.456         	6.297          	0.61
MS.457         	6.285          	0.632
MS.458         	6.273          	0.641
MS.459         	6.26           	0.6
MS.460         	6.247          	0.578
MS.461         	6.235          	0.576
MS.462         	6.222          	0.592
MS.463         	6.21           	0.566
MS.464         	6.197          	0.58
MS.465         	6.185          	0.56
MS.466         	6.172          	0.534
MS.467         	6.16           	0.554
MS.468         	6.148          	0.522
MS.469         	6.135          	0.483
MS.470         	6.122          	0.524
MS.471         	6.11           	0.522
MS.472         	6.097          	0.512
MS.473         	6.088          	0.52
MS.474         	6.075          	0.514
MS.475         	6.062          	0.491
MS.476         	6.05           	0.435
MS.477         	6.037          	0.435
MS.478         	6.025          	0.421
MS.479         	6.012          	0.453
MS.480         	6.003          	0.441
MS.481         	5.99           	0.431
MS.482         	5.977          	0.441
MS.483         	5.965          	0.399
MS.484         	5.955          	0.395
MS.485         	5.942          	0.385
MS.486         	5.93           	0.391
MS.487         	5.918          	0.352
MS.488         	5.907          	0.385
MS.489         	5.895          	0.417
MS.490         	5.882          	0.399
MS.491         	5.87           	0.332
MS.492         	5.86           	0.387
MS.493         	5.847          	0.346
MS.494         	5.835          	0.361
MS.495         	5.825          	0.3
MS.496         	5.812          	0.332
MS.497         	5.8            	0.278
MS.498         	5.79           	0.314
MS.499         	5.777          	0.344
MS.500         	5.767          	0.32
MS.501         	5.755          	0.296
