File:              	C:\Qtrac\Data\Daniel M Sørensen\MScan multicentre study\Data from centres\Odense\Processed data\TKC01109C.QZD
Name:              	DK.ODE.NC.7.2
Protocol:          	MSCAN-R2
Date:              	9/11/20
Start time:        	12:46:09
Age:               	41
Sex:               	F
Temperature:       	31.3
S/R sites:         	TA
NC/disease:        	NC
Operator:          	TK
Comments:
M-SCAN DATA (8.7-2.4m)
Scanpts: 5, 14, 601, 614
Stim. (mA)     	Amp. (mV)
MS.1           	33             	5.652
MS.2           	33             	5.64
MS.3           	33             	5.656
MS.4           	33             	5.692
MS.5           	33             	5.662
MS.6           	33             	5.658
MS.7           	33             	5.652
MS.8           	33             	5.684
MS.9           	33             	5.656
MS.10          	33             	5.682
MS.11          	33             	5.638
MS.12          	33             	5.682
MS.13          	33             	5.666
MS.14          	33             	5.67
MS.15          	33             	5.666
MS.16          	33             	5.63
MS.17          	33             	5.67
MS.18          	33             	5.638
MS.19          	33             	5.626
MS.20          	33             	5.64
MS.21          	33             	5.672
MS.22          	33             	5.644
MS.23          	33             	5.666
MS.24          	32.868         	5.636
MS.25          	32.802         	5.624
MS.26          	32.737         	5.668
MS.27          	32.673         	5.638
MS.28          	32.605         	5.656
MS.29          	32.54          	5.662
MS.30          	32.475         	5.597
MS.31          	32.41          	5.668
MS.32          	32.347         	5.646
MS.33          	32.282         	5.585
MS.34          	32.217         	5.648
MS.35          	32.153         	5.64
MS.36          	32.087         	5.591
MS.37          	32.025         	5.591
MS.38          	31.96          	5.63
MS.39          	31.897         	5.642
MS.40          	31.832         	5.632
MS.41          	31.77          	5.638
MS.42          	31.705         	5.609
MS.43          	31.642         	5.605
MS.44          	31.58          	5.593
MS.45          	31.517         	5.553
MS.46          	31.452         	5.561
MS.47          	31.39          	5.573
MS.48          	31.327         	5.597
MS.49          	31.265         	5.531
MS.50          	31.202         	5.591
MS.51          	31.14          	5.551
MS.52          	31.077         	5.569
MS.53          	31.015         	5.537
MS.54          	30.955         	5.537
MS.55          	30.892         	5.505
MS.56          	30.83          	5.541
MS.57          	30.77          	5.511
MS.58          	30.707         	5.519
MS.59          	30.645         	5.503
MS.60          	30.585         	5.497
MS.61          	30.522         	5.396
MS.62          	30.462         	5.412
MS.63          	30.403         	5.37
MS.64          	30.34          	5.394
MS.65          	30.28          	5.404
MS.66          	30.22          	5.368
MS.67          	30.16          	5.241
MS.68          	30.1           	5.414
MS.69          	30.04          	5.412
MS.70          	29.98          	5.374
MS.71          	29.92          	5.336
MS.72          	29.86          	5.396
MS.73          	29.8           	5.297
MS.74          	29.74          	5.338
MS.75          	29.68          	5.309
MS.76          	29.622         	5.338
MS.77          	29.562         	5.378
MS.78          	29.502         	5.35
MS.79          	29.445         	5.261
MS.80          	29.385         	5.321
MS.81          	29.327         	5.392
MS.82          	29.267         	5.325
MS.83          	29.21          	5.271
MS.84          	29.153         	5.221
MS.85          	29.092         	5.269
MS.86          	29.035         	5.384
MS.87          	28.977         	5.34
MS.88          	28.92          	5.273
MS.89          	28.862         	5.303
MS.90          	28.802         	5.261
MS.91          	28.745         	5.281
MS.92          	28.688         	5.235
MS.93          	28.632         	5.225
MS.94          	28.575         	5.259
MS.95          	28.517         	5.19
MS.96          	28.46          	5.174
MS.97          	28.403         	5.217
MS.98          	28.347         	5.215
MS.99          	28.29          	5.207
MS.100         	28.233         	5.128
MS.101         	28.177         	5.193
MS.102         	28.12          	5.158
MS.103         	28.065         	5.195
MS.104         	28.007         	5.058
MS.105         	27.952         	5.086
MS.106         	27.897         	5.126
MS.107         	27.84          	5.108
MS.108         	27.785         	5.078
MS.109         	27.73          	5.205
MS.110         	27.675         	5.09
MS.111         	27.62          	5.066
MS.112         	27.565         	5.045
MS.113         	27.507         	4.991
MS.114         	27.455         	4.987
MS.115         	27.4           	5.056
MS.116         	27.345         	5.086
MS.117         	27.29          	4.989
MS.118         	27.235         	5.1
MS.119         	27.18          	5.056
MS.120         	27.127         	5.025
MS.121         	27.073         	4.973
MS.122         	27.017         	4.888
MS.123         	26.965         	5.066
MS.124         	26.91          	5.009
MS.125         	26.858         	4.961
MS.126         	26.802         	4.945
MS.127         	26.75          	4.933
MS.128         	26.695         	4.955
MS.129         	26.642         	4.814
MS.130         	26.59          	5.019
MS.131         	26.535         	4.959
MS.132         	26.483         	4.999
MS.133         	26.43          	4.898
MS.134         	26.377         	4.868
MS.135         	26.325         	4.761
MS.136         	26.272         	4.802
MS.137         	26.22          	4.87
MS.138         	26.167         	4.689
MS.139         	26.115         	4.832
MS.140         	26.062         	4.729
MS.141         	26.01          	4.812
MS.142         	25.957         	4.772
MS.143         	25.907         	4.864
MS.144         	25.855         	4.677
MS.145         	25.802         	4.715
MS.146         	25.752         	4.691
MS.147         	25.7           	4.647
MS.148         	25.65          	4.61
MS.149         	25.597         	4.683
MS.150         	25.547         	4.618
MS.151         	25.495         	4.616
MS.152         	25.445         	4.54
MS.153         	25.395         	4.614
MS.154         	25.342         	4.576
MS.155         	25.292         	4.641
MS.156         	25.243         	4.625
MS.157         	25.192         	4.566
MS.158         	25.14          	4.629
MS.159         	25.09          	4.572
MS.160         	25.04          	4.55
MS.161         	24.99          	4.57
MS.162         	24.94          	4.522
MS.163         	24.89          	4.334
MS.164         	24.84          	4.55
MS.165         	24.792         	4.606
MS.166         	24.743         	4.363
MS.167         	24.692         	4.409
MS.168         	24.642         	4.415
MS.169         	24.595         	4.433
MS.170         	24.545         	4.361
MS.171         	24.495         	4.361
MS.172         	24.448         	4.357
MS.173         	24.397         	4.314
MS.174         	24.35          	4.246
MS.175         	24.3           	4.369
MS.176         	24.252         	4.357
MS.177         	24.202         	4.33
MS.178         	24.155         	4.336
MS.179         	24.108         	4.198
MS.180         	24.06          	4.341
MS.181         	24.01          	4.208
MS.182         	23.962         	4.157
MS.183         	23.915         	4.268
MS.184         	23.868         	4.212
MS.185         	23.82          	4.23
MS.186         	23.772         	4.23
MS.187         	23.725         	4.131
MS.188         	23.677         	4.127
MS.189         	23.63          	4.071
MS.190         	23.582         	4.012
MS.191         	23.535         	4.083
MS.192         	23.487         	4.008
MS.193         	23.442         	4.125
MS.194         	23.395         	3.895
MS.195         	23.347         	4
MS.196         	23.3           	4.077
MS.197         	23.255         	3.922
MS.198         	23.207         	3.954
MS.199         	23.163         	3.899
MS.200         	23.115         	3.952
MS.201         	23.07          	3.948
MS.202         	23.022         	3.871
MS.203         	22.977         	3.829
MS.204         	22.932         	3.855
MS.205         	22.885         	3.777
MS.206         	22.84          	3.734
MS.207         	22.795         	3.775
MS.208         	22.747         	3.779
MS.209         	22.702         	3.718
MS.210         	22.657         	3.666
MS.211         	22.612         	3.704
MS.212         	22.567         	3.617
MS.213         	22.522         	3.621
MS.214         	22.477         	3.573
MS.215         	22.432         	3.519
MS.216         	22.387         	3.573
MS.217         	22.342         	3.418
MS.218         	22.297         	3.597
MS.219         	22.252         	3.525
MS.220         	22.21          	3.545
MS.221         	22.165         	3.46
MS.222         	22.12          	3.541
MS.223         	22.077         	3.434
MS.224         	22.032         	3.46
MS.225         	21.987         	3.374
MS.226         	21.945         	3.317
MS.227         	21.9           	3.114
MS.228         	21.858         	3.196
MS.229         	21.812         	3.265
MS.230         	21.77          	3.418
MS.231         	21.725         	3.287
MS.232         	21.682         	3.18
MS.233         	21.64          	3.092
MS.234         	21.595         	3.08
MS.235         	21.552         	3.07
MS.236         	21.51          	3.047
MS.237         	21.467         	3.178
MS.238         	21.425         	3.053
MS.239         	21.38          	3.009
MS.240         	21.337         	3.219
MS.241         	21.295         	3.16
MS.242         	21.252         	3.08
MS.243         	21.21          	2.912
MS.244         	21.167         	2.995
MS.245         	21.125         	2.965
MS.246         	21.085         	3.003
MS.247         	21.042         	2.919
MS.248         	21             	2.848
MS.249         	20.958         	2.767
MS.250         	20.915         	2.83
MS.251         	20.875         	2.751
MS.252         	20.833         	2.834
MS.253         	20.79          	2.782
MS.254         	20.75          	2.733
MS.255         	20.708         	2.759
MS.256         	20.667         	2.701
MS.257         	20.625         	2.673
MS.258         	20.585         	2.735
MS.259         	20.542         	2.707
MS.260         	20.502         	2.633
MS.261         	20.46          	2.526
MS.262         	20.42          	2.614
MS.263         	20.38          	2.447
MS.264         	20.337         	2.427
MS.265         	20.297         	2.508
MS.266         	20.257         	2.393
MS.267         	20.217         	2.371
MS.268         	20.175         	2.405
MS.269         	20.135         	2.379
MS.270         	20.095         	2.355
MS.271         	20.055         	2.282
MS.272         	20.015         	2.22
MS.273         	19.975         	2.216
MS.274         	19.935         	2.147
MS.275         	19.895         	2.28
MS.276         	19.855         	2.177
MS.277         	19.817         	2.032
MS.278         	19.778         	1.994
MS.279         	19.737         	2.099
MS.280         	19.698         	2.054
MS.281         	19.657         	2.073
MS.282         	19.62          	2.026
MS.283         	19.58          	1.94
MS.284         	19.54          	1.924
MS.285         	19.502         	1.877
MS.286         	19.462         	1.847
MS.287         	19.425         	1.839
MS.288         	19.385         	1.732
MS.289         	19.347         	1.787
MS.290         	19.307         	1.72
MS.291         	19.27          	1.829
MS.292         	19.23          	1.702
MS.293         	19.192         	1.702
MS.294         	19.155         	1.563
MS.295         	19.115         	1.601
MS.296         	19.077         	1.569
MS.297         	19.04          	1.551
MS.298         	19             	1.565
MS.299         	18.962         	1.611
MS.300         	18.925         	1.601
MS.301         	18.887         	1.589
MS.302         	18.85          	1.517
MS.303         	18.812         	1.551
MS.304         	18.775         	1.462
MS.305         	18.737         	1.468
MS.306         	18.7           	1.507
MS.307         	18.663         	1.543
MS.308         	18.625         	1.454
MS.309         	18.587         	1.444
MS.310         	18.55          	1.376
MS.311         	18.512         	1.392
MS.312         	18.477         	1.378
MS.313         	18.44          	1.329
MS.314         	18.403         	1.362
MS.315         	18.365         	1.231
MS.316         	18.33          	1.386
MS.317         	18.292         	1.335
MS.318         	18.255         	1.2
MS.319         	18.22          	1.166
MS.320         	18.182         	1.285
MS.321         	18.147         	1.184
MS.322         	18.11          	1.229
MS.323         	18.075         	1.098
MS.324         	18.038         	1.164
MS.325         	18.003         	1.12
MS.326         	17.967         	1.154
MS.327         	17.93          	1.126
MS.328         	17.895         	1.096
MS.329         	17.86          	1.031
MS.330         	17.823         	1.057
MS.331         	17.788         	1.007
MS.332         	17.753         	0.983
MS.333         	17.717         	1.001
MS.334         	17.68          	1.051
MS.335         	17.645         	0.979
MS.336         	17.61          	0.955
MS.337         	17.575         	0.931
MS.338         	17.54          	0.973
MS.339         	17.505         	0.931
MS.340         	17.47          	0.937
MS.341         	17.435         	0.892
MS.342         	17.4           	0.852
MS.343         	17.365         	0.933
MS.344         	17.33          	0.83
MS.345         	17.297         	0.906
MS.346         	17.262         	0.84
MS.347         	17.227         	0.86
MS.348         	17.192         	0.808
MS.349         	17.157         	0.824
MS.350         	17.125         	0.836
MS.351         	17.09          	0.802
MS.352         	17.055         	0.777
MS.353         	17.022         	0.844
MS.354         	16.987         	0.786
MS.355         	16.955         	0.741
MS.356         	16.92          	0.781
MS.357         	16.887         	0.725
MS.358         	16.852         	0.735
MS.359         	16.82          	0.731
MS.360         	16.785         	0.755
MS.361         	16.753         	0.743
MS.362         	16.717         	0.747
MS.363         	16.685         	0.691
MS.364         	16.653         	0.804
MS.365         	16.618         	0.769
MS.366         	16.585         	0.749
MS.367         	16.552         	0.759
MS.368         	16.52          	0.763
MS.369         	16.485         	0.741
MS.370         	16.452         	0.735
MS.371         	16.42          	0.683
MS.372         	16.387         	0.749
MS.373         	16.355         	0.731
MS.374         	16.323         	0.723
MS.375         	16.29          	0.693
MS.376         	16.257         	0.651
MS.377         	16.225         	0.693
MS.378         	16.192         	0.681
MS.379         	16.16          	0.657
MS.380         	16.128         	0.669
MS.381         	16.095         	0.628
MS.382         	16.062         	0.602
MS.383         	16.03          	0.616
MS.384         	15.997         	0.61
MS.385         	15.967         	0.598
MS.386         	15.935         	0.62
MS.387         	15.902         	0.578
MS.388         	15.87          	0.614
MS.389         	15.84          	0.574
MS.390         	15.807         	0.538
MS.391         	15.775         	0.556
MS.392         	15.745         	0.536
MS.393         	15.712         	0.52
MS.394         	15.682         	0.647
MS.395         	15.65          	0.54
MS.396         	15.62          	0.481
MS.397         	15.587         	0.489
MS.398         	15.557         	0.465
MS.399         	15.525         	0.491
MS.400         	15.495         	0.443
MS.401         	15.465         	0.459
MS.402         	15.432         	0.459
MS.403         	15.402         	0.489
MS.404         	15.372         	0.461
MS.405         	15.34          	0.461
MS.406         	15.31          	0.405
MS.407         	15.28          	0.451
MS.408         	15.25          	0.427
MS.409         	15.217         	0.439
MS.410         	15.188         	0.375
MS.411         	15.157         	0.409
MS.412         	15.127         	0.379
MS.413         	15.097         	0.354
MS.414         	15.068         	0.383
MS.415         	15.037         	0.417
MS.416         	15.007         	0.33
MS.417         	14.977         	0.377
MS.418         	14.947         	0.32
MS.419         	14.917         	0.324
MS.420         	14.887         	0.298
MS.421         	14.858         	0.31
MS.422         	14.827         	0.314
MS.423         	14.797         	0.33
MS.424         	14.767         	0.274
MS.425         	14.74          	0.3
MS.426         	14.71          	0.284
MS.427         	14.68          	0.264
MS.428         	14.65          	0.268
MS.429         	14.622         	0.276
MS.430         	14.592         	0.228
MS.431         	14.562         	0.222
MS.432         	14.535         	0.244
MS.433         	14.505         	0.244
MS.434         	14.475         	0.248
MS.435         	14.447         	0.203
MS.436         	14.417         	0.266
MS.437         	14.39          	0.187
MS.438         	14.36          	0.24
MS.439         	14.332         	0.244
MS.440         	14.302         	0.236
MS.441         	14.275         	0.22
MS.442         	14.247         	0.193
MS.443         	14.217         	0.232
MS.444         	14.19          	0.232
MS.445         	14.16          	0.211
MS.446         	14.132         	0.238
MS.447         	14.105         	0.201
MS.448         	14.077         	0.209
MS.449         	14.047         	0.189
MS.450         	14.02          	0.24
MS.451         	13.992         	0.232
MS.452         	13.965         	0.177
MS.453         	13.938         	0.165
MS.454         	13.907         	0.205
MS.455         	13.88          	0.183
MS.456         	13.852         	0.149
MS.457         	13.825         	0.159
MS.458         	13.797         	0.199
MS.459         	13.77          	0.161
MS.460         	13.742         	0.177
MS.461         	13.715         	0.161
MS.462         	13.688         	0.181
MS.463         	13.66          	0.189
MS.464         	13.632         	0.179
MS.465         	13.605         	0.193
MS.466         	13.577         	0.207
MS.467         	13.552         	0.189
MS.468         	13.525         	0.189
MS.469         	13.497         	0.169
MS.470         	13.47          	0.149
MS.471         	13.443         	0.179
MS.472         	13.417         	0.187
MS.473         	13.39          	0.129
MS.474         	13.362         	0.191
MS.475         	13.337         	0.143
MS.476         	13.31          	0.173
MS.477         	13.282         	0.149
MS.478         	13.257         	0.171
MS.479         	13.23          	0.187
MS.480         	13.205         	0.149
MS.481         	13.177         	0.147
MS.482         	13.15          	0.169
MS.483         	13.125         	0.171
MS.484         	13.097         	0.103
MS.485         	13.072         	0.143
MS.486         	13.047         	0.121
MS.487         	13.02          	0.147
MS.488         	12.995         	0.137
MS.489         	12.967         	0.103
MS.490         	12.943         	0.103
MS.491         	12.917         	0.109
MS.492         	12.89          	0.113
MS.493         	12.865         	0.097
MS.494         	12.84          	0.097
MS.495         	12.812         	0.133
MS.496         	12.787         	0.121
MS.497         	12.762         	0.077
MS.498         	12.738         	0.145
MS.499         	12.712         	0.117
MS.500         	12.685         	0.093
MS.501         	12.66          	0.107
