File:              	C:\Qtrac\Data\Daniel M Sørensen\MScan multicentre study\Data from centres\Odense\Processed data\TKC01116B.QZD
Name:              	DK.ODE.NC.9.1
Protocol:          	MSCAN-R2
Date:              	16/11/20
Start time:        	10:44:26
Age:               	69
Sex:               	M
Temperature:       	31.9
S/R sites:         	TA
NC/disease:        	NC
Operator:          	TK
Comments:
M-SCAN DATA (1.4-0.0m)
Scanpts: 26, 36, 771, 781
Stim. (mA)     	Amp. (mV)
MS.1           	30.5           	5.545
MS.2           	30.377         	5.571
MS.3           	30.317         	5.565
MS.4           	30.257         	5.571
MS.5           	30.198         	5.535
MS.6           	30.135         	5.523
MS.7           	30.075         	5.563
MS.8           	30.015         	5.569
MS.9           	29.955         	5.587
MS.10          	29.895         	5.543
MS.11          	29.835         	5.513
MS.12          	29.778         	5.569
MS.13          	29.717         	5.561
MS.14          	29.657         	5.583
MS.15          	29.597         	5.545
MS.16          	29.54          	5.587
MS.17          	29.48          	5.569
MS.18          	29.422         	5.533
MS.19          	29.362         	5.523
MS.20          	29.305         	5.557
MS.21          	29.245         	5.561
MS.22          	29.188         	5.569
MS.23          	29.127         	5.593
MS.24          	29.07          	5.589
MS.25          	29.012         	5.575
MS.26          	28.955         	5.549
MS.27          	28.897         	5.559
MS.28          	28.84          	5.557
MS.29          	28.78          	5.575
MS.30          	28.722         	5.543
MS.31          	28.667         	5.537
MS.32          	28.61          	5.555
MS.33          	28.552         	5.543
MS.34          	28.495         	5.557
MS.35          	28.438         	5.559
MS.36          	28.38          	5.541
MS.37          	28.325         	5.579
MS.38          	28.267         	5.579
MS.39          	28.212         	5.559
MS.40          	28.155         	5.541
MS.41          	28.097         	5.575
MS.42          	28.042         	5.565
MS.43          	27.987         	5.533
MS.44          	27.93          	5.599
MS.45          	27.875         	5.575
MS.46          	27.82          	5.581
MS.47          	27.762         	5.531
MS.48          	27.707         	5.563
MS.49          	27.653         	5.541
MS.50          	27.597         	5.565
MS.51          	27.542         	5.567
MS.52          	27.487         	5.547
MS.53          	27.432         	5.583
MS.54          	27.377         	5.543
MS.55          	27.323         	5.541
MS.56          	27.267         	5.571
MS.57          	27.215         	5.507
MS.58          	27.16          	5.573
MS.59          	27.105         	5.585
MS.60          	27.05          	5.565
MS.61          	26.997         	5.569
MS.62          	26.942         	5.577
MS.63          	26.89          	5.575
MS.64          	26.835         	5.593
MS.65          	26.782         	5.587
MS.66          	26.727         	5.547
MS.67          	26.675         	5.573
MS.68          	26.622         	5.571
MS.69          	26.567         	5.571
MS.70          	26.515         	5.563
MS.71          	26.462         	5.587
MS.72          	26.41          	5.567
MS.73          	26.358         	5.595
MS.74          	26.305         	5.543
MS.75          	26.252         	5.491
MS.76          	26.2           	5.485
MS.77          	26.147         	5.589
MS.78          	26.095         	5.489
MS.79          	26.042         	5.571
MS.80          	25.99          	5.622
MS.81          	25.938         	5.571
MS.82          	25.887         	5.549
MS.83          	25.835         	5.575
MS.84          	25.782         	5.446
MS.85          	25.733         	5.444
MS.86          	25.68          	5.481
MS.87          	25.63          	5.581
MS.88          	25.577         	5.595
MS.89          	25.528         	5.483
MS.90          	25.475         	5.466
MS.91          	25.425         	5.505
MS.92          	25.375         	5.483
MS.93          	25.323         	5.438
MS.94          	25.272         	5.474
MS.95          	25.222         	5.599
MS.96          	25.172         	5.466
MS.97          	25.122         	5.483
MS.98          	25.073         	5.477
MS.99          	25.02          	5.483
MS.100         	24.97          	5.477
MS.101         	24.922         	5.456
MS.102         	24.872         	5.519
MS.103         	24.823         	5.477
MS.104         	24.772         	5.466
MS.105         	24.722         	5.47
MS.106         	24.672         	5.481
MS.107         	24.625         	5.501
MS.108         	24.575         	5.493
MS.109         	24.525         	5.479
MS.110         	24.477         	5.495
MS.111         	24.427         	5.458
MS.112         	24.38          	5.497
MS.113         	24.33          	5.483
MS.114         	24.282         	5.464
MS.115         	24.233         	5.474
MS.116         	24.185         	5.456
MS.117         	24.137         	5.468
MS.118         	24.087         	5.466
MS.119         	24.04          	5.485
MS.120         	23.993         	5.45
MS.121         	23.945         	5.47
MS.122         	23.897         	5.47
MS.123         	23.847         	5.474
MS.124         	23.8           	5.416
MS.125         	23.752         	5.503
MS.126         	23.705         	5.45
MS.127         	23.657         	5.477
MS.128         	23.61          	5.428
MS.129         	23.565         	5.452
MS.130         	23.517         	5.485
MS.131         	23.47          	5.474
MS.132         	23.422         	5.509
MS.133         	23.377         	5.481
MS.134         	23.33          	5.481
MS.135         	23.282         	5.442
MS.136         	23.237         	5.495
MS.137         	23.19          	5.46
MS.138         	23.142         	5.45
MS.139         	23.097         	5.474
MS.140         	23.052         	5.462
MS.141         	23.005         	5.46
MS.142         	22.96          	5.46
MS.143         	22.913         	5.485
MS.144         	22.868         	5.499
MS.145         	22.823         	5.468
MS.146         	22.778         	5.46
MS.147         	22.73          	5.466
MS.148         	22.685         	5.47
MS.149         	22.64          	5.474
MS.150         	22.595         	5.446
MS.151         	22.55          	5.454
MS.152         	22.505         	5.436
MS.153         	22.46          	5.45
MS.154         	22.415         	5.414
MS.155         	22.37          	5.452
MS.156         	22.325         	5.416
MS.157         	22.28          	5.491
MS.158         	22.235         	5.426
MS.159         	22.192         	5.474
MS.160         	22.147         	5.41
MS.161         	22.102         	5.45
MS.162         	22.06          	5.468
MS.163         	22.015         	5.434
MS.164         	21.97          	5.448
MS.165         	21.927         	5.45
MS.166         	21.882         	5.456
MS.167         	21.84          	5.418
MS.168         	21.795         	5.424
MS.169         	21.752         	5.422
MS.170         	21.71          	5.426
MS.171         	21.665         	5.43
MS.172         	21.622         	5.408
MS.173         	21.58          	5.406
MS.174         	21.535         	5.448
MS.175         	21.493         	5.43
MS.176         	21.45          	5.424
MS.177         	21.407         	5.396
MS.178         	21.365         	5.456
MS.179         	21.323         	5.38
MS.180         	21.28          	5.442
MS.181         	21.237         	5.444
MS.182         	21.195         	5.436
MS.183         	21.153         	5.446
MS.184         	21.11          	5.39
MS.185         	21.067         	5.408
MS.186         	21.025         	5.44
MS.187         	20.983         	5.408
MS.188         	20.942         	5.4
MS.189         	20.9           	5.452
MS.190         	20.858         	5.468
MS.191         	20.815         	5.42
MS.192         	20.775         	5.424
MS.193         	20.733         	5.408
MS.194         	20.692         	5.386
MS.195         	20.65          	5.398
MS.196         	20.61          	5.424
MS.197         	20.567         	5.436
MS.198         	20.528         	5.404
MS.199         	20.485         	5.4
MS.200         	20.445         	5.408
MS.201         	20.405         	5.448
MS.202         	20.362         	5.392
MS.203         	20.323         	5.4
MS.204         	20.282         	5.418
MS.205         	20.243         	5.41
MS.206         	20.2           	5.424
MS.207         	20.16          	5.452
MS.208         	20.12          	5.418
MS.209         	20.08          	5.398
MS.210         	20.04          	5.43
MS.211         	20             	5.428
MS.212         	19.96          	5.394
MS.213         	19.92          	5.384
MS.214         	19.88          	5.406
MS.215         	19.84          	5.434
MS.216         	19.8           	5.364
MS.217         	19.76          	5.402
MS.218         	19.722         	5.386
MS.219         	19.682         	5.4
MS.220         	19.642         	5.372
MS.221         	19.605         	5.378
MS.222         	19.565         	5.428
MS.223         	19.525         	5.414
MS.224         	19.487         	5.416
MS.225         	19.448         	5.422
MS.226         	19.407         	5.414
MS.227         	19.37          	5.436
MS.228         	19.33          	5.374
MS.229         	19.292         	5.418
MS.230         	19.255         	5.384
MS.231         	19.215         	5.388
MS.232         	19.177         	5.412
MS.233         	19.14          	5.418
MS.234         	19.1           	5.388
MS.235         	19.062         	5.41
MS.236         	19.025         	5.346
MS.237         	18.987         	5.39
MS.238         	18.948         	5.364
MS.239         	18.91          	5.331
MS.240         	18.872         	5.342
MS.241         	18.835         	5.317
MS.242         	18.797         	5.366
MS.243         	18.76          	5.354
MS.244         	18.722         	5.287
MS.245         	18.685         	5.364
MS.246         	18.647         	5.317
MS.247         	18.61          	5.325
MS.248         	18.573         	5.255
MS.249         	18.535         	5.279
MS.250         	18.5           	5.297
MS.251         	18.462         	5.265
MS.252         	18.425         	5.301
MS.253         	18.387         	5.287
MS.254         	18.352         	5.301
MS.255         	18.315         	5.199
MS.256         	18.278         	5.364
MS.257         	18.243         	5.267
MS.258         	18.205         	5.257
MS.259         	18.17          	5.219
MS.260         	18.132         	5.245
MS.261         	18.097         	5.217
MS.262         	18.06          	5.237
MS.263         	18.025         	5.273
MS.264         	17.987         	5.18
MS.265         	17.952         	5.058
MS.266         	17.917         	5.029
MS.267         	17.88          	5.138
MS.268         	17.845         	5.039
MS.269         	17.81          	5.215
MS.270         	17.772         	5.035
MS.271         	17.737         	5.058
MS.272         	17.702         	4.953
MS.273         	17.667         	5.007
MS.274         	17.632         	4.959
MS.275         	17.597         	5.058
MS.276         	17.562         	5.058
MS.277         	17.528         	5.086
MS.278         	17.493         	4.896
MS.279         	17.458         	4.977
MS.280         	17.422         	4.927
MS.281         	17.387         	4.945
MS.282         	17.352         	4.973
MS.283         	17.317         	4.949
MS.284         	17.282         	4.937
MS.285         	17.247         	4.904
MS.286         	17.215         	5.017
MS.287         	17.18          	4.945
MS.288         	17.145         	4.965
MS.289         	17.11          	4.945
MS.290         	17.077         	4.947
MS.291         	17.042         	4.913
MS.292         	17.007         	4.921
MS.293         	16.975         	4.886
MS.294         	16.94          	4.949
MS.295         	16.907         	4.959
MS.296         	16.872         	4.955
MS.297         	16.84          	4.902
MS.298         	16.805         	4.943
MS.299         	16.772         	4.927
MS.300         	16.737         	4.943
MS.301         	16.705         	4.969
MS.302         	16.672         	4.931
MS.303         	16.637         	4.913
MS.304         	16.605         	4.917
MS.305         	16.573         	4.902
MS.306         	16.54          	4.896
MS.307         	16.505         	4.947
MS.308         	16.472         	4.868
MS.309         	16.44          	4.9
MS.310         	16.407         	4.943
MS.311         	16.375         	4.921
MS.312         	16.342         	4.923
MS.313         	16.31          	4.896
MS.314         	16.278         	4.864
MS.315         	16.245         	4.874
MS.316         	16.212         	4.88
MS.317         	16.18          	4.78
MS.318         	16.147         	4.806
MS.319         	16.115         	4.822
MS.320         	16.083         	4.856
MS.321         	16.05          	4.846
MS.322         	16.017         	4.83
MS.323         	15.985         	4.808
MS.324         	15.955         	4.84
MS.325         	15.922         	4.689
MS.326         	15.89          	4.757
MS.327         	15.86          	4.78
MS.328         	15.827         	4.669
MS.329         	15.795         	4.701
MS.330         	15.765         	4.681
MS.331         	15.733         	4.683
MS.332         	15.7           	4.677
MS.333         	15.67          	4.699
MS.334         	15.637         	4.671
MS.335         	15.608         	4.709
MS.336         	15.575         	4.763
MS.337         	15.545         	4.703
MS.338         	15.512         	4.657
MS.339         	15.483         	4.685
MS.340         	15.452         	4.62
MS.341         	15.42          	4.725
MS.342         	15.39          	4.673
MS.343         	15.36          	4.643
MS.344         	15.327         	4.582
MS.345         	15.297         	4.622
MS.346         	15.267         	4.602
MS.347         	15.237         	4.663
MS.348         	15.207         	4.622
MS.349         	15.175         	4.643
MS.350         	15.145         	4.608
MS.351         	15.115         	4.568
MS.352         	15.085         	4.625
MS.353         	15.055         	4.6
MS.354         	15.025         	4.641
MS.355         	14.995         	4.6
MS.356         	14.965         	4.598
MS.357         	14.935         	4.536
MS.358         	14.905         	4.606
MS.359         	14.875         	4.602
MS.360         	14.845         	4.594
MS.361         	14.815         	4.586
MS.362         	14.787         	4.572
MS.363         	14.757         	4.51
MS.364         	14.727         	4.546
MS.365         	14.697         	4.59
MS.366         	14.67          	4.562
MS.367         	14.64          	4.58
MS.368         	14.61          	4.61
MS.369         	14.58          	4.532
MS.370         	14.552         	4.59
MS.371         	14.523         	4.566
MS.372         	14.495         	4.54
MS.373         	14.465         	4.562
MS.374         	14.435         	4.542
MS.375         	14.407         	4.536
MS.376         	14.377         	4.552
MS.377         	14.35          	4.538
MS.378         	14.32          	4.484
MS.379         	14.292         	4.536
MS.380         	14.265         	4.49
MS.381         	14.235         	4.514
MS.382         	14.207         	4.538
MS.383         	14.177         	4.524
MS.384         	14.15          	4.526
MS.385         	14.122         	4.516
MS.386         	14.092         	4.492
MS.387         	14.065         	4.508
MS.388         	14.037         	4.564
MS.389         	14.01          	4.532
MS.390         	13.983         	4.425
MS.391         	13.952         	4.473
MS.392         	13.925         	4.411
MS.393         	13.898         	4.54
MS.394         	13.87          	4.498
MS.395         	13.842         	4.441
MS.396         	13.815         	4.512
MS.397         	13.787         	4.479
MS.398         	13.76          	4.385
MS.399         	13.733         	4.405
MS.400         	13.705         	4.443
MS.401         	13.677         	4.451
MS.402         	13.65          	4.345
MS.403         	13.622         	4.316
MS.404         	13.595         	4.298
MS.405         	13.568         	4.274
MS.406         	13.54          	4.371
MS.407         	13.515         	4.302
MS.408         	13.487         	4.332
MS.409         	13.46          	4.191
MS.410         	13.432         	4.24
MS.411         	13.407         	4.212
MS.412         	13.38          	4.204
MS.413         	13.352         	4.173
MS.414         	13.325         	4.218
MS.415         	13.3           	4.183
MS.416         	13.273         	4.155
MS.417         	13.247         	4.181
MS.418         	13.22          	4.21
MS.419         	13.193         	4.036
MS.420         	13.167         	4.083
MS.421         	13.14          	4.135
MS.422         	13.115         	3.885
MS.423         	13.087         	4.097
MS.424         	13.062         	3.966
MS.425         	13.035         	4.008
MS.426         	13.01          	4.052
MS.427         	12.985         	3.95
MS.428         	12.957         	3.829
MS.429         	12.932         	3.946
MS.430         	12.907         	3.777
MS.431         	12.88          	3.857
MS.432         	12.855         	3.855
MS.433         	12.83          	3.811
MS.434         	12.802         	3.716
MS.435         	12.778         	3.676
MS.436         	12.752         	3.781
MS.437         	12.727         	3.73
MS.438         	12.702         	3.722
MS.439         	12.675         	3.754
MS.440         	12.65          	3.722
MS.441         	12.625         	3.652
MS.442         	12.6           	3.662
MS.443         	12.575         	3.638
MS.444         	12.55          	3.621
MS.445         	12.525         	3.603
MS.446         	12.5           	3.623
MS.447         	12.475         	3.579
MS.448         	12.45          	3.507
MS.449         	12.425         	3.579
MS.450         	12.4           	3.551
MS.451         	12.375         	3.444
MS.452         	12.35          	3.448
MS.453         	12.325         	3.495
MS.454         	12.302         	3.452
MS.455         	12.278         	3.432
MS.456         	12.252         	3.4
MS.457         	12.227         	3.44
MS.458         	12.202         	3.341
MS.459         	12.18          	3.382
MS.460         	12.155         	3.41
MS.461         	12.13          	3.38
MS.462         	12.108         	3.382
MS.463         	12.082         	3.321
MS.464         	12.057         	3.283
MS.465         	12.035         	3.341
MS.466         	12.01          	3.303
MS.467         	11.985         	3.188
MS.468         	11.962         	3.329
MS.469         	11.938         	3.319
MS.470         	11.915         	3.205
MS.471         	11.89          	3.247
MS.472         	11.867         	3.19
MS.473         	11.842         	3.17
MS.474         	11.82          	3.049
MS.475         	11.795         	3.174
MS.476         	11.773         	3.148
MS.477         	11.747         	3.142
MS.478         	11.725         	3.09
MS.479         	11.702         	3.031
MS.480         	11.677         	3.108
MS.481         	11.655         	2.955
MS.482         	11.632         	2.925
MS.483         	11.608         	2.939
MS.484         	11.585         	2.908
MS.485         	11.562         	3.019
MS.486         	11.54          	2.923
MS.487         	11.515         	2.822
MS.488         	11.492         	2.951
MS.489         	11.47          	2.826
MS.490         	11.447         	2.812
MS.491         	11.425         	2.834
MS.492         	11.403         	2.85
MS.493         	11.377         	2.832
MS.494         	11.355         	2.757
MS.495         	11.332         	2.846
MS.496         	11.31          	2.745
MS.497         	11.287         	2.733
MS.498         	11.265         	2.687
MS.499         	11.242         	2.739
MS.500         	11.22          	2.778
MS.501         	11.197         	2.719
