File:              	C:\Qtrac\Data\Daniel M Sørensen\MScan multicentre study\Data from centres\Odense\Processed data\TKC01116D.QZD
Name:              	DK.ODE.NC.10.1
Protocol:          	MSCAN-R2
Date:              	16/11/20
Start time:        	12:35:21
Age:               	74
Sex:               	M
Temperature:       	31.3
S/R sites:         	TA
NC/disease:        	NC
Operator:          	TK
Comments:
M-SCAN DATA (5.6-1.3m)
Scanpts: 12, 18, 455, 462
Stim. (mA)     	Amp. (mV)
MS.1           	28             	4.864
MS.2           	28             	4.784
MS.3           	28             	4.808
MS.4           	28             	4.832
MS.5           	28             	4.776
MS.6           	28             	4.818
MS.7           	28             	4.778
MS.8           	28             	4.717
MS.9           	28             	4.78
MS.10          	28             	4.755
MS.11          	28             	4.749
MS.12          	28             	4.757
MS.13          	28             	4.83
MS.14          	28             	4.796
MS.15          	28             	4.774
MS.16          	28             	4.838
MS.17          	28             	4.784
MS.18          	28             	4.844
MS.19          	28             	4.836
MS.20          	28             	4.766
MS.21          	28             	4.81
MS.22          	28             	4.727
MS.23          	27.887         	4.806
MS.24          	27.832         	4.808
MS.25          	27.778         	4.808
MS.26          	27.722         	4.753
MS.27          	27.665         	4.78
MS.28          	27.61          	4.786
MS.29          	27.555         	4.757
MS.30          	27.5           	4.755
MS.31          	27.445         	4.751
MS.32          	27.39          	4.792
MS.33          	27.335         	4.731
MS.34          	27.282         	4.761
MS.35          	27.227         	4.761
MS.36          	27.172         	4.731
MS.37          	27.118         	4.838
MS.38          	27.065         	4.776
MS.39          	27.01          	4.778
MS.40          	26.955         	4.727
MS.41          	26.903         	4.739
MS.42          	26.847         	4.761
MS.43          	26.795         	4.782
MS.44          	26.74          	4.733
MS.45          	26.688         	4.814
MS.46          	26.635         	4.743
MS.47          	26.58          	4.743
MS.48          	26.528         	4.772
MS.49          	26.475         	4.709
MS.50          	26.422         	4.763
MS.51          	26.37          	4.737
MS.52          	26.317         	4.695
MS.53          	26.265         	4.651
MS.54          	26.212         	4.681
MS.55          	26.16          	4.812
MS.56          	26.108         	4.717
MS.57          	26.055         	4.707
MS.58          	26.002         	4.62
MS.59          	25.95          	4.741
MS.60          	25.9           	4.81
MS.61          	25.847         	4.616
MS.62          	25.795         	4.731
MS.63          	25.745         	4.784
MS.64          	25.692         	4.661
MS.65          	25.64          	4.689
MS.66          	25.59          	4.651
MS.67          	25.54          	4.627
MS.68          	25.487         	4.58
MS.69          	25.438         	4.488
MS.70          	25.385         	4.564
MS.71          	25.335         	4.508
MS.72          	25.285         	4.6
MS.73          	25.235         	4.58
MS.74          	25.185         	4.506
MS.75          	25.132         	4.542
MS.76          	25.082         	4.574
MS.77          	25.032         	4.604
MS.78          	24.983         	4.562
MS.79          	24.932         	4.552
MS.80          	24.882         	4.637
MS.81          	24.832         	4.534
MS.82          	24.785         	4.54
MS.83          	24.735         	4.542
MS.84          	24.685         	4.546
MS.85          	24.635         	4.51
MS.86          	24.587         	4.524
MS.87          	24.538         	4.494
MS.88          	24.487         	4.49
MS.89          	24.44          	4.51
MS.90          	24.39          	4.463
MS.91          	24.342         	4.453
MS.92          	24.292         	4.383
MS.93          	24.245         	4.463
MS.94          	24.198         	4.439
MS.95          	24.147         	4.393
MS.96          	24.1           	4.355
MS.97          	24.052         	4.387
MS.98          	24.002         	4.375
MS.99          	23.955         	4.361
MS.100         	23.907         	4.381
MS.101         	23.86          	4.353
MS.102         	23.812         	4.349
MS.103         	23.765         	4.298
MS.104         	23.717         	4.361
MS.105         	23.67          	4.278
MS.106         	23.622         	4.296
MS.107         	23.575         	4.345
MS.108         	23.528         	4.322
MS.109         	23.48          	4.347
MS.110         	23.435         	4.272
MS.111         	23.387         	4.336
MS.112         	23.34          	4.363
MS.113         	23.295         	4.268
MS.114         	23.247         	4.308
MS.115         	23.2           	4.216
MS.116         	23.155         	4.316
MS.117         	23.108         	4.288
MS.118         	23.062         	4.316
MS.119         	23.017         	4.2
MS.120         	22.97          	4.258
MS.121         	22.925         	4.24
MS.122         	22.877         	4.294
MS.123         	22.832         	4.183
MS.124         	22.788         	4.155
MS.125         	22.743         	4.212
MS.126         	22.698         	4.278
MS.127         	22.65          	4.175
MS.128         	22.605         	4.032
MS.129         	22.56          	4.171
MS.130         	22.515         	4.109
MS.131         	22.47          	4.055
MS.132         	22.425         	3.92
MS.133         	22.38          	4.018
MS.134         	22.335         	4.059
MS.135         	22.292         	3.954
MS.136         	22.247         	4.034
MS.137         	22.202         	4.079
MS.138         	22.157         	3.994
MS.139         	22.115         	4.036
MS.140         	22.07          	3.992
MS.141         	22.025         	3.907
MS.142         	21.983         	3.95
MS.143         	21.938         	3.833
MS.144         	21.892         	3.926
MS.145         	21.85          	3.819
MS.146         	21.807         	3.871
MS.147         	21.762         	3.869
MS.148         	21.72          	3.839
MS.149         	21.675         	3.809
MS.150         	21.632         	3.768
MS.151         	21.59          	3.938
MS.152         	21.545         	3.793
MS.153         	21.502         	3.756
MS.154         	21.46          	3.76
MS.155         	21.417         	3.771
MS.156         	21.375         	3.781
MS.157         	21.333         	3.758
MS.158         	21.29          	3.69
MS.159         	21.247         	3.698
MS.160         	21.205         	3.674
MS.161         	21.163         	3.71
MS.162         	21.12          	3.476
MS.163         	21.077         	3.607
MS.164         	21.035         	3.553
MS.165         	20.993         	3.593
MS.166         	20.952         	3.553
MS.167         	20.91          	3.553
MS.168         	20.868         	3.454
MS.169         	20.825         	3.547
MS.170         	20.785         	3.348
MS.171         	20.743         	3.402
MS.172         	20.702         	3.303
MS.173         	20.66          	3.422
MS.174         	20.62          	3.229
MS.175         	20.577         	3.325
MS.176         	20.538         	3.259
MS.177         	20.495         	3.184
MS.178         	20.455         	3.132
MS.179         	20.413         	3.279
MS.180         	20.372         	3.257
MS.181         	20.333         	3.172
MS.182         	20.292         	3.203
MS.183         	20.25          	3.219
MS.184         	20.21          	3.217
MS.185         	20.17          	3.11
MS.186         	20.13          	3.164
MS.187         	20.09          	3.08
MS.188         	20.05          	3.188
MS.189         	20.01          	3.092
MS.190         	19.97          	3.192
MS.191         	19.93          	3.152
MS.192         	19.89          	3.066
MS.193         	19.85          	3.025
MS.194         	19.81          	2.989
MS.195         	19.77          	3.102
MS.196         	19.73          	3.019
MS.197         	19.692         	2.975
MS.198         	19.653         	2.937
MS.199         	19.612         	2.995
MS.200         	19.575         	2.864
MS.201         	19.535         	2.959
MS.202         	19.495         	2.979
MS.203         	19.458         	2.842
MS.204         	19.417         	2.83
MS.205         	19.38          	2.802
MS.206         	19.34          	2.798
MS.207         	19.302         	2.812
MS.208         	19.262         	2.812
MS.209         	19.225         	2.81
MS.210         	19.188         	2.83
MS.211         	19.147         	2.796
MS.212         	19.11          	2.578
MS.213         	19.073         	2.614
MS.214         	19.032         	2.707
MS.215         	18.995         	2.633
MS.216         	18.958         	2.675
MS.217         	18.92          	2.522
MS.218         	18.882         	2.455
MS.219         	18.845         	2.465
MS.220         	18.807         	2.431
MS.221         	18.77          	2.405
MS.222         	18.733         	2.385
MS.223         	18.695         	2.353
MS.224         	18.657         	2.332
MS.225         	18.62          	2.208
MS.226         	18.583         	2.161
MS.227         	18.545         	2.276
MS.228         	18.507         	2.24
MS.229         	18.47          	2.232
MS.230         	18.435         	2.193
MS.231         	18.397         	2.149
MS.232         	18.36          	2.185
MS.233         	18.325         	2.085
MS.234         	18.288         	2.042
MS.235         	18.25          	2.024
MS.236         	18.215         	1.913
MS.237         	18.177         	1.988
MS.238         	18.142         	2.054
MS.239         	18.105         	1.932
MS.240         	18.07          	1.905
MS.241         	18.032         	1.926
MS.242         	17.997         	1.893
MS.243         	17.96          	1.823
MS.244         	17.925         	1.952
MS.245         	17.89          	1.787
MS.246         	17.852         	1.716
MS.247         	17.817         	1.748
MS.248         	17.782         	1.688
MS.249         	17.747         	1.64
MS.250         	17.712         	1.593
MS.251         	17.675         	1.627
MS.252         	17.64          	1.565
MS.253         	17.605         	1.472
MS.254         	17.57          	1.531
MS.255         	17.535         	1.495
MS.256         	17.5           	1.509
MS.257         	17.465         	1.42
MS.258         	17.43          	1.442
MS.259         	17.395         	1.533
MS.260         	17.36          	1.341
MS.261         	17.325         	1.283
MS.262         	17.292         	1.333
MS.263         	17.257         	1.221
MS.264         	17.222         	1.211
MS.265         	17.188         	1.325
MS.266         	17.153         	1.217
MS.267         	17.12          	1.104
MS.268         	17.085         	1.15
MS.269         	17.05          	1.136
MS.270         	17.017         	1.146
MS.271         	16.983         	1.001
MS.272         	16.95          	1.068
MS.273         	16.915         	0.979
MS.274         	16.88          	0.999
MS.275         	16.847         	0.939
MS.276         	16.815         	0.902
MS.277         	16.78          	0.836
MS.278         	16.747         	0.751
MS.279         	16.712         	0.721
MS.280         	16.68          	0.608
MS.281         	16.647         	0.761
MS.282         	16.612         	0.679
MS.283         	16.58          	0.634
MS.284         	16.547         	0.695
MS.285         	16.515         	0.685
MS.286         	16.48          	0.681
MS.287         	16.448         	0.574
MS.288         	16.415         	0.51
MS.289         	16.382         	0.566
MS.290         	16.35          	0.54
MS.291         	16.317         	0.479
MS.292         	16.285         	0.443
MS.293         	16.253         	0.465
MS.294         	16.22          	0.413
MS.295         	16.188         	0.411
MS.296         	16.155         	0.387
MS.297         	16.122         	0.385
MS.298         	16.09          	0.52
MS.299         	16.057         	0.377
MS.300         	16.025         	0.371
MS.301         	15.995         	0.391
MS.302         	15.962         	0.252
MS.303         	15.93          	0.344
MS.304         	15.898         	0.336
MS.305         	15.867         	0.278
MS.306         	15.835         	0.25
MS.307         	15.802         	0.338
MS.308         	15.773         	0.403
MS.309         	15.74          	0.244
MS.310         	15.707         	0.308
MS.311         	15.677         	0.282
MS.312         	15.645         	0.228
MS.313         	15.615         	0.25
MS.314         	15.582         	0.201
MS.315         	15.552         	0.246
MS.316         	15.52          	0.199
MS.317         	15.49          	0.218
MS.318         	15.46          	0.203
MS.319         	15.427         	0.169
MS.320         	15.398         	0.171
MS.321         	15.367         	0.119
MS.322         	15.335         	0.209
MS.323         	15.305         	0.22
MS.324         	15.275         	0.127
MS.325         	15.245         	0.181
MS.326         	15.215         	0.199
MS.327         	15.182         	0.173
MS.328         	15.152         	0.127
MS.329         	15.122         	0.137
MS.330         	15.092         	0.161
MS.331         	15.062         	0.207
MS.332         	15.032         	0.149
MS.333         	15.002         	0.129
MS.334         	14.972         	0.105
MS.335         	14.943         	0.107
MS.336         	14.912         	0.143
MS.337         	14.882         	0.117
MS.338         	14.852         	0.183
MS.339         	14.822         	0.173
MS.340         	14.792         	0.135
MS.341         	14.765         	0.151
MS.342         	14.735         	0.123
MS.343         	14.705         	0.101
MS.344         	14.675         	0.101
MS.345         	14.648         	0.079
MS.346         	14.617         	0.087
MS.347         	14.587         	0.083
MS.348         	14.56          	0.085
MS.349         	14.53          	0.085
MS.350         	14.5           	0.093
MS.351         	14.472         	0.062
MS.352         	14.443         	0.062
MS.353         	14.415         	0.066
MS.354         	14.385         	0.07
MS.355         	14.358         	0.103
MS.356         	14.327         	0.03
MS.357         	14.3           	0.133
MS.358         	14.27          	0.058
MS.359         	14.242         	0.068
MS.360         	14.212         	0.054
MS.361         	14.185         	0.073
MS.362         	14.157         	0.05
MS.363         	14.127         	0.075
MS.364         	14.1           	0.062
MS.365         	14.072         	0.101
MS.366         	14.045         	0.091
MS.367         	14.015         	0.121
MS.368         	13.987         	0.093
MS.369         	13.96          	0.046
MS.370         	13.932         	0.079
MS.371         	13.905         	0.077
MS.372         	13.877         	0.073
MS.373         	13.85          	0.052
MS.374         	13.82          	0.105
MS.375         	13.792         	0.036
MS.376         	13.765         	0.058
MS.377         	13.737         	0.064
MS.378         	13.71          	0.062
MS.379         	13.682         	0.083
MS.380         	13.657         	0.087
MS.381         	13.63          	0.024
MS.382         	13.602         	0.085
MS.383         	13.575         	0.079
MS.384         	13.547         	0.064
MS.385         	13.52          	0.068
MS.386         	13.492         	0.089
MS.387         	13.467         	0.03
MS.388         	13.44          	0.048
MS.389         	13.412         	0.052
MS.390         	13.385         	0.044
MS.391         	13.36          	0.068
MS.392         	13.332         	0.093
MS.393         	13.305         	0.075
MS.394         	13.28          	0.103
MS.395         	13.252         	0.093
MS.396         	13.225         	0.052
MS.397         	13.2           	0.085
MS.398         	13.172         	0.052
MS.399         	13.148         	0.056
MS.400         	13.12          	0.064
MS.401         	13.095         	0.093
MS.402         	13.068         	0.032
MS.403         	13.042         	0.038
MS.404         	13.017         	-0.01
MS.405         	12.99          	0.02
MS.406         	12.965         	-0.002
MS.407         	12.938         	0.018
MS.408         	12.912         	0.03
MS.409         	12.887         	0.046
MS.410         	12.86          	0.032
MS.411         	12.835         	0.022
MS.412         	12.81          	-0.006
MS.413         	12.785         	-0.004
MS.414         	12.757         	0.02
MS.415         	12.733         	0.000
MS.416         	12.707         	0.014
MS.417         	12.682         	0.018
MS.418         	12.657         	0.046
MS.419         	12.632         	-0.004
MS.420         	12.608         	0.022
MS.421         	12.58          	-0.026
MS.422         	12.555         	-0.034
MS.423         	12.53          	0.012
MS.424         	12.505         	0.014
MS.425         	12.48          	0.004
MS.426         	12.455         	-0.014
MS.427         	12.43          	-0.004
MS.428         	12.405         	-0.022
MS.429         	12.382         	-0.03
MS.430         	12.358         	-0.008
MS.431         	12.332         	0.02
MS.432         	12.307         	0.01
MS.433         	12.282         	0.002
MS.434         	12.257         	-0.004
MS.435         	12.235         	-0.024
MS.436         	12.21          	0.006
MS.437         	12.185         	-0.006
MS.438         	12.16          	-0.036
MS.439         	12.137         	0.012
MS.440         	12.113         	-0.02
MS.441         	12.087         	0.014
MS.442         	12.062         	-0.016
MS.443         	12.04          	-0.004
MS.444         	12.015         	-0.002
MS.445         	11.992         	-0.018
MS.446         	11.967         	0.014
MS.447         	11.943         	-0.016
MS.448         	11.92          	-0.024
MS.449         	11.895         	0.002
MS.450         	11.872         	0.014
MS.451         	11.847         	0.03
MS.452         	11.825         	-0.002
MS.453         	11.8           	0.008
MS.454         	11.778         	-0.014
MS.455         	11.755         	-0.034
MS.456         	11.73          	-0.008
MS.457         	11.707         	-0.026
MS.458         	11.685         	-0.008
MS.459         	11.66          	-0.006
MS.460         	11.637         	-0.026
MS.461         	11.615         	-0.002
MS.462         	11.59          	-0.01
MS.463         	11.568         	-0.012
MS.464         	11.545         	-0.018
MS.465         	11.523         	-0.018
MS.466         	11.497         	0.036
MS.467         	11.475         	0.044
MS.468         	11.452         	-0.044
MS.469         	11.43          	-0.04
MS.470         	11.407         	-0.006
MS.471         	11.385         	-0.014
MS.472         	11.36          	0.006
DERIVED EXCITABILITY VARIABLES
Program = QTracP 9/10/2021
Threshold method = 6 (optimised for CAP, using data for present condition only)
SR method = 1 (using actual data values)
6.                 	0.000               	Peak response\(mV)
9.                 	31.3                	Temperature ( C)
17.                	74                  	Age (years)
18.                	1                   	Sex (M=1, F=2)

EXTRA VARIABLES

MScPeak(mV) = 4.8
MScS5(mA) = 15.6
MScS50(mA) = 18.76
MScS95(mA) = 25.18
MScNSteps = 0
MScSteps(%) = 0.0
MScStepMax(%) = 0.0
MScD50 = 55
MScSlope = 4.75
MScDuration(min) = 4.3
MSFTraces = 451
MSFPeakAmp(mV) = 4.82
MSFNUnits = 166
MSFMeanUnitAmp(uV) = 29
MSFHuntTime(m) = 2.57
MSFError(%) = 1.46
MSFNLarge = 49.15
MSFMedianAmp(%) = 0.518
MSFMedianAmp(mV) = 0.025
MSFHalfAmpAmp(%) = 0.675
MSFHalfAmpAmp(mV) = 0.0325
MSFLargestAmp(%) = 2.1
MSFLargestAmp(mV) = 0.101
MSFMeanRS(%) = 2
MSFSizeLimit(uV) = 12
MSFLimitType = 1
MSFSmallestAmp(uV) = 12.3
MSFOpts = 10106121

EXTRA WAVEFORMS


!MScan Model
!166
	1	12.44	0.63	2
	2	13.18	1.16	2
