File:              	C:\Qtrac\Data\Daniel M Sørensen\MScan multicentre study\Data from centres\Antalya\Processed data\TR.NC.ANT.2.2- NCC00323D.QZD
Name:              	TR.NC.ANT.2.2
Protocol:          	MSCAN-R2
Date:              	23/3/20
Start time:        	18:43:07
Age:               	38
Sex:               	m
Temperature:       	31.1
S/R sites:         	TA
NC/disease:        	NC
Operator:          	ab
Comments:          	left TA
M-SCAN DATA (8.7-2m)
Scanpts: 13, 21, 665, 673
Stim. (mA)     	Amp. (mV)
MS.1           	18             	6.175
MS.2           	18             	6.149
MS.3           	18             	6.149
MS.4           	18             	6.145
MS.5           	18             	6.139
MS.6           	18             	6.135
MS.7           	18             	6.103
MS.8           	18             	6.103
MS.9           	18             	6.133
MS.10          	18             	6.131
MS.11          	18             	6.123
MS.12          	18             	6.119
MS.13          	18             	6.087
MS.14          	18             	6.097
MS.15          	18             	6.097
MS.16          	18             	6.097
MS.17          	18             	6.085
MS.18          	18             	6.111
MS.19          	18             	6.117
MS.20          	18             	6.115
MS.21          	18             	6.095
MS.22          	18             	6.121
MS.23          	18             	6.083
MS.24          	17.927         	6.069
MS.25          	17.892         	6.055
MS.26          	17.858         	6.087
MS.27          	17.82          	6.077
MS.28          	17.785         	6.093
MS.29          	17.75          	6.085
MS.30          	17.715         	6.085
MS.31          	17.68          	6.089
MS.32          	17.642         	6.089
MS.33          	17.608         	6.087
MS.34          	17.573         	6.081
MS.35          	17.538         	6.081
MS.36          	17.503         	6.081
MS.37          	17.467         	6.069
MS.38          	17.432         	6.079
MS.39          	17.397         	6.085
MS.40          	17.362         	6.069
MS.41          	17.33          	6.077
MS.42          	17.295         	6.059
MS.43          	17.26          	6.063
MS.44          	17.225         	6.065
MS.45          	17.19          	6.077
MS.46          	17.157         	6.075
MS.47          	17.122         	6.063
MS.48          	17.087         	6.067
MS.49          	17.052         	6.065
MS.50          	17.02          	6.057
MS.51          	16.985         	6.067
MS.52          	16.952         	6.073
MS.53          	16.917         	6.059
MS.54          	16.885         	6.063
MS.55          	16.85          	6.071
MS.56          	16.817         	6.083
MS.57          	16.782         	6.065
MS.58          	16.75          	6.047
MS.59          	16.715         	6.059
MS.60          	16.682         	6.055
MS.61          	16.65          	6.061
MS.62          	16.615         	6.042
MS.63          	16.583         	6.053
MS.64          	16.55          	6.047
MS.65          	16.517         	6.053
MS.66          	16.483         	6.059
MS.67          	16.45          	6.053
MS.68          	16.417         	6.036
MS.69          	16.385         	6.044
MS.70          	16.352         	6.036
MS.71          	16.32          	6.049
MS.72          	16.288         	6.053
MS.73          	16.255         	6.055
MS.74          	16.222         	6.028
MS.75          	16.19          	6.038
MS.76          	16.157         	6.04
MS.77          	16.125         	6.042
MS.78          	16.092         	6.022
MS.79          	16.06          	6.032
MS.80          	16.028         	6.026
MS.81          	15.997         	6.018
MS.82          	15.965         	6.038
MS.83          	15.932         	6.028
MS.84          	15.9           	6.03
MS.85          	15.87          	6.036
MS.86          	15.837         	6.032
MS.87          	15.805         	6.028
MS.88          	15.775         	6.032
MS.89          	15.742         	6.04
MS.90          	15.71          	6.051
MS.91          	15.68          	6.036
MS.92          	15.648         	6.044
MS.93          	15.617         	6.03
MS.94          	15.585         	6.075
MS.95          	15.555         	6.051
MS.96          	15.523         	6.044
MS.97          	15.492         	6.049
MS.98          	15.462         	6.049
MS.99          	15.43          	6.049
MS.100         	15.4           	6.047
MS.101         	15.37          	6.049
MS.102         	15.337         	6.047
MS.103         	15.307         	6.047
MS.104         	15.277         	6.042
MS.105         	15.247         	6.044
MS.106         	15.217         	6.051
MS.107         	15.185         	6.053
MS.108         	15.155         	6.042
MS.109         	15.125         	6.049
MS.110         	15.095         	6.053
MS.111         	15.065         	6.051
MS.112         	15.035         	6.04
MS.113         	15.005         	6.053
MS.114         	14.975         	6.047
MS.115         	14.945         	6.057
MS.116         	14.915         	6.059
MS.117         	14.885         	6.028
MS.118         	14.855         	6.04
MS.119         	14.825         	6.044
MS.120         	14.795         	6.044
MS.121         	14.767         	6.04
MS.122         	14.737         	6.012
MS.123         	14.707         	6.022
MS.124         	14.677         	6.026
MS.125         	14.65          	6.051
MS.126         	14.62          	6.024
MS.127         	14.59          	6.032
MS.128         	14.562         	6.036
MS.129         	14.532         	5.998
MS.130         	14.502         	6.008
MS.131         	14.475         	6.008
MS.132         	14.445         	5.946
MS.133         	14.417         	5.952
MS.134         	14.387         	5.952
MS.135         	14.36          	5.932
MS.136         	14.33          	5.926
MS.137         	14.302         	5.908
MS.138         	14.273         	5.93
MS.139         	14.245         	5.934
MS.140         	14.215         	5.899
MS.141         	14.188         	5.926
MS.142         	14.16          	5.916
MS.143         	14.13          	5.92
MS.144         	14.102         	5.906
MS.145         	14.075         	5.922
MS.146         	14.047         	5.922
MS.147         	14.017         	5.869
MS.148         	13.99          	5.889
MS.149         	13.962         	5.912
MS.150         	13.935         	5.875
MS.151         	13.907         	5.883
MS.152         	13.88          	5.889
MS.153         	13.85          	5.889
MS.154         	13.822         	5.875
MS.155         	13.795         	5.873
MS.156         	13.767         	5.881
MS.157         	13.74          	5.867
MS.158         	13.712         	5.873
MS.159         	13.685         	5.849
MS.160         	13.657         	5.859
MS.161         	13.632         	5.835
MS.162         	13.605         	5.875
MS.163         	13.577         	5.883
MS.164         	13.55          	5.92
MS.165         	13.523         	5.837
MS.166         	13.495         	5.908
MS.167         	13.467         	5.906
MS.168         	13.443         	5.893
MS.169         	13.415         	5.841
MS.170         	13.387         	5.837
MS.171         	13.362         	5.831
MS.172         	13.335         	5.871
MS.173         	13.307         	5.859
MS.174         	13.282         	5.851
MS.175         	13.255         	5.847
MS.176         	13.227         	5.771
MS.177         	13.202         	5.873
MS.178         	13.175         	5.843
MS.179         	13.15          	5.851
MS.180         	13.122         	5.744
MS.181         	13.097         	5.793
MS.182         	13.07          	5.781
MS.183         	13.045         	5.734
MS.184         	13.017         	5.785
MS.185         	12.992         	5.752
MS.186         	12.967         	5.805
MS.187         	12.94          	5.718
MS.188         	12.915         	5.829
MS.189         	12.89          	5.732
MS.190         	12.862         	5.67
MS.191         	12.837         	5.771
MS.192         	12.812         	5.692
MS.193         	12.785         	5.698
MS.194         	12.76          	5.692
MS.195         	12.735         	5.632
MS.196         	12.71          	5.69
MS.197         	12.685         	5.656
MS.198         	12.66          	5.613
MS.199         	12.632         	5.62
MS.200         	12.608         	5.561
MS.201         	12.582         	5.698
MS.202         	12.557         	5.591
MS.203         	12.532         	5.569
MS.204         	12.507         	5.585
MS.205         	12.483         	5.561
MS.206         	12.457         	5.567
MS.207         	12.432         	5.561
MS.208         	12.407         	5.483
MS.209         	12.382         	5.523
MS.210         	12.36          	5.589
MS.211         	12.335         	5.452
MS.212         	12.31          	5.408
MS.213         	12.285         	5.529
MS.214         	12.26          	5.523
MS.215         	12.235         	5.523
MS.216         	12.212         	5.309
MS.217         	12.188         	5.313
MS.218         	12.162         	5.372
MS.219         	12.137         	5.414
MS.220         	12.115         	5.303
MS.221         	12.09          	5.327
MS.222         	12.065         	5.378
MS.223         	12.042         	5.42
MS.224         	12.017         	5.293
MS.225         	11.992         	5.273
MS.226         	11.97          	5.233
MS.227         	11.945         	5.215
MS.228         	11.922         	5.277
MS.229         	11.898         	5.166
MS.230         	11.875         	5.148
MS.231         	11.85          	5.195
MS.232         	11.827         	5.207
MS.233         	11.802         	5.11
MS.234         	11.78          	5.195
MS.235         	11.755         	5.188
MS.236         	11.733         	5.195
MS.237         	11.71          	5.049
MS.238         	11.685         	5.13
MS.239         	11.662         	5.045
MS.240         	11.64          	5.019
MS.241         	11.615         	5.078
MS.242         	11.592         	5.041
MS.243         	11.57          	5.047
MS.244         	11.547         	4.989
MS.245         	11.523         	4.969
MS.246         	11.5           	4.925
MS.247         	11.477         	4.963
MS.248         	11.455         	5.011
MS.249         	11.432         	4.939
MS.250         	11.407         	4.725
MS.251         	11.385         	4.904
MS.252         	11.363         	4.892
MS.253         	11.34          	4.878
MS.254         	11.318         	4.822
MS.255         	11.295         	4.844
MS.256         	11.273         	4.788
MS.257         	11.25          	4.689
MS.258         	11.227         	4.659
MS.259         	11.205         	4.659
MS.260         	11.182         	4.651
MS.261         	11.16          	4.614
MS.262         	11.137         	4.625
MS.263         	11.115         	4.594
MS.264         	11.092         	4.584
MS.265         	11.073         	4.512
MS.266         	11.05          	4.473
MS.267         	11.028         	4.469
MS.268         	11.005         	4.393
MS.269         	10.983         	4.403
MS.270         	10.962         	4.389
MS.271         	10.94          	4.407
MS.272         	10.917         	4.453
MS.273         	10.895         	4.244
MS.274         	10.875         	4.262
MS.275         	10.852         	4.296
MS.276         	10.83          	4.2
MS.277         	10.81          	4.23
MS.278         	10.787         	4.125
MS.279         	10.765         	4.075
MS.280         	10.745         	4.165
MS.281         	10.722         	4.133
MS.282         	10.702         	4.125
MS.283         	10.68          	4.107
MS.284         	10.657         	4.133
MS.285         	10.637         	4.173
MS.286         	10.615         	4.038
MS.287         	10.595         	3.97
MS.288         	10.573         	4
MS.289         	10.552         	3.944
MS.290         	10.532         	3.976
MS.291         	10.51          	3.946
MS.292         	10.49          	3.883
MS.293         	10.467         	3.946
MS.294         	10.448         	4.014
MS.295         	10.427         	3.92
MS.296         	10.405         	3.914
MS.297         	10.385         	3.879
MS.298         	10.365         	3.841
MS.299         	10.342         	3.932
MS.300         	10.323         	3.791
MS.301         	10.302         	3.823
MS.302         	10.282         	3.817
MS.303         	10.26          	3.879
MS.304         	10.24          	3.766
MS.305         	10.22          	3.843
MS.306         	10.2           	3.845
MS.307         	10.18          	3.696
MS.308         	10.16          	3.74
MS.309         	10.14          	3.726
MS.310         	10.117         	3.791
MS.311         	10.097         	3.768
MS.312         	10.077         	3.732
MS.313         	10.057         	3.67
MS.314         	10.037         	3.65
MS.315         	10.017         	3.615
MS.316         	9.997          	3.692
MS.317         	9.977          	3.656
MS.318         	9.957          	3.603
MS.319         	9.938          	3.543
MS.320         	9.917          	3.559
MS.321         	9.898          	3.575
MS.322         	9.877          	3.567
MS.323         	9.86           	3.583
MS.324         	9.84           	3.611
MS.325         	9.82           	3.511
MS.326         	9.8            	3.549
MS.327         	9.78           	3.511
MS.328         	9.76           	3.454
MS.329         	9.74           	3.388
MS.330         	9.722          	3.386
MS.331         	9.702          	3.487
MS.332         	9.682          	3.406
MS.333         	9.662          	3.402
MS.334         	9.645          	3.376
MS.335         	9.625          	3.39
MS.336         	9.605          	3.333
MS.337         	9.587          	3.293
MS.338         	9.568          	3.358
MS.339         	9.547          	3.253
MS.340         	9.53           	3.229
MS.341         	9.51           	3.271
MS.342         	9.49           	3.281
MS.343         	9.472          	3.247
MS.344         	9.452          	3.136
MS.345         	9.435          	3.11
MS.346         	9.415          	3.156
MS.347         	9.398          	3.138
MS.348         	9.377          	3.055
MS.349         	9.36           	3.126
MS.350         	9.34           	2.955
MS.351         	9.323          	3.037
MS.352         	9.302          	2.973
MS.353         	9.285          	2.914
MS.354         	9.265          	2.91
MS.355         	9.247          	2.826
MS.356         	9.23           	2.687
MS.357         	9.21           	2.794
MS.358         	9.193          	2.671
MS.359         	9.175          	2.576
MS.360         	9.155          	1.772
MS.361         	9.137          	2.753
MS.362         	9.12           	2.733
MS.363         	9.1            	2.82
MS.364         	9.082          	2.681
MS.365         	9.065          	2.657
MS.366         	9.047          	2.655
MS.367         	9.028          	2.693
MS.368         	9.01           	2.647
MS.369         	8.992          	2.542
MS.370         	8.975          	2.568
MS.371         	8.957          	2.564
MS.372         	8.938          	2.562
MS.373         	8.92           	2.475
MS.374         	8.903          	2.485
MS.375         	8.885          	2.445
MS.376         	8.867          	2.351
MS.377         	8.85           	2.272
MS.378         	8.832          	2.34
MS.379         	8.815          	2.344
MS.380         	8.797          	2.26
MS.381         	8.78           	2.316
MS.382         	8.762          	2.236
MS.383         	8.745          	2.26
MS.384         	8.727          	2.266
MS.385         	8.71           	2.206
MS.386         	8.693          	2.131
MS.387         	8.675          	2.161
MS.388         	8.658          	2.093
MS.389         	8.64           	2.022
MS.390         	8.622          	2.083
MS.391         	8.605          	2.022
MS.392         	8.587          	2.024
MS.393         	8.57           	2.02
MS.394         	8.552          	1.94
MS.395         	8.537          	1.966
MS.396         	8.52           	1.978
MS.397         	8.502          	1.901
MS.398         	8.485          	1.958
MS.399         	8.467          	1.936
MS.400         	8.452          	1.988
MS.401         	8.435          	1.891
MS.402         	8.417          	1.889
MS.403         	8.4            	1.799
MS.404         	8.385          	1.877
MS.405         	8.367          	1.752
MS.406         	8.35           	1.678
MS.407         	8.335          	1.742
MS.408         	8.318          	1.664
MS.409         	8.3            	1.648
MS.410         	8.285          	1.646
MS.411         	8.267          	1.73
MS.412         	8.252          	1.577
MS.413         	8.235          	1.571
MS.414         	8.217          	1.565
MS.415         	8.202          	1.583
MS.416         	8.185          	1.549
MS.417         	8.17           	1.557
MS.418         	8.153          	1.499
MS.419         	8.137          	1.47
MS.420         	8.12           	1.458
MS.421         	8.105          	1.497
MS.422         	8.087          	1.468
MS.423         	8.073          	1.404
MS.424         	8.055          	1.47
MS.425         	8.04           	1.418
MS.426         	8.023          	1.402
MS.427         	8.007          	1.376
MS.428         	7.992          	1.345
MS.429         	7.975          	1.333
MS.430         	7.96           	1.364
MS.431         	7.942          	1.364
MS.432         	7.927          	1.333
MS.433         	7.912          	1.267
MS.434         	7.895          	1.215
MS.435         	7.88           	1.219
MS.436         	7.865          	1.231
MS.437         	7.85           	1.227
MS.438         	7.832          	1.213
MS.439         	7.817          	1.18
MS.440         	7.802          	1.196
MS.441         	7.787          	1.196
MS.442         	7.77           	1.178
MS.443         	7.755          	1.144
MS.444         	7.74           	1.144
MS.445         	7.725          	1.126
MS.446         	7.71           	1.114
MS.447         	7.692          	1.086
MS.448         	7.677          	1.029
MS.449         	7.662          	1.086
MS.450         	7.648          	1.039
MS.451         	7.632          	1.049
MS.452         	7.617          	1.068
MS.453         	7.602          	1.021
MS.454         	7.587          	1.009
MS.455         	7.572          	0.951
MS.456         	7.555          	0.892
MS.457         	7.54           	0.951
MS.458         	7.525          	0.957
MS.459         	7.51           	0.933
MS.460         	7.495          	0.916
MS.461         	7.48           	0.848
MS.462         	7.465          	0.864
MS.463         	7.45           	0.88
MS.464         	7.438          	0.856
MS.465         	7.422          	0.824
MS.466         	7.407          	0.802
MS.467         	7.392          	0.824
MS.468         	7.378          	0.781
MS.469         	7.362          	0.786
MS.470         	7.347          	0.771
MS.471         	7.332          	0.775
MS.472         	7.317          	0.757
MS.473         	7.302          	0.733
MS.474         	7.29           	0.749
MS.475         	7.275          	0.763
MS.476         	7.26           	0.723
MS.477         	7.245          	0.711
MS.478         	7.23           	0.675
MS.479         	7.217          	0.683
MS.480         	7.202          	0.667
MS.481         	7.188          	0.626
MS.482         	7.172          	0.641
MS.483         	7.16           	0.655
MS.484         	7.145          	0.618
MS.485         	7.13           	0.594
MS.486         	7.115          	0.59
MS.487         	7.102          	0.588
MS.488         	7.087          	0.566
MS.489         	7.072          	0.55
MS.490         	7.06           	0.55
MS.491         	7.045          	0.548
MS.492         	7.032          	0.55
MS.493         	7.017          	0.536
MS.494         	7.003          	0.542
MS.495         	6.99           	0.524
MS.496         	6.975          	0.55
MS.497         	6.962          	0.524
MS.498         	6.947          	0.52
MS.499         	6.932          	0.52
MS.500         	6.92           	0.493
