File:              	C:\Qtrac\Data\Daniel M Sørensen\MScan multicentre study\Data from centres\Antalya\Processed data\TR.NC.ANT.2.1- NCC00315D.QZD
Name:              	TR.NC.ANT.2.1
Protocol:          	MSCAN-R2
Date:              	15/3/20
Start time:        	15:25:36
Age:               	38
Sex:               	m
Temperature:       	30.3
S/R sites:         	TA
NC/disease:        	NC
Operator:          	ab
Comments:          	left TA
M-SCAN DATA (7.8-1.3m)
Scanpts: 5, 10, 673, 694
Stim. (mA)     	Amp. (mV)
MS.1           	34.5           	7.265
MS.2           	34.5           	7.257
MS.3           	34.5           	7.269
MS.4           	34.5           	7.283
MS.5           	34.5           	7.297
MS.6           	34.5           	7.281
MS.7           	34.5           	7.273
MS.8           	34.5           	7.269
MS.9           	34.5           	7.269
MS.10          	34.5           	7.271
MS.11          	34.5           	7.265
MS.12          	34.5           	7.267
MS.13          	34.5           	7.265
MS.14          	34.5           	7.263
MS.15          	34.5           	7.251
MS.16          	34.5           	7.271
MS.17          	34.5           	7.257
MS.18          	34.5           	7.233
MS.19          	34.5           	7.257
MS.20          	34.5           	7.263
MS.21          	34.5           	7.247
MS.22          	34.5           	7.259
MS.23          	34.5           	7.178
MS.24          	34.292         	7.031
MS.25          	34.225         	7.116
MS.26          	34.157         	7.211
MS.27          	34.087         	7.197
MS.28          	34.02          	7.199
MS.29          	33.952         	7.203
MS.30          	33.885         	7.18
MS.31          	33.818         	7.223
MS.32          	33.75          	7.172
MS.33          	33.682         	7.18
MS.34          	33.615         	7.18
MS.35          	33.548         	7.168
MS.36          	33.48          	7.162
MS.37          	33.412         	7.176
MS.38          	33.347         	7.156
MS.39          	33.28          	7.191
MS.40          	33.212         	7.154
MS.41          	33.147         	7.142
MS.42          	33.08          	7.15
MS.43          	33.015         	7.156
MS.44          	32.95          	7.17
MS.45          	32.882         	7.17
MS.46          	32.818         	7.17
MS.47          	32.752         	7.16
MS.48          	32.688         	7.178
MS.49          	32.62          	7.15
MS.50          	32.555         	7.168
MS.51          	32.49          	7.144
MS.52          	32.425         	7.176
MS.53          	32.36          	7.158
MS.54          	32.298         	7.126
MS.55          	32.232         	7.14
MS.56          	32.167         	7.144
MS.57          	32.103         	7.16
MS.58          	32.04          	7.122
MS.59          	31.975         	7.11
MS.60          	31.91          	7.108
MS.61          	31.847         	7.068
MS.62          	31.782         	7.14
MS.63          	31.72          	7.12
MS.64          	31.657         	7.104
MS.65          	31.592         	7.12
MS.66          	31.53          	7.104
MS.67          	31.467         	7.094
MS.68          	31.405         	7.108
MS.69          	31.342         	7.1
MS.70          	31.28          	7.114
MS.71          	31.217         	7.108
MS.72          	31.155         	7.05
MS.73          	31.092         	7.11
MS.74          	31.03          	7.098
MS.75          	30.967         	7.068
MS.76          	30.905         	7.042
MS.77          	30.845         	7.074
MS.78          	30.782         	7.066
MS.79          	30.722         	7.052
MS.80          	30.66          	7.052
MS.81          	30.597         	7.029
MS.82          	30.537         	7.015
MS.83          	30.477         	7.019
MS.84          	30.415         	7.033
MS.85          	30.355         	7.007
MS.86          	30.295         	7.056
MS.87          	30.233         	7.039
MS.88          	30.172         	7.035
MS.89          	30.112         	7.015
MS.90          	30.052         	6.967
MS.91          	29.992         	7.001
MS.92          	29.932         	6.997
MS.93          	29.872         	6.886
MS.94          	29.812         	6.985
MS.95          	29.755         	6.957
MS.96          	29.695         	6.979
MS.97          	29.635         	6.979
MS.98          	29.575         	6.953
MS.99          	29.517         	6.961
MS.100         	29.457         	6.862
MS.101         	29.4           	6.949
MS.102         	29.34          	6.965
MS.103         	29.282         	6.923
MS.104         	29.222         	6.88
MS.105         	29.165         	6.852
MS.106         	29.108         	6.84
MS.107         	29.047         	6.762
MS.108         	28.99          	6.82
MS.109         	28.932         	6.81
MS.110         	28.875         	6.739
MS.111         	28.817         	6.719
MS.112         	28.76          	6.735
MS.113         	28.702         	6.727
MS.114         	28.645         	6.758
MS.115         	28.587         	6.78
MS.116         	28.53          	6.673
MS.117         	28.472         	6.703
MS.118         	28.415         	6.645
MS.119         	28.36          	6.669
MS.120         	28.302         	6.588
MS.121         	28.245         	6.667
MS.122         	28.19          	6.566
MS.123         	28.132         	6.645
MS.124         	28.077         	6.51
MS.125         	28.02          	6.647
MS.126         	27.965         	6.578
MS.127         	27.91          	6.496
MS.128         	27.852         	6.568
MS.129         	27.797         	6.552
MS.130         	27.743         	6.536
MS.131         	27.688         	6.48
MS.132         	27.632         	6.381
MS.133         	27.577         	6.463
MS.134         	27.52          	6.381
MS.135         	27.465         	6.401
MS.136         	27.412         	6.304
MS.137         	27.358         	6.345
MS.138         	27.302         	6.471
MS.139         	27.247         	6.365
MS.140         	27.192         	6.355
MS.141         	27.137         	6.373
MS.142         	27.085         	6.304
MS.143         	27.03          	6.298
MS.144         	26.975         	6.202
MS.145         	26.922         	6.361
MS.146         	26.868         	6.308
MS.147         	26.815         	6.161
MS.148         	26.762         	6.29
MS.149         	26.707         	6.173
MS.150         	26.655         	6.206
MS.151         	26.6           	6.044
MS.152         	26.547         	6.117
MS.153         	26.495         	6.042
MS.154         	26.442         	6.014
MS.155         	26.39          	5.885
MS.156         	26.337         	5.877
MS.157         	26.285         	5.899
MS.158         	26.233         	5.948
MS.159         	26.18          	5.799
MS.160         	26.127         	5.877
MS.161         	26.075         	5.869
MS.162         	26.022         	5.831
MS.163         	25.97          	5.841
MS.164         	25.917         	5.827
MS.165         	25.868         	5.803
MS.166         	25.815         	5.72
MS.167         	25.762         	5.76
MS.168         	25.712         	5.704
MS.169         	25.66          	5.728
MS.170         	25.61          	5.994
MS.171         	25.557         	5.62
MS.172         	25.507         	5.481
MS.173         	25.455         	5.684
MS.174         	25.405         	5.46
MS.175         	25.355         	5.63
MS.176         	25.305         	5.418
MS.177         	25.252         	5.362
MS.178         	25.202         	5.452
MS.179         	25.153         	5.436
MS.180         	25.102         	5.392
MS.181         	25.052         	5.094
MS.182         	25.002         	5.088
MS.183         	24.952         	5.06
MS.184         	24.903         	4.701
MS.185         	24.852         	5.045
MS.186         	24.802         	5.017
MS.187         	24.752         	4.949
MS.188         	24.705         	5.001
MS.189         	24.655         	4.967
MS.190         	24.605         	4.981
MS.191         	24.555         	4.983
MS.192         	24.507         	4.717
MS.193         	24.457         	4.345
MS.194         	24.41          	4.548
MS.195         	24.36          	4.862
MS.196         	24.312         	4.455
MS.197         	24.262         	4.383
MS.198         	24.215         	4.838
MS.199         	24.165         	4.353
MS.200         	24.118         	4.435
MS.201         	24.07          	4.377
MS.202         	24.022         	4.32
MS.203         	23.972         	4.302
MS.204         	23.925         	4.044
MS.205         	23.877         	4.067
MS.206         	23.83          	4.198
MS.207         	23.782         	4.028
MS.208         	23.735         	4.016
MS.209         	23.688         	4.147
MS.210         	23.64          	3.992
MS.211         	23.592         	3.819
MS.212         	23.545         	3.632
MS.213         	23.5           	3.573
MS.214         	23.452         	3.642
MS.215         	23.405         	3.515
MS.216         	23.358         	3.728
MS.217         	23.312         	3.507
MS.218         	23.265         	3.589
MS.219         	23.217         	3.472
MS.220         	23.172         	3.75
MS.221         	23.125         	3.408
MS.222         	23.08          	3.227
MS.223         	23.032         	3.142
MS.224         	22.987         	3.152
MS.225         	22.942         	3.126
MS.226         	22.895         	3.213
MS.227         	22.85          	2.923
MS.228         	22.805         	3.003
MS.229         	22.76          	3.094
MS.230         	22.712         	2.981
MS.231         	22.667         	2.967
MS.232         	22.622         	3.106
MS.233         	22.577         	2.906
MS.234         	22.532         	2.864
MS.235         	22.487         	2.88
MS.236         	22.442         	2.872
MS.237         	22.397         	2.818
MS.238         	22.352         	2.78
MS.239         	22.307         	2.765
MS.240         	22.262         	2.725
MS.241         	22.22          	2.796
MS.242         	22.175         	2.755
MS.243         	22.13          	2.719
MS.244         	22.085         	2.713
MS.245         	22.042         	2.669
MS.246         	21.997         	2.669
MS.247         	21.955         	2.645
MS.248         	21.91          	2.604
MS.249         	21.868         	2.566
MS.250         	21.823         	2.56
MS.251         	21.78          	2.61
MS.252         	21.735         	2.538
MS.253         	21.692         	2.502
MS.254         	21.65          	2.554
MS.255         	21.605         	2.544
MS.256         	21.562         	2.481
MS.257         	21.52          	2.483
MS.258         	21.477         	2.479
MS.259         	21.432         	2.445
MS.260         	21.39          	2.522
MS.261         	21.347         	2.429
MS.262         	21.305         	2.371
MS.263         	21.262         	2.375
MS.264         	21.22          	2.433
MS.265         	21.177         	2.34
MS.266         	21.135         	2.34
MS.267         	21.092         	2.338
MS.268         	21.05          	2.344
MS.269         	21.01          	2.359
MS.270         	20.967         	2.349
MS.271         	20.925         	2.302
MS.272         	20.882         	2.274
MS.273         	20.842         	2.302
MS.274         	20.8           	2.318
MS.275         	20.757         	2.274
MS.276         	20.717         	2.238
MS.277         	20.675         	2.254
MS.278         	20.635         	2.193
MS.279         	20.592         	2.199
MS.280         	20.552         	2.22
MS.281         	20.51          	2.208
MS.282         	20.47          	2.179
MS.283         	20.43          	2.206
MS.284         	20.387         	2.151
MS.285         	20.347         	2.151
MS.286         	20.307         	2.175
MS.287         	20.265         	2.133
MS.288         	20.225         	2.107
MS.289         	20.185         	2.091
MS.290         	20.145         	2.091
MS.291         	20.105         	2.044
MS.292         	20.065         	2.052
MS.293         	20.025         	2.018
MS.294         	19.985         	2.073
MS.295         	19.945         	1.978
MS.296         	19.905         	2.044
MS.297         	19.865         	1.909
MS.298         	19.825         	1.97
MS.299         	19.785         	2.028
MS.300         	19.745         	1.986
MS.301         	19.708         	1.986
MS.302         	19.667         	1.97
MS.303         	19.627         	1.928
MS.304         	19.587         	1.871
MS.305         	19.55          	1.829
MS.306         	19.51          	1.825
MS.307         	19.472         	1.809
MS.308         	19.432         	1.823
MS.309         	19.395         	1.764
MS.310         	19.355         	1.865
MS.311         	19.317         	1.881
MS.312         	19.278         	1.766
MS.313         	19.24          	1.668
MS.314         	19.2           	1.783
MS.315         	19.163         	1.726
MS.316         	19.125         	1.72
MS.317         	19.085         	1.736
MS.318         	19.047         	1.716
MS.319         	19.01          	1.724
MS.320         	18.972         	1.617
MS.321         	18.935         	1.71
MS.322         	18.895         	1.569
MS.323         	18.858         	1.648
MS.324         	18.82          	1.597
MS.325         	18.782         	1.589
MS.326         	18.745         	1.66
MS.327         	18.708         	1.539
MS.328         	18.67          	1.495
MS.329         	18.632         	1.623
MS.330         	18.595         	1.372
MS.331         	18.56          	1.43
MS.332         	18.522         	1.366
MS.333         	18.485         	1.593
MS.334         	18.448         	1.476
MS.335         	18.41          	1.327
MS.336         	18.375         	1.275
MS.337         	18.337         	1.295
MS.338         	18.3           	1.313
MS.339         	18.265         	1.325
MS.340         	18.227         	1.225
MS.341         	18.192         	1.233
MS.342         	18.155         	1.275
MS.343         	18.12          	1.174
MS.344         	18.083         	1.138
MS.345         	18.047         	1.293
MS.346         	18.01          	1.14
MS.347         	17.975         	1.164
MS.348         	17.938         	1.15
MS.349         	17.903         	1.291
MS.350         	17.868         	1.142
MS.351         	17.833         	1.235
MS.352         	17.795         	1.136
MS.353         	17.76          	1.031
MS.354         	17.725         	1.061
MS.355         	17.69          	1.104
MS.356         	17.655         	1.102
MS.357         	17.618         	1.043
MS.358         	17.583         	0.989
MS.359         	17.547         	0.997
MS.360         	17.512         	1.009
MS.361         	17.477         	0.991
MS.362         	17.442         	0.991
MS.363         	17.407         	0.874
MS.364         	17.372         	0.953
MS.365         	17.34          	0.955
MS.366         	17.305         	1.023
MS.367         	17.27          	0.939
MS.368         	17.235         	0.834
MS.369         	17.2           	0.773
MS.370         	17.167         	0.781
MS.371         	17.132         	0.739
MS.372         	17.097         	0.802
MS.373         	17.062         	0.85
MS.374         	17.03          	0.705
MS.375         	16.995         	0.717
MS.376         	16.962         	0.669
MS.377         	16.927         	0.731
MS.378         	16.895         	0.715
MS.379         	16.86          	0.729
MS.380         	16.827         	0.733
MS.381         	16.792         	0.647
MS.382         	16.76          	0.608
MS.383         	16.725         	0.56
MS.384         	16.692         	0.554
MS.385         	16.66          	0.562
MS.386         	16.625         	0.586
MS.387         	16.592         	0.572
MS.388         	16.56          	0.6
MS.389         	16.528         	0.508
MS.390         	16.493         	0.5
MS.391         	16.46          	0.558
MS.392         	16.427         	0.58
MS.393         	16.395         	0.489
MS.394         	16.362         	0.495
MS.395         	16.33          	0.524
MS.396         	16.297         	0.467
MS.397         	16.265         	0.481
MS.398         	16.233         	0.455
MS.399         	16.2           	0.512
MS.400         	16.167         	0.453
MS.401         	16.135         	0.431
MS.402         	16.102         	0.445
MS.403         	16.07          	0.453
MS.404         	16.038         	0.437
MS.405         	16.005         	0.425
MS.406         	15.975         	0.453
MS.407         	15.943         	0.413
MS.408         	15.91          	0.431
MS.409         	15.877         	0.393
MS.410         	15.847         	0.421
MS.411         	15.815         	0.429
MS.412         	15.782         	0.397
MS.413         	15.752         	0.401
MS.414         	15.72          	0.401
MS.415         	15.69          	0.413
MS.416         	15.657         	0.381
MS.417         	15.627         	0.363
MS.418         	15.595         	0.379
MS.419         	15.565         	0.375
MS.420         	15.532         	0.377
MS.421         	15.502         	0.352
MS.422         	15.47          	0.35
MS.423         	15.44          	0.348
MS.424         	15.41          	0.377
MS.425         	15.377         	0.363
MS.426         	15.347         	0.332
MS.427         	15.318         	0.32
MS.428         	15.287         	0.328
MS.429         	15.255         	0.318
MS.430         	15.225         	0.352
MS.431         	15.195         	0.35
MS.432         	15.165         	0.306
MS.433         	15.135         	0.342
MS.434         	15.105         	0.32
MS.435         	15.075         	0.318
MS.436         	15.042         	0.326
MS.437         	15.012         	0.308
MS.438         	14.983         	0.292
MS.439         	14.952         	0.302
MS.440         	14.925         	0.282
MS.441         	14.895         	0.288
MS.442         	14.865         	0.268
MS.443         	14.835         	0.282
MS.444         	14.805         	0.284
MS.445         	14.775         	0.276
MS.446         	14.745         	0.278
MS.447         	14.717         	0.282
MS.448         	14.688         	0.258
MS.449         	14.657         	0.252
MS.450         	14.627         	0.25
MS.451         	14.6           	0.254
MS.452         	14.57          	0.252
MS.453         	14.54          	0.254
MS.454         	14.512         	0.25
MS.455         	14.483         	0.238
MS.456         	14.455         	0.228
MS.457         	14.425         	0.244
MS.458         	14.395         	0.244
MS.459         	14.367         	0.248
MS.460         	14.337         	0.238
MS.461         	14.31          	0.226
MS.462         	14.282         	0.242
MS.463         	14.252         	0.226
MS.464         	14.225         	0.218
MS.465         	14.195         	0.236
MS.466         	14.167         	0.222
MS.467         	14.14          	0.216
MS.468         	14.11          	0.216
MS.469         	14.082         	0.203
MS.470         	14.055         	0.195
MS.471         	14.028         	0.211
MS.472         	13.997         	0.195
MS.473         	13.97          	0.209
MS.474         	13.943         	0.199
MS.475         	13.915         	0.187
MS.476         	13.887         	0.205
MS.477         	13.86          	0.203
MS.478         	13.832         	0.205
MS.479         	13.805         	0.179
MS.480         	13.778         	0.159
MS.481         	13.75          	0.187
MS.482         	13.722         	0.169
MS.483         	13.695         	0.193
MS.484         	13.667         	0.165
MS.485         	13.64          	0.169
MS.486         	13.612         	0.181
MS.487         	13.585         	0.183
MS.488         	13.557         	0.163
MS.489         	13.53          	0.171
MS.490         	13.502         	0.157
MS.491         	13.477         	0.163
MS.492         	13.45          	0.159
MS.493         	13.422         	0.163
MS.494         	13.395         	0.159
MS.495         	13.37          	0.143
MS.496         	13.342         	0.149
MS.497         	13.315         	0.155
MS.498         	13.29          	0.151
MS.499         	13.262         	0.153
MS.500         	13.235         	0.153
MS.501         	13.21          	0.145
