File:              	C:\Qtrac\Data\Daniel M Sørensen\MScan multicentre study\Data from centres\Antalya\Processed data\TR.NC.ANT.7.1- NCC01025C.QZD
Name:              	TR.NC.ANT.7.1
Protocol:          	MSCAN-R2
Date:              	25/10/20
Start time:        	17:32:18
Age:               	28
Sex:               	f
Temperature:       	31.4
S/R sites:         	TA
NC/disease:        	NC
Operator:          	ab
Comments:
M-SCAN DATA (5.1-1.2m)
Scanpts: 45, 50, 413, 435
Stim. (mA)     	Amp. (mV)
MS.1           	37.5           	6.733
MS.2           	37.5           	6.723
MS.3           	37.5           	6.745
MS.4           	37.5           	6.707
MS.5           	37.5           	6.677
MS.6           	37.5           	6.677
MS.7           	37.5           	6.673
MS.8           	37.5           	6.663
MS.9           	37.5           	6.657
MS.10          	37.5           	6.651
MS.11          	37.5           	6.633
MS.12          	37.5           	6.655
MS.13          	37.5           	6.645
MS.14          	37.5           	6.621
MS.15          	37.5           	6.645
MS.16          	37.5           	6.631
MS.17          	37.5           	6.627
MS.18          	37.5           	6.606
MS.19          	37.5           	6.623
MS.20          	37.5           	6.629
MS.21          	37.5           	6.588
MS.22          	37.5           	6.612
MS.23          	37.5           	6.639
MS.24          	37.35          	6.588
MS.25          	37.275         	6.586
MS.26          	37.2           	6.588
MS.27          	37.127         	6.619
MS.28          	37.052         	6.615
MS.29          	36.978         	6.637
MS.30          	36.905         	6.617
MS.31          	36.83          	6.623
MS.32          	36.757         	6.631
MS.33          	36.685         	6.615
MS.34          	36.61          	6.617
MS.35          	36.537         	6.633
MS.36          	36.465         	6.612
MS.37          	36.392         	6.637
MS.38          	36.32          	6.623
MS.39          	36.247         	6.639
MS.40          	36.175         	6.643
MS.41          	36.103         	6.625
MS.42          	36.03          	6.643
MS.43          	35.958         	6.653
MS.44          	35.885         	6.637
MS.45          	35.815         	6.651
MS.46          	35.743         	6.639
MS.47          	35.67          	6.643
MS.48          	35.6           	6.661
MS.49          	35.528         	6.643
MS.50          	35.458         	6.663
MS.51          	35.388         	6.643
MS.52          	35.315         	6.649
MS.53          	35.245         	6.663
MS.54          	35.175         	6.641
MS.55          	35.105         	6.641
MS.56          	35.035         	6.651
MS.57          	34.965         	6.639
MS.58          	34.895         	6.647
MS.59          	34.825         	6.645
MS.60          	34.755         	6.625
MS.61          	34.685         	6.627
MS.62          	34.618         	6.635
MS.63          	34.548         	6.619
MS.64          	34.478         	6.588
MS.65          	34.41          	6.59
MS.66          	34.34          	6.568
MS.67          	34.272         	6.627
MS.68          	34.205         	6.604
MS.69          	34.135         	6.568
MS.70          	34.068         	6.568
MS.71          	34             	6.584
MS.72          	33.93          	6.574
MS.73          	33.862         	6.588
MS.74          	33.795         	6.562
MS.75          	33.728         	6.586
MS.76          	33.66          	6.54
MS.77          	33.592         	6.528
MS.78          	33.528         	6.524
MS.79          	33.46          	6.556
MS.80          	33.392         	6.494
MS.81          	33.325         	6.502
MS.82          	33.26          	6.516
MS.83          	33.193         	6.465
MS.84          	33.127         	6.5
MS.85          	33.06          	6.502
MS.86          	32.995         	6.397
MS.87          	32.927         	6.451
MS.88          	32.862         	6.415
MS.89          	32.798         	6.383
MS.90          	32.732         	6.403
MS.91          	32.665         	6.417
MS.92          	32.6           	6.415
MS.93          	32.535         	6.379
MS.94          	32.47          	6.385
MS.95          	32.405         	6.441
MS.96          	32.34          	6.351
MS.97          	32.278         	6.312
MS.98          	32.212         	6.373
MS.99          	32.147         	6.427
MS.100         	32.083         	6.29
MS.101         	32.02          	6.29
MS.102         	31.955         	6.25
MS.103         	31.892         	6.318
MS.104         	31.827         	6.25
MS.105         	31.765         	6.234
MS.106         	31.7           	6.188
MS.107         	31.637         	6.165
MS.108         	31.575         	6.151
MS.109         	31.51          	6.137
MS.110         	31.448         	6.123
MS.111         	31.385         	5.906
MS.112         	31.323         	5.871
MS.113         	31.26          	6.02
MS.114         	31.198         	6.026
MS.115         	31.135         	6.105
MS.116         	31.073         	6.081
MS.117         	31.01          	6.02
MS.118         	30.95          	6.004
MS.119         	30.887         	5.936
MS.120         	30.825         	5.968
MS.121         	30.762         	5.94
MS.122         	30.702         	5.883
MS.123         	30.64          	5.875
MS.124         	30.58          	5.819
MS.125         	30.517         	5.883
MS.126         	30.457         	5.799
MS.127         	30.397         	5.765
MS.128         	30.335         	5.686
MS.129         	30.275         	5.763
MS.130         	30.215         	5.803
MS.131         	30.155         	5.732
MS.132         	30.095         	5.626
MS.133         	30.035         	5.644
MS.134         	29.975         	5.674
MS.135         	29.915         	5.539
MS.136         	29.855         	5.601
MS.137         	29.795         	5.557
MS.138         	29.735         	5.605
MS.139         	29.675         	5.513
MS.140         	29.617         	5.553
MS.141         	29.557         	5.593
MS.142         	29.497         	5.418
MS.143         	29.44          	5.368
MS.144         	29.38          	5.426
MS.145         	29.323         	5.257
MS.146         	29.262         	5.297
MS.147         	29.205         	5.412
MS.148         	29.147         	5.215
MS.149         	29.087         	5.201
MS.150         	29.03          	5.207
MS.151         	28.972         	5.195
MS.152         	28.915         	5.136
MS.153         	28.858         	5.195
MS.154         	28.8           	5.168
MS.155         	28.743         	5.009
MS.156         	28.685         	4.997
MS.157         	28.627         	4.963
MS.158         	28.57          	5.122
MS.159         	28.512         	5.001
MS.160         	28.455         	4.973
MS.161         	28.397         	4.886
MS.162         	28.342         	4.788
MS.163         	28.285         	4.703
MS.164         	28.227         	4.687
MS.165         	28.172         	4.657
MS.166         	28.115         	4.649
MS.167         	28.06          	4.699
MS.168         	28.002         	4.6
MS.169         	27.948         	4.532
MS.170         	27.892         	4.566
MS.171         	27.835         	4.588
MS.172         	27.78          	4.56
MS.173         	27.725         	4.496
MS.174         	27.67          	4.367
MS.175         	27.615         	4.3
MS.176         	27.56          	4.33
MS.177         	27.505         	4.312
MS.178         	27.45          	4.266
MS.179         	27.395         	4.242
MS.180         	27.34          	4.208
MS.181         	27.285         	4.266
MS.182         	27.23          	4.236
MS.183         	27.175         	4.175
MS.184         	27.122         	4.157
MS.185         	27.067         	4.191
MS.186         	27.012         	4.161
MS.187         	26.96          	4.03
MS.188         	26.905         	4.075
MS.189         	26.852         	3.988
MS.190         	26.797         	4.022
MS.191         	26.745         	4.032
MS.192         	26.692         	4.036
MS.193         	26.637         	3.988
MS.194         	26.585         	3.976
MS.195         	26.532         	3.819
MS.196         	26.477         	3.825
MS.197         	26.425         	3.807
MS.198         	26.372         	3.877
MS.199         	26.32          	3.875
MS.200         	26.267         	3.849
MS.201         	26.215         	3.795
MS.202         	26.162         	3.684
MS.203         	26.11          	3.654
MS.204         	26.057         	3.734
MS.205         	26.005         	3.595
MS.206         	25.955         	3.66
MS.207         	25.903         	3.557
MS.208         	25.85          	3.587
MS.209         	25.8           	3.64
MS.210         	25.747         	3.432
MS.211         	25.695         	3.519
MS.212         	25.645         	3.468
MS.213         	25.592         	3.43
MS.214         	25.542         	3.468
MS.215         	25.493         	3.299
MS.216         	25.44          	3.358
MS.217         	25.39          	3.184
MS.218         	25.34          	3.346
MS.219         	25.288         	3.239
MS.220         	25.237         	3.223
MS.221         	25.188         	3.156
MS.222         	25.137         	3.174
MS.223         	25.087         	3.114
MS.224         	25.038         	3.201
MS.225         	24.987         	3.1
MS.226         	24.938         	2.997
MS.227         	24.887         	2.965
MS.228         	24.837         	2.981
MS.229         	24.788         	2.989
MS.230         	24.737         	2.862
MS.231         	24.688         	2.858
MS.232         	24.64          	2.961
MS.233         	24.59          	2.828
MS.234         	24.54          	2.757
MS.235         	24.493         	2.747
MS.236         	24.442         	2.751
MS.237         	24.395         	2.757
MS.238         	24.345         	2.757
MS.239         	24.297         	2.653
MS.240         	24.247         	2.645
MS.241         	24.2           	2.518
MS.242         	24.153         	2.548
MS.243         	24.102         	2.55
MS.244         	24.055         	2.405
MS.245         	24.007         	2.504
MS.246         	23.96          	2.52
MS.247         	23.91          	2.465
MS.248         	23.862         	2.425
MS.249         	23.815         	2.451
MS.250         	23.767         	2.288
MS.251         	23.72          	2.284
MS.252         	23.672         	2.365
MS.253         	23.625         	2.304
MS.254         	23.577         	2.266
MS.255         	23.532         	2.151
MS.256         	23.485         	2.189
MS.257         	23.438         	2.234
MS.258         	23.39          	2.268
MS.259         	23.345         	2.171
MS.260         	23.297         	2.103
MS.261         	23.25          	2.173
MS.262         	23.205         	2.046
MS.263         	23.157         	2.103
MS.264         	23.112         	2.131
MS.265         	23.065         	1.988
MS.266         	23.02          	1.99
MS.267         	22.972         	1.962
MS.268         	22.927         	1.934
MS.269         	22.882         	1.962
MS.270         	22.835         	1.875
MS.271         	22.79          	1.831
MS.272         	22.745         	1.837
MS.273         	22.7           	1.742
MS.274         	22.655         	1.732
MS.275         	22.608         	1.793
MS.276         	22.562         	1.708
MS.277         	22.517         	1.605
MS.278         	22.472         	1.672
MS.279         	22.427         	1.66
MS.280         	22.385         	1.654
MS.281         	22.34          	1.599
MS.282         	22.295         	1.642
MS.283         	22.25          	1.549
MS.284         	22.205         	1.525
MS.285         	22.16          	1.438
MS.286         	22.118         	1.466
MS.287         	22.073         	1.337
MS.288         	22.028         	1.339
MS.289         	21.985         	1.366
MS.290         	21.94          	1.291
MS.291         	21.897         	1.374
MS.292         	21.852         	1.285
MS.293         	21.81          	1.231
MS.294         	21.765         	1.168
MS.295         	21.722         	1.227
MS.296         	21.68          	1.14
MS.297         	21.635         	1.118
MS.298         	21.592         	1.106
MS.299         	21.55          	1.172
MS.300         	21.505         	1.078
MS.301         	21.462         	1.029
MS.302         	21.42          	0.955
MS.303         	21.377         	0.924
MS.304         	21.335         	1.007
MS.305         	21.292         	0.916
MS.306         	21.25          	0.886
MS.307         	21.208         	0.92
MS.308         	21.165         	0.83
MS.309         	21.122         	0.862
MS.310         	21.08          	0.854
MS.311         	21.038         	0.759
MS.312         	20.995         	0.699
MS.313         	20.955         	0.681
MS.314         	20.913         	0.723
MS.315         	20.87          	0.711
MS.316         	20.83          	0.683
MS.317         	20.788         	0.636
MS.318         	20.745         	0.645
MS.319         	20.705         	0.655
MS.320         	20.663         	0.653
MS.321         	20.622         	0.594
MS.322         	20.58          	0.572
MS.323         	20.54          	0.544
MS.324         	20.497         	0.548
MS.325         	20.458         	0.542
MS.326         	20.417         	0.564
MS.327         	20.375         	0.493
MS.328         	20.335         	0.534
MS.329         	20.295         	0.495
MS.330         	20.252         	0.425
MS.331         	20.212         	0.475
MS.332         	20.172         	0.504
MS.333         	20.132         	0.447
MS.334         	20.092         	0.413
MS.335         	20.052         	0.411
MS.336         	20.012         	0.369
MS.337         	19.972         	0.385
MS.338         	19.932         	0.359
MS.339         	19.892         	0.326
MS.340         	19.852         	0.35
MS.341         	19.812         	0.352
MS.342         	19.772         	0.334
MS.343         	19.735         	0.322
MS.344         	19.695         	0.298
MS.345         	19.655         	0.284
MS.346         	19.615         	0.25
MS.347         	19.577         	0.274
MS.348         	19.538         	0.266
MS.349         	19.497         	0.256
MS.350         	19.46          	0.246
MS.351         	19.42          	0.181
MS.352         	19.382         	0.199
MS.353         	19.342         	0.201
MS.354         	19.305         	0.189
MS.355         	19.265         	0.211
MS.356         	19.227         	0.209
MS.357         	19.19          	0.193
MS.358         	19.15          	0.167
MS.359         	19.112         	0.137
MS.360         	19.075         	0.185
MS.361         	19.035         	0.183
MS.362         	18.997         	0.167
MS.363         	18.96          	0.117
MS.364         	18.922         	0.07
MS.365         	18.885         	0.095
MS.366         	18.847         	0.064
MS.367         	18.81          	0.081
MS.368         	18.772         	0.091
MS.369         	18.735         	0.058
MS.370         	18.698         	0.073
MS.371         	18.66          	0.066
MS.372         	18.622         	0.068
MS.373         	18.585         	0.048
MS.374         	18.547         	0.042
MS.375         	18.51          	0.038
MS.376         	18.472         	0.04
MS.377         	18.438         	0.048
MS.378         	18.4           	0.042
MS.379         	18.362         	0.036
MS.380         	18.327         	0.042
MS.381         	18.29          	0.036
MS.382         	18.253         	0.038
MS.383         	18.217         	0.04
MS.384         	18.18          	0.028
MS.385         	18.145         	0.02
MS.386         	18.108         	0.018
MS.387         	18.073         	0.024
MS.388         	18.035         	0.02
MS.389         	18             	0.012
MS.390         	17.962         	0.008
MS.391         	17.927         	0.01
MS.392         	17.892         	0.002
MS.393         	17.855         	0.000
MS.394         	17.82          	0.014
MS.395         	17.785         	0.000
MS.396         	17.75          	0.002
MS.397         	17.712         	0.008
MS.398         	17.677         	-0.002
MS.399         	17.642         	0.000
MS.400         	17.608         	0.004
MS.401         	17.573         	0.000
MS.402         	17.538         	0.000
MS.403         	17.503         	0.002
MS.404         	17.467         	0.002
MS.405         	17.432         	-0.002
MS.406         	17.397         	-0.002
MS.407         	17.362         	0.000
MS.408         	17.327         	-0.002
MS.409         	17.292         	0.006
MS.410         	17.26          	-0.004
MS.411         	17.225         	0.002
MS.412         	17.19          	0.002
MS.413         	17.155         	0.002
MS.414         	17.122         	-0.002
MS.415         	17.087         	0.000
MS.416         	17.052         	-0.002
MS.417         	17.02          	0.002
MS.418         	16.985         	0.004
MS.419         	16.95          	-0.004
MS.420         	16.917         	0.002
MS.421         	16.882         	0.002
MS.422         	16.85          	0.002
MS.423         	16.815         	-0.002
MS.424         	16.782         	-0.002
MS.425         	16.75          	-0.002
MS.426         	16.715         	-0.002
MS.427         	16.682         	-0.002
MS.428         	16.65          	-0.002
MS.429         	16.615         	0.000
MS.430         	16.583         	-0.002
MS.431         	16.55          	0.000
MS.432         	16.515         	-0.002
MS.433         	16.483         	0.000
MS.434         	16.45          	-0.002
MS.435         	16.417         	0.000
DERIVED EXCITABILITY VARIABLES
Program = QTracP 3/4/2020
Threshold method = 6 (optimised for CAP, using data for present condition only)
SR method = 1 (using actual data values)
6.                 	0.000               	Peak response\(mV)
9.                 	31.4                	Temperature ( C)
17.                	28                  	Age (years)
18.                	2                   	Sex (M=1, F=2)

EXTRA VARIABLES

MScPeak(mV) = 6.66
MScS5(mA) = 19.85
MScS50(mA) = 25.42
MScS95(mA) = 32.22
MScNSteps = 0
MScSteps(%) = 0.0
MScStepMax(%) = 0.0
MScD50 = 57
MScSlope = 4.16
MSFPeakAmp(mV) = 6.65
MSFNUnits = 185
MSFMeanUnitAmp(uV) = 35.9
MSFHuntTime(m) = 3.44
MSFError(%) = 1.8
MSFNLarge = 65.94
MSFMedianAmp(%) = 0.48
MSFMedianAmp(mV) = 0.0319
MSFHalfAmpAmp(%) = 0.562
MSFHalfAmpAmp(mV) = 0.0374
MSFLargestAmp(%) = 1.51
MSFLargestAmp(mV) = 0.101
MSFMeanRS(%) = 2
MSFOpts = 10106121
MScDuration(min) = 3.9
MSFTraces = 391
MSFSizeLimit(uV) = 16.6
MSFLimitType = 1
MSFSmallestAmp(uV) = 18.4

EXTRA WAVEFORMS


!MScan Model
!185
	1	18.22	0.37	2
	2	18.51	0.37	2
	3	18.68	0.35	2
	4	18.82	0.38	2
	5	18.96	0.36	2
	6	19.08	0.38	2
	7	19.19	0.37	2
	8	19.28	0.35	2
	9	19.36	0.32	2
	10	19.49	0.59	2
	11	19.64	0.46	2
	12	19.74	0.43	2
	13	19.83	0.42	2
	14	19.92	0.54	2
	15	20.06	0.53	2
	16	20.16	0.44	2
	17	20.25	0.46	2
	18	20.35	0.54	2
	19	20.43	0.43	2
	20	20.51	0.42	2
	21	20.57	0.31	2
	22	20.62	0.28	2
	23	20.67	0.33	2
	24	20.72	0.35	2
	25	20.77	0.31	2
	26	20.82	0.28	2
	27	20.86	0.3	2
	28	20.91	0.32	2
	29	20.95	0.33	2
	30	21	0.31	2
	31	21.04	0.32	2
	32	21.08	0.35	2
	33	21.12	0.37	2
	34	21.17	0.36	2
	35	21.21	0.31	2
	36	21.24	0.3	2
	37	21.28	0.32	2
	38	21.32	0.34	2
	39	21.36	0.36	2
	40	21.4	0.38	2
	41	21.44	0.39	2
	42	21.48	0.39	2
	43	21.52	0.37	2
	44	21.57	0.37	2
	45	21.61	0.36	2
	46	21.65	0.35	2
	47	21.69	0.36	2
	48	21.73	0.38	2
	49	21.77	0.4	2
	50	21.81	0.39	2
	51	21.85	0.42	2
	52	21.89	0.42	2
	53	21.93	0.42	2
	54	21.98	0.41	2
	55	22.02	0.4	2
	56	22.07	0.41	2
	57	22.11	0.4	2
	58	22.15	0.4	2
	59	22.2	0.4	2
	60	22.24	0.41	2
	61	22.28	0.36	2
	62	22.32	0.35	2
	63	22.36	0.35	2
	64	22.39	0.35	2
	65	22.43	0.35	2
	66	22.47	0.35	2
	67	22.52	0.44	2
	68	22.56	0.48	2
	69	22.61	0.47	2
	70	22.66	0.46	2
	71	22.7	0.43	2
	72	22.75	0.41	2
	73	22.8	0.39	2
	74	22.84	0.38	2
	75	22.89	0.39	2
	76	22.94	0.43	2
	77	23	0.55	2
	78	23.06	0.51	2
	79	23.13	0.48	2
	80	23.2	0.56	2
	81	23.27	0.65	2
	82	23.35	0.63	2
	83	23.44	0.7	2
