File:              	C:\Qtrac\Data\Daniel M Sørensen\MScan multicentre study\Data from centres\Roskilde\Folders with NC-examinations\ROS_N2a\TRC00227C.QZD
Name:              	DK.ROS.NC.2.1
Protocol:          	MSCAN-R2
Date:              	27/2/20
Start time:        	16:11:35
Age:               	54
Sex:               	M
Temperature:       	36,6
S/R sites:         	PER- TA
NC/disease:        	NC
Operator:          	tr
Comments:
M-SCAN DATA (Repeat 2/2, 14.7-8.8m)
Scanpts: 18, 23, 495, 506
Stim. (mA)     	Amp. (mV)
MS.1           	22.5           	5.726
MS.2           	22.5           	5.728
MS.3           	22.5           	5.756
MS.4           	22.5           	5.704
MS.5           	22.5           	5.666
MS.6           	22.5           	5.652
MS.7           	22.5           	5.656
MS.8           	22.5           	5.682
MS.9           	22.5           	5.47
MS.10          	22.5           	5.418
MS.11          	22.5           	5.791
MS.12          	22.5           	5.944
MS.13          	22.5           	5.982
MS.14          	22.5           	6.026
MS.15          	22.5           	6.071
MS.16          	22.5           	6.093
MS.17          	22.5           	6.075
MS.18          	22.5           	6.105
MS.19          	22.5           	6.115
MS.20          	22.5           	6.077
MS.21          	22.5           	6.131
MS.22          	22.5           	6.099
MS.23          	22.5           	6.109
MS.24          	22.455         	6.115
MS.25          	22.41          	6.067
MS.26          	22.365         	6.083
MS.27          	22.32          	6.061
MS.28          	22.275         	6.065
MS.29          	22.233         	6.051
MS.30          	22.188         	6.04
MS.31          	22.142         	6.026
MS.32          	22.097         	6.038
MS.33          	22.055         	6.01
MS.34          	22.01          	6.057
MS.35          	21.967         	6.02
MS.36          	21.922         	6.065
MS.37          	21.877         	6.077
MS.38          	21.835         	5.998
MS.39          	21.792         	5.98
MS.40          	21.747         	5.986
MS.41          	21.705         	5.96
MS.42          	21.66          	5.98
MS.43          	21.618         	5.95
MS.44          	21.575         	5.932
MS.45          	21.532         	5.978
MS.46          	21.487         	5.922
MS.47          	21.445         	5.936
MS.48          	21.403         	5.956
MS.49          	21.36          	5.893
MS.50          	21.317         	5.926
MS.51          	21.275         	5.904
MS.52          	21.233         	5.885
MS.53          	21.19          	5.873
MS.54          	21.147         	5.841
MS.55          	21.105         	5.795
MS.56          	21.062         	5.839
MS.57          	21.02          	5.865
MS.58          	20.98          	5.873
MS.59          	20.938         	5.833
MS.60          	20.895         	5.787
MS.61          	20.852         	5.775
MS.62          	20.812         	5.841
MS.63          	20.77          	5.855
MS.64          	20.727         	5.912
MS.65          	20.688         	5.889
MS.66          	20.645         	5.889
MS.67          	20.605         	5.859
MS.68          	20.562         	5.829
MS.69          	20.522         	5.775
MS.70          	20.483         	5.883
MS.71          	20.44          	5.879
MS.72          	20.4           	5.869
MS.73          	20.36          	5.887
MS.74          	20.317         	5.877
MS.75          	20.278         	5.867
MS.76          	20.237         	5.76
MS.77          	20.198         	5.748
MS.78          	20.157         	5.777
MS.79          	20.115         	5.66
MS.80          	20.075         	5.674
MS.81          	20.035         	5.662
MS.82          	19.995         	5.742
MS.83          	19.955         	5.7
MS.84          	19.915         	5.638
MS.85          	19.875         	5.702
MS.86          	19.837         	5.63
MS.87          	19.797         	5.674
MS.88          	19.757         	5.694
MS.89          	19.717         	5.563
MS.90          	19.677         	5.676
MS.91          	19.64          	5.64
MS.92          	19.6           	5.69
MS.93          	19.56          	5.559
MS.94          	19.522         	5.573
MS.95          	19.483         	5.615
MS.96          	19.442         	5.547
MS.97          	19.405         	5.591
MS.98          	19.365         	5.587
MS.99          	19.327         	5.511
MS.100         	19.288         	5.535
MS.101         	19.25          	5.491
MS.102         	19.212         	5.531
MS.103         	19.172         	5.481
MS.104         	19.135         	5.567
MS.105         	19.097         	5.422
MS.106         	19.057         	5.45
MS.107         	19.02          	5.513
MS.108         	18.983         	5.372
MS.109         	18.945         	5.525
MS.110         	18.907         	5.47
MS.111         	18.87          	5.392
MS.112         	18.83          	5.442
MS.113         	18.792         	5.42
MS.114         	18.755         	5.327
MS.115         	18.717         	5.303
MS.116         	18.68          	5.396
MS.117         	18.645         	5.4
MS.118         	18.608         	5.378
MS.119         	18.57          	5.376
MS.120         	18.532         	5.38
MS.121         	18.495         	5.271
MS.122         	18.458         	5.372
MS.123         	18.422         	5.199
MS.124         	18.385         	5.291
MS.125         	18.347         	5.281
MS.126         	18.312         	5.251
MS.127         	18.275         	5.309
MS.128         	18.237         	5.241
MS.129         	18.202         	5.261
MS.130         	18.165         	5.19
MS.131         	18.13          	5.172
MS.132         	18.092         	5.211
MS.133         	18.057         	5.201
MS.134         	18.02          	5.146
MS.135         	17.985         	5.154
MS.136         	17.948         	5.066
MS.137         	17.913         	5.037
MS.138         	17.878         	5.09
MS.139         	17.842         	5.037
MS.140         	17.805         	4.977
MS.141         	17.77          	5.102
MS.142         	17.735         	4.949
MS.143         	17.7           	4.975
MS.144         	17.665         	4.981
MS.145         	17.628         	4.969
MS.146         	17.592         	4.947
MS.147         	17.557         	4.967
MS.148         	17.522         	4.904
MS.149         	17.487         	4.852
MS.150         	17.452         	4.915
MS.151         	17.417         	4.743
MS.152         	17.382         	4.834
MS.153         	17.347         	4.906
MS.154         	17.315         	4.798
MS.155         	17.28          	4.84
MS.156         	17.245         	4.802
MS.157         	17.21          	4.757
MS.158         	17.175         	4.822
MS.159         	17.142         	4.671
MS.160         	17.108         	4.699
MS.161         	17.073         	4.776
MS.162         	17.04          	4.61
MS.163         	17.005         	4.735
MS.164         	16.97          	4.588
MS.165         	16.938         	4.649
MS.166         	16.903         	4.512
MS.167         	16.87          	4.409
MS.168         	16.835         	4.608
MS.169         	16.802         	4.447
MS.170         	16.767         	4.431
MS.171         	16.735         	4.413
MS.172         	16.702         	4.5
MS.173         	16.667         	4.465
MS.174         	16.635         	4.407
MS.175         	16.602         	4.439
MS.176         	16.567         	4.349
MS.177         	16.535         	4.296
MS.178         	16.503         	4.284
MS.179         	16.47          	4.224
MS.180         	16.438         	4.26
MS.181         	16.405         	4.224
MS.182         	16.37          	4.193
MS.183         	16.337         	4.2
MS.184         	16.305         	4.022
MS.185         	16.272         	4.012
MS.186         	16.24          	3.988
MS.187         	16.208         	4.03
MS.188         	16.175         	4.123
MS.189         	16.142         	3.851
MS.190         	16.11          	3.885
MS.191         	16.08          	3.893
MS.192         	16.047         	3.96
MS.193         	16.015         	3.853
MS.194         	15.983         	3.891
MS.195         	15.95          	3.954
MS.196         	15.92          	3.771
MS.197         	15.887         	3.841
MS.198         	15.855         	3.801
MS.199         	15.825         	3.895
MS.200         	15.792         	3.819
MS.201         	15.76          	3.718
MS.202         	15.73          	3.632
MS.203         	15.697         	3.744
MS.204         	15.667         	3.69
MS.205         	15.635         	3.535
MS.206         	15.605         	3.65
MS.207         	15.572         	3.537
MS.208         	15.542         	3.565
MS.209         	15.51          	3.39
MS.210         	15.48          	3.561
MS.211         	15.447         	3.299
MS.212         	15.417         	3.277
MS.213         	15.387         	3.48
MS.214         	15.355         	3.295
MS.215         	15.325         	3.476
MS.216         	15.295         	3.273
MS.217         	15.265         	3.243
MS.218         	15.235         	3.227
MS.219         	15.202         	3.207
MS.220         	15.172         	3.299
MS.221         	15.142         	3.138
MS.222         	15.112         	3.057
MS.223         	15.082         	3.011
MS.224         	15.052         	3.023
MS.225         	15.023         	3.084
MS.226         	14.992         	2.927
MS.227         	14.962         	2.912
MS.228         	14.932         	2.961
MS.229         	14.902         	2.983
MS.230         	14.872         	2.876
MS.231         	14.842         	2.933
MS.232         	14.812         	2.838
MS.233         	14.782         	2.717
MS.234         	14.755         	2.888
MS.235         	14.725         	2.653
MS.236         	14.695         	2.651
MS.237         	14.665         	2.731
MS.238         	14.637         	2.594
MS.239         	14.608         	2.534
MS.240         	14.577         	2.342
MS.241         	14.55          	2.485
MS.242         	14.52          	2.606
MS.243         	14.49          	2.395
MS.244         	14.462         	2.385
MS.245         	14.432         	2.328
MS.246         	14.405         	2.483
MS.247         	14.375         	2.25
MS.248         	14.347         	2.375
MS.249         	14.318         	2.365
MS.250         	14.29          	2.326
MS.251         	14.26          	2.296
MS.252         	14.233         	2.22
MS.253         	14.205         	2.308
MS.254         	14.175         	2.167
MS.255         	14.148         	2.065
MS.256         	14.12          	2.199
MS.257         	14.09          	2.145
MS.258         	14.062         	2.214
MS.259         	14.035         	2.085
MS.260         	14.007         	2.052
MS.261         	13.977         	2.04
MS.262         	13.95          	2.036
MS.263         	13.922         	1.986
MS.264         	13.895         	1.883
MS.265         	13.867         	1.893
MS.266         	13.84          	1.899
MS.267         	13.812         	1.789
MS.268         	13.785         	1.851
MS.269         	13.757         	1.879
MS.270         	13.73          	1.815
MS.271         	13.702         	1.801
MS.272         	13.675         	1.74
MS.273         	13.648         	1.795
MS.274         	13.62          	1.76
MS.275         	13.592         	1.853
MS.276         	13.565         	1.686
MS.277         	13.537         	1.609
MS.278         	13.51          	1.75
MS.279         	13.485         	1.623
MS.280         	13.457         	1.648
MS.281         	13.43          	1.734
MS.282         	13.403         	1.587
MS.283         	13.377         	1.633
MS.284         	13.35          	1.595
MS.285         	13.322         	1.543
MS.286         	13.297         	1.529
MS.287         	13.27          	1.458
MS.288         	13.242         	1.499
MS.289         	13.217         	1.488
MS.290         	13.19          	1.36
MS.291         	13.165         	1.396
MS.292         	13.137         	1.339
MS.293         	13.112         	1.448
MS.294         	13.085         	1.275
MS.295         	13.06          	1.112
MS.296         	13.032         	1.249
MS.297         	13.007         	1.164
MS.298         	12.983         	1.1
MS.299         	12.955         	1.041
MS.300         	12.93          	1.092
MS.301         	12.903         	1.011
MS.302         	12.877         	1.017
MS.303         	12.852         	0.995
MS.304         	12.827         	0.995
MS.305         	12.8           	1.007
MS.306         	12.775         	0.991
MS.307         	12.75          	0.842
MS.308         	12.725         	0.896
MS.309         	12.7           	0.963
MS.310         	12.672         	0.856
MS.311         	12.648         	0.854
MS.312         	12.622         	0.886
MS.313         	12.597         	0.792
MS.314         	12.572         	0.753
MS.315         	12.547         	0.892
MS.316         	12.523         	0.715
MS.317         	12.497         	0.796
MS.318         	12.472         	0.699
MS.319         	12.447         	0.725
MS.320         	12.422         	0.653
MS.321         	12.398         	0.651
MS.322         	12.372         	0.725
MS.323         	12.347         	0.707
MS.324         	12.322         	0.63
MS.325         	12.3           	0.622
MS.326         	12.275         	0.645
MS.327         	12.25          	0.622
MS.328         	12.225         	0.647
MS.329         	12.2           	0.584
MS.330         	12.177         	0.552
MS.331         	12.153         	0.538
MS.332         	12.127         	0.558
MS.333         	12.102         	0.582
MS.334         	12.08          	0.564
MS.335         	12.055         	0.582
MS.336         	12.032         	0.524
MS.337         	12.007         	0.554
MS.338         	11.983         	0.495
MS.339         	11.96          	0.443
MS.340         	11.935         	0.423
MS.341         	11.912         	0.489
MS.342         	11.887         	0.451
MS.343         	11.865         	0.421
MS.344         	11.84          	0.427
MS.345         	11.818         	0.413
MS.346         	11.792         	0.439
MS.347         	11.77          	0.405
MS.348         	11.745         	0.357
MS.349         	11.722         	0.385
MS.350         	11.7           	0.421
MS.351         	11.675         	0.371
MS.352         	11.653         	0.322
MS.353         	11.63          	0.381
MS.354         	11.605         	0.352
MS.355         	11.582         	0.387
MS.356         	11.56          	0.377
MS.357         	11.537         	0.328
MS.358         	11.512         	0.342
MS.359         	11.49          	0.34
MS.360         	11.467         	0.375
MS.361         	11.445         	0.357
MS.362         	11.422         	0.292
MS.363         	11.4           	0.3
MS.364         	11.375         	0.318
MS.365         	11.352         	0.268
MS.366         	11.33          	0.328
MS.367         	11.307         	0.318
MS.368         	11.285         	0.256
MS.369         	11.262         	0.302
MS.370         	11.24          	0.294
MS.371         	11.217         	0.292
MS.372         	11.195         	0.264
MS.373         	11.172         	0.312
MS.374         	11.15          	0.322
MS.375         	11.127         	0.133
MS.376         	11.108         	0.262
MS.377         	11.085         	0.236
MS.378         	11.062         	0.141
MS.379         	11.04          	0.31
MS.380         	11.017         	0.244
MS.381         	10.995         	0.191
MS.382         	10.975         	0.131
MS.383         	10.952         	0.256
MS.384         	10.93          	0.113
MS.385         	10.907         	0.173
MS.386         	10.887         	0.109
MS.387         	10.865         	0.199
MS.388         	10.842         	0.199
MS.389         	10.823         	0.171
MS.390         	10.8           	0.199
MS.391         	10.778         	0.099
MS.392         	10.757         	0.099
MS.393         	10.735         	0.145
MS.394         	10.712         	0.125
MS.395         	10.693         	0.095
MS.396         	10.67          	0.139
MS.397         	10.65          	0.101
MS.398         	10.627         	0.129
MS.399         	10.608         	0.179
MS.400         	10.585         	0.093
MS.401         	10.565         	0.195
MS.402         	10.542         	0.119
MS.403         	10.523         	0.145
MS.404         	10.502         	0.121
MS.405         	10.48          	0.097
MS.406         	10.46          	0.113
MS.407         	10.438         	0.129
MS.408         	10.417         	0.185
MS.409         	10.398         	0.089
MS.410         	10.375         	0.125
MS.411         	10.355         	0.115
MS.412         	10.335         	0.123
MS.413         	10.315         	0.107
MS.414         	10.292         	0.115
MS.415         	10.273         	0.085
MS.416         	10.252         	0.117
MS.417         	10.233         	0.113
MS.418         	10.212         	0.113
MS.419         	10.19          	0.139
MS.420         	10.17          	0.111
MS.421         	10.15          	0.123
MS.422         	10.13          	0.115
MS.423         	10.11          	0.097
MS.424         	10.09          	0.119
MS.425         	10.07          	0.129
MS.426         	10.05          	0.117
MS.427         	10.03          	0.103
MS.428         	10.01          	0.123
MS.429         	9.99           	0.117
MS.430         	9.97           	0.113
MS.431         	9.95           	0.123
MS.432         	9.93           	0.117
MS.433         	9.91           	0.117
MS.434         	9.89           	0.101
MS.435         	9.87           	0.095
MS.436         	9.85           	0.117
MS.437         	9.83           	0.121
MS.438         	9.81           	0.073
MS.439         	9.792          	0.075
MS.440         	9.773          	0.085
MS.441         	9.752          	0.103
MS.442         	9.733          	0.087
MS.443         	9.712          	0.081
MS.444         	9.695          	0.058
MS.445         	9.675          	0.099
MS.446         	9.655          	0.099
MS.447         	9.635          	0.101
MS.448         	9.617          	0.056
MS.449         	9.597          	0.052
MS.450         	9.577          	0.085
MS.451         	9.56           	0.077
MS.452         	9.54           	0.091
MS.453         	9.52           	0.085
MS.454         	9.502          	0.054
MS.455         	9.483          	0.073
MS.456         	9.465          	0.085
MS.457         	9.445          	0.042
MS.458         	9.427          	0.064
MS.459         	9.407          	0.054
MS.460         	9.39           	0.087
MS.461         	9.37           	0.07
MS.462         	9.352          	0.083
MS.463         	9.332          	0.064
MS.464         	9.315          	0.044
MS.465         	9.295          	0.054
MS.466         	9.278          	0.058
MS.467         	9.257          	0.056
MS.468         	9.24           	0.05
MS.469         	9.222          	0.054
MS.470         	9.202          	0.06
MS.471         	9.185          	0.056
MS.472         	9.165          	0.046
MS.473         	9.148          	0.077
MS.474         	9.13           	0.046
MS.475         	9.113          	0.04
MS.476         	9.092          	0.038
MS.477         	9.075          	0.06
MS.478         	9.057          	0.042
MS.479         	9.037          	0.048
MS.480         	9.02           	0.046
MS.481         	9.002          	0.036
MS.482         	8.985          	0.04
MS.483         	8.967          	0.048
MS.484         	8.95           	0.042
MS.485         	8.93           	0.048
MS.486         	8.912          	0.038
MS.487         	8.895          	0.042
MS.488         	8.877          	0.04
MS.489         	8.86           	0.042
MS.490         	8.842          	0.052
MS.491         	8.825          	0.038
MS.492         	8.807          	0.04
MS.493         	8.79           	0.042
MS.494         	8.773          	0.038
MS.495         	8.755          	0.048
MS.496         	8.738          	0.046
MS.497         	8.72           	0.044
MS.498         	8.702          	0.038
MS.499         	8.685          	0.042
MS.500         	8.667          	0.042
