File:              	C:\Qtrac\Data\Daniel M Sørensen\MScan multicentre study\Data from centres\Oxford\Raw data (sorted for use)\ATC01207F.QZD
Name:              	UK.OXF.NC.3.1
Protocol:          	MSCAN-R2
Date:              	7/12/20
Start time:        	14:08:58
Age:               	45
Sex:               	F
Temperature:       	33.3
S/R sites:         	APB
NC/disease:        	NC
Operator:          	AT
Comments:          	Median N 1st trial
M-SCAN DATA (7.7-1.5m)
Scanpts: 230, 238, 647, 668
Stim. (mA)     	Amp. (mV)
MS.1           	17.5           	3.839
MS.2           	17.5           	3.847
MS.3           	17.5           	3.752
MS.4           	17.5           	3.843
MS.5           	17.5           	3.899
MS.6           	17.5           	3.835
MS.7           	17.5           	3.817
MS.8           	17.5           	3.815
MS.9           	17.5           	3.805
MS.10          	17.5           	3.821
MS.11          	17.5           	3.535
MS.12          	17.5           	3.839
MS.13          	17.5           	3.962
MS.14          	17.5           	3.914
MS.15          	17.5           	3.887
MS.16          	17.5           	3.928
MS.17          	17.5           	3.909
MS.18          	17.5           	3.893
MS.19          	17.5           	3.795
MS.20          	17.5           	3.827
MS.21          	17.5           	3.885
MS.22          	17.5           	3.666
MS.23          	17.5           	3.841
MS.24          	17.43          	3.762
MS.25          	17.395         	3.853
MS.26          	17.36          	3.72
MS.27          	17.325         	3.785
MS.28          	17.29          	3.972
MS.29          	17.257         	3.968
MS.30          	17.222         	3.881
MS.31          	17.188         	3.827
MS.32          	17.153         	3.752
MS.33          	17.12          	3.696
MS.34          	17.085         	3.672
MS.35          	17.05          	3.807
MS.36          	17.017         	3.875
MS.37          	16.983         	3.845
MS.38          	16.95          	3.807
MS.39          	16.915         	3.793
MS.40          	16.88          	3.67
MS.41          	16.847         	3.694
MS.42          	16.812         	3.865
MS.43          	16.78          	3.883
MS.44          	16.747         	3.835
MS.45          	16.712         	3.857
MS.46          	16.68          	3.805
MS.47          	16.647         	3.768
MS.48          	16.612         	3.764
MS.49          	16.58          	3.752
MS.50          	16.547         	3.738
MS.51          	16.515         	3.682
MS.52          	16.48          	3.682
MS.53          	16.448         	3.583
MS.54          	16.415         	3.956
MS.55          	16.382         	3.859
MS.56          	16.35          	3.74
MS.57          	16.317         	3.694
MS.58          	16.285         	3.734
MS.59          	16.253         	3.752
MS.60          	16.22          	3.785
MS.61          	16.188         	3.736
MS.62          	16.155         	3.7
MS.63          	16.122         	3.571
MS.64          	16.09          	3.744
MS.65          	16.057         	3.738
MS.66          	16.025         	3.718
MS.67          	15.992         	3.708
MS.68          	15.962         	3.67
MS.69          	15.93          	3.666
MS.70          	15.898         	3.686
MS.71          	15.867         	3.672
MS.72          	15.835         	3.706
MS.73          	15.802         	3.541
MS.74          	15.773         	3.585
MS.75          	15.74          	3.694
MS.76          	15.707         	3.692
MS.77          	15.677         	3.686
MS.78          	15.645         	3.676
MS.79          	15.615         	3.682
MS.80          	15.582         	3.714
MS.81          	15.552         	3.662
MS.82          	15.52          	3.549
MS.83          	15.49          	3.654
MS.84          	15.46          	3.724
MS.85          	15.427         	3.7
MS.86          	15.398         	3.775
MS.87          	15.367         	3.64
MS.88          	15.335         	3.664
MS.89          	15.305         	3.66
MS.90          	15.275         	3.638
MS.91          	15.245         	3.708
MS.92          	15.212         	3.66
MS.93          	15.182         	3.593
MS.94          	15.152         	3.573
MS.95          	15.122         	3.738
MS.96          	15.092         	3.783
MS.97          	15.062         	3.744
MS.98          	15.032         	3.766
MS.99          	15.002         	3.466
MS.100         	14.972         	3.881
MS.101         	14.943         	3.777
MS.102         	14.912         	3.704
MS.103         	14.882         	3.724
MS.104         	14.852         	3.718
MS.105         	14.822         	3.734
MS.106         	14.792         	3.726
MS.107         	14.765         	3.756
MS.108         	14.735         	3.7
MS.109         	14.705         	3.7
MS.110         	14.675         	3.698
MS.111         	14.648         	3.694
MS.112         	14.617         	3.696
MS.113         	14.587         	3.724
MS.114         	14.56          	3.702
MS.115         	14.53          	3.756
MS.116         	14.5           	3.517
MS.117         	14.472         	3.68
MS.118         	14.443         	3.857
MS.119         	14.415         	3.825
MS.120         	14.385         	3.785
MS.121         	14.358         	3.779
MS.122         	14.327         	3.771
MS.123         	14.3           	3.752
MS.124         	14.27          	3.726
MS.125         	14.242         	3.752
MS.126         	14.212         	3.666
MS.127         	14.185         	3.69
MS.128         	14.157         	3.452
MS.129         	14.127         	3.922
MS.130         	14.1           	3.855
MS.131         	14.072         	3.797
MS.132         	14.045         	3.75
MS.133         	14.015         	3.732
MS.134         	13.987         	3.722
MS.135         	13.96          	3.766
MS.136         	13.932         	3.756
MS.137         	13.905         	3.718
MS.138         	13.877         	3.72
MS.139         	13.85          	3.704
MS.140         	13.82          	3.684
MS.141         	13.792         	3.716
MS.142         	13.765         	3.738
MS.143         	13.737         	3.69
MS.144         	13.71          	3.676
MS.145         	13.682         	3.722
MS.146         	13.655         	3.722
MS.147         	13.63          	3.718
MS.148         	13.602         	3.738
MS.149         	13.575         	3.696
MS.150         	13.547         	3.684
MS.151         	13.52          	3.71
MS.152         	13.492         	3.688
MS.153         	13.467         	3.694
MS.154         	13.44          	3.686
MS.155         	13.412         	3.67
MS.156         	13.385         	3.686
MS.157         	13.36          	3.686
MS.158         	13.332         	3.674
MS.159         	13.305         	3.684
MS.160         	13.28          	3.766
MS.161         	13.252         	3.68
MS.162         	13.225         	3.708
MS.163         	13.2           	3.682
MS.164         	13.172         	3.696
MS.165         	13.148         	3.656
MS.166         	13.12          	3.69
MS.167         	13.095         	3.491
MS.168         	13.068         	3.505
MS.169         	13.042         	3.843
MS.170         	13.015         	3.781
MS.171         	12.99          	3.821
MS.172         	12.965         	3.851
MS.173         	12.938         	3.791
MS.174         	12.912         	3.771
MS.175         	12.887         	3.722
MS.176         	12.86          	3.736
MS.177         	12.835         	3.692
MS.178         	12.81          	3.704
MS.179         	12.785         	3.69
MS.180         	12.757         	3.632
MS.181         	12.733         	3.634
MS.182         	12.707         	3.742
MS.183         	12.682         	3.71
MS.184         	12.657         	3.698
MS.185         	12.632         	3.682
MS.186         	12.608         	3.676
MS.187         	12.58          	3.694
MS.188         	12.555         	3.704
MS.189         	12.53          	3.676
MS.190         	12.505         	3.73
MS.191         	12.48          	3.732
MS.192         	12.455         	3.686
MS.193         	12.43          	3.597
MS.194         	12.405         	3.575
MS.195         	12.382         	3.736
MS.196         	12.358         	3.662
MS.197         	12.332         	3.71
MS.198         	12.307         	3.825
MS.199         	12.282         	3.771
MS.200         	12.257         	3.819
MS.201         	12.233         	3.73
MS.202         	12.21          	3.716
MS.203         	12.185         	3.696
MS.204         	12.16          	3.652
MS.205         	12.135         	3.708
MS.206         	12.113         	3.672
MS.207         	12.087         	3.67
MS.208         	12.062         	3.666
MS.209         	12.04          	3.662
MS.210         	12.015         	3.716
MS.211         	11.992         	3.684
MS.212         	11.967         	3.67
MS.213         	11.943         	3.674
MS.214         	11.92          	3.634
MS.215         	11.895         	3.611
MS.216         	11.872         	3.674
MS.217         	11.847         	3.791
MS.218         	11.825         	3.775
MS.219         	11.8           	3.744
MS.220         	11.778         	3.724
MS.221         	11.755         	3.698
MS.222         	11.73          	3.698
MS.223         	11.707         	3.654
MS.224         	11.682         	3.732
MS.225         	11.66          	3.718
MS.226         	11.637         	3.68
MS.227         	11.615         	3.72
MS.228         	11.59          	3.702
MS.229         	11.568         	3.708
MS.230         	11.545         	3.72
MS.231         	11.523         	3.708
MS.232         	11.497         	3.712
MS.233         	11.475         	3.712
MS.234         	11.452         	3.696
MS.235         	11.43          	3.682
MS.236         	11.407         	3.682
MS.237         	11.385         	3.686
MS.238         	11.36          	3.718
MS.239         	11.337         	3.708
MS.240         	11.315         	3.706
MS.241         	11.292         	3.734
MS.242         	11.27          	3.718
MS.243         	11.247         	3.688
MS.244         	11.225         	3.714
MS.245         	11.202         	3.65
MS.246         	11.18          	3.69
MS.247         	11.157         	3.722
MS.248         	11.135         	3.752
MS.249         	11.115         	3.718
MS.250         	11.092         	3.73
MS.251         	11.07          	3.738
MS.252         	11.047         	3.71
MS.253         	11.025         	3.619
MS.254         	11.002         	3.678
MS.255         	10.983         	3.799
MS.256         	10.96          	3.783
MS.257         	10.938         	3.773
MS.258         	10.915         	3.728
MS.259         	10.895         	3.712
MS.260         	10.872         	3.724
MS.261         	10.85          	3.734
MS.262         	10.827         	3.742
MS.263         	10.807         	3.698
MS.264         	10.785         	3.732
MS.265         	10.765         	3.7
MS.266         	10.742         	3.712
MS.267         	10.72          	3.696
MS.268         	10.7           	3.676
MS.269         	10.677         	3.714
MS.270         	10.657         	3.73
MS.271         	10.635         	3.7
MS.272         	10.615         	3.7
MS.273         	10.592         	3.684
MS.274         	10.573         	3.688
MS.275         	10.55          	3.708
MS.276         	10.53          	3.69
MS.277         	10.507         	3.464
MS.278         	10.488         	3.67
MS.279         	10.467         	3.845
MS.280         	10.445         	3.859
MS.281         	10.425         	3.773
MS.282         	10.405         	3.744
MS.283         	10.382         	3.758
MS.284         	10.363         	3.698
MS.285         	10.342         	3.712
MS.286         	10.32          	3.724
MS.287         	10.3           	3.702
MS.288         	10.28          	3.708
MS.289         	10.26          	3.7
MS.290         	10.24          	3.692
MS.291         	10.217         	3.71
MS.292         	10.198         	3.704
MS.293         	10.177         	3.696
MS.294         	10.157         	3.714
MS.295         	10.137         	3.593
MS.296         	10.117         	3.722
MS.297         	10.097         	3.841
MS.298         	10.077         	3.809
MS.299         	10.057         	3.766
MS.300         	10.035         	3.734
MS.301         	10.015         	3.744
MS.302         	9.995          	3.718
MS.303         	9.975          	3.71
MS.304         	9.955          	3.71
MS.305         	9.938          	3.73
MS.306         	9.917          	3.702
MS.307         	9.898          	3.75
MS.308         	9.877          	3.777
MS.309         	9.858          	3.736
MS.310         	9.837          	3.771
MS.311         	9.818          	3.644
MS.312         	9.797          	3.692
MS.313         	9.778          	3.75
MS.314         	9.76           	3.766
MS.315         	9.74           	3.881
MS.316         	9.72           	3.811
MS.317         	9.7            	3.766
MS.318         	9.682          	3.694
MS.319         	9.662          	3.688
MS.320         	9.642          	3.708
MS.321         	9.622          	3.764
MS.322         	9.605          	3.773
MS.323         	9.585          	3.728
MS.324         	9.565          	3.744
MS.325         	9.547          	3.768
MS.326         	9.528          	3.712
MS.327         	9.507          	3.728
MS.328         	9.49           	3.531
MS.329         	9.47           	3.764
MS.330         	9.452          	3.762
MS.331         	9.432          	3.738
MS.332         	9.415          	3.837
MS.333         	9.395          	3.853
MS.334         	9.377          	3.805
MS.335         	9.358          	3.76
MS.336         	9.34           	3.718
MS.337         	9.32           	3.724
MS.338         	9.302          	3.716
MS.339         	9.283          	3.728
MS.340         	9.265          	3.684
MS.341         	9.245          	3.734
MS.342         	9.227          	3.712
MS.343         	9.21           	3.758
MS.344         	9.19           	3.702
MS.345         	9.172          	3.738
MS.346         	9.155          	3.734
MS.347         	9.135          	3.682
MS.348         	9.117          	3.593
MS.349         	9.1            	3.646
MS.350         	9.08           	3.748
MS.351         	9.062          	3.789
MS.352         	9.045          	3.74
MS.353         	9.028          	3.696
MS.354         	9.01           	3.573
MS.355         	8.99           	3.692
MS.356         	8.972          	3.619
MS.357         	8.955          	3.634
MS.358         	8.938          	3.684
MS.359         	8.92           	3.69
MS.360         	8.903          	3.686
MS.361         	8.882          	3.672
MS.362         	8.865          	3.553
MS.363         	8.847          	3.537
MS.364         	8.83           	3.521
MS.365         	8.812          	3.501
MS.366         	8.795          	3.505
MS.367         	8.778          	3.505
MS.368         	8.76           	3.452
MS.369         	8.742          	3.44
MS.370         	8.725          	3.515
MS.371         	8.707          	3.414
MS.372         	8.69           	3.507
MS.373         	8.672          	3.366
MS.374         	8.655          	3.396
MS.375         	8.637          	3.478
MS.376         	8.62           	3.535
MS.377         	8.602          	3.48
MS.378         	8.587          	3.432
MS.379         	8.57           	3.376
MS.380         	8.535          	3.388
MS.381         	8.517          	3.4
MS.382         	8.5            	3.392
MS.383         	8.485          	3.392
MS.384         	8.467          	3.384
MS.385         	8.45           	3.428
MS.386         	8.432          	3.408
MS.387         	8.417          	3.412
MS.388         	8.4            	3.309
MS.389         	8.382          	3.388
MS.390         	8.365          	3.388
MS.391         	8.35           	3.374
MS.392         	8.332          	3.35
MS.393         	8.315          	3.344
MS.394         	8.3            	3.364
MS.395         	8.283          	3.352
MS.396         	8.267          	3.366
MS.397         	8.25           	3.295
MS.398         	8.233          	3.4
MS.399         	8.217          	3.255
MS.400         	8.2            	3.114
MS.401         	8.185          	3.166
MS.402         	8.167          	3.096
MS.403         	8.153          	3.331
MS.404         	8.135          	3.118
MS.405         	8.12           	3.152
MS.406         	8.102          	3.207
MS.407         	8.087          	3.043
MS.408         	8.07           	3.166
MS.409         	8.055          	3.156
MS.410         	8.037          	2.85
MS.411         	8.023          	2.951
MS.412         	8.005          	3.055
MS.413         	7.99           	2.945
MS.414         	7.975          	2.925
MS.415         	7.957          	3.037
MS.416         	7.942          	3.124
MS.417         	7.927          	3.011
MS.418         	7.91           	2.84
MS.419         	7.895          	2.957
MS.420         	7.88           	2.929
MS.421         	7.862          	2.741
MS.422         	7.847          	2.776
MS.423         	7.832          	2.512
MS.424         	7.815          	2.707
MS.425         	7.8            	2.506
MS.426         	7.785          	2.753
MS.427         	7.77           	2.751
MS.428         	7.755          	2.824
MS.429         	7.737          	2.346
MS.430         	7.722          	2.459
MS.431         	7.707          	2.355
MS.432         	7.692          	2.578
MS.433         	7.677          	2.53
MS.434         	7.662          	2.498
MS.435         	7.645          	2.369
MS.436         	7.63           	2.365
MS.437         	7.615          	2.477
MS.438         	7.6            	2.208
MS.439         	7.585          	2.234
MS.440         	7.57           	2.224
MS.441         	7.555          	2.143
MS.442         	7.54           	2.236
MS.443         	7.525          	2.056
MS.444         	7.51           	2.26
MS.445         	7.495          	2.254
MS.446         	7.48           	2.065
MS.447         	7.465          	2.075
MS.448         	7.45           	2.054
MS.449         	7.435          	2.119
MS.450         	7.42           	2.002
MS.451         	7.405          	1.964
MS.452         	7.39           	1.865
MS.453         	7.375          	1.968
MS.454         	7.36           	1.873
MS.455         	7.347          	1.766
MS.456         	7.332          	1.867
MS.457         	7.317          	2.038
MS.458         	7.302          	1.831
MS.459         	7.287          	1.919
MS.460         	7.273          	2.008
MS.461         	7.257          	1.676
MS.462         	7.245          	1.807
MS.463         	7.23           	1.67
MS.464         	7.215          	1.825
MS.465         	7.2            	1.712
MS.466         	7.188          	1.7
MS.467         	7.172          	1.783
MS.468         	7.157          	1.543
MS.469         	7.142          	1.704
MS.470         	7.13           	1.412
MS.471         	7.115          	1.386
MS.472         	7.1            	1.331
MS.473         	7.087          	1.378
MS.474         	7.072          	1.394
MS.475         	7.057          	1.152
MS.476         	7.045          	1.261
MS.477         	7.03           	1.36
MS.478         	7.015          	1.146
MS.479         	7.003          	1.132
MS.480         	6.987          	1.194
MS.481         	6.975          	1.14
MS.482         	6.96           	0.826
MS.483         	6.945          	0.92
MS.484         	6.932          	1.047
MS.485         	6.918          	0.852
MS.486         	6.905          	1.118
MS.487         	6.89           	0.84
MS.488         	6.878          	0.806
MS.489         	6.862          	1.076
MS.490         	6.85           	0.804
MS.491         	6.835          	0.761
MS.492         	6.822          	0.786
MS.493         	6.807          	0.773
MS.494         	6.795          	0.54
MS.495         	6.782          	0.526
MS.496         	6.767          	0.445
MS.497         	6.755          	0.544
MS.498         	6.74           	0.504
MS.499         	6.727          	0.526
MS.500         	6.715          	0.554
MS.501         	6.7            	0.53
