File:              	C:\Qtrac\Data\Daniel M Sørensen\MScan multicentre study\Data from centres\Oxford\Processed data\ATC01214G.QZD
Name:              	UK.OXF.NC.3.2
Protocol:          	MSCAN-R2
Date:              	14/12/20
Start time:        	14:04:52
Age:               	45
Sex:               	F
Temperature:       	35.2
S/R sites:         	APB
NC/disease:        	NC
Operator:          	AT
Comments:          	Median N ABP 2nd
M-SCAN DATA (Repeat 1/2, 6.1-1.5m)
Scanpts: 72, 79, 478, 499
Stim. (mA)     	Amp. (mV)
MS.1           	12.5           	4.661
MS.2           	12.5           	4.681
MS.3           	12.5           	4.671
MS.4           	12.5           	4.61
MS.5           	12.5           	4.612
MS.6           	12.5           	4.635
MS.7           	12.5           	4.663
MS.8           	12.5           	4.59
MS.9           	12.5           	4.592
MS.10          	12.5           	4.562
MS.11          	12.5           	5.06
MS.12          	12.5           	4.534
MS.13          	12.5           	4.475
MS.14          	12.5           	4.542
MS.15          	12.5           	4.641
MS.16          	12.5           	4.635
MS.17          	12.5           	4.622
MS.18          	12.5           	4.604
MS.19          	12.5           	4.614
MS.20          	12.5           	4.604
MS.21          	12.5           	4.586
MS.22          	12.5           	4.598
MS.23          	12.5           	4.703
MS.24          	12.45          	4.59
MS.25          	12.425         	4.594
MS.26          	12.4           	4.643
MS.27          	12.375         	4.681
MS.28          	12.35          	4.618
MS.29          	12.325         	4.586
MS.30          	12.302         	4.633
MS.31          	12.278         	4.625
MS.32          	12.252         	4.695
MS.33          	12.227         	4.594
MS.34          	12.202         	4.59
MS.35          	12.18          	4.669
MS.36          	12.155         	4.612
MS.37          	12.13          	4.602
MS.38          	12.108         	4.614
MS.39          	12.082         	4.622
MS.40          	12.057         	4.62
MS.41          	12.035         	4.59
MS.42          	12.01          	4.627
MS.43          	11.985         	4.614
MS.44          	11.962         	4.602
MS.45          	11.938         	4.578
MS.46          	11.915         	4.59
MS.47          	11.89          	4.622
MS.48          	11.867         	4.578
MS.49          	11.842         	4.554
MS.50          	11.82          	4.59
MS.51          	11.795         	4.578
MS.52          	11.773         	4.55
MS.53          	11.747         	4.536
MS.54          	11.725         	4.562
MS.55          	11.702         	4.614
MS.56          	11.677         	4.59
MS.57          	11.655         	4.522
MS.58          	11.632         	4.584
MS.59          	11.608         	4.618
MS.60          	11.585         	4.588
MS.61          	11.562         	4.568
MS.62          	11.54          	4.59
MS.63          	11.515         	4.542
MS.64          	11.492         	4.552
MS.65          	11.47          	4.506
MS.66          	11.447         	4.528
MS.67          	11.425         	4.542
MS.68          	11.403         	4.52
MS.69          	11.377         	4.492
MS.70          	11.355         	4.532
MS.71          	11.332         	4.506
MS.72          	11.31          	4.526
MS.73          	11.287         	4.552
MS.74          	11.265         	4.562
MS.75          	11.242         	4.526
MS.76          	11.22          	4.552
MS.77          	11.197         	4.538
MS.78          	11.175         	4.558
MS.79          	11.153         	4.58
MS.80          	11.13          	4.479
MS.81          	11.108         	4.471
MS.82          	11.087         	4.55
MS.83          	11.065         	4.516
MS.84          	11.042         	4.53
MS.85          	11.02          	4.498
MS.86          	10.997         	4.54
MS.87          	10.975         	4.52
MS.88          	10.955         	4.508
MS.89          	10.932         	4.496
MS.90          	10.91          	4.502
MS.91          	10.887         	4.504
MS.92          	10.867         	4.53
MS.93          	10.845         	4.496
MS.94          	10.823         	4.556
MS.95          	10.802         	4.532
MS.96          	10.78          	4.49
MS.97          	10.76          	4.534
MS.98          	10.738         	4.516
MS.99          	10.715         	4.492
MS.100         	10.695         	4.512
MS.101         	10.672         	4.506
MS.102         	10.653         	4.53
MS.103         	10.63          	4.465
MS.104         	10.61          	4.51
MS.105         	10.587         	4.484
MS.106         	10.568         	4.477
MS.107         	10.545         	4.447
MS.108         	10.525         	4.5
MS.109         	10.502         	4.506
MS.110         	10.483         	4.486
MS.111         	10.462         	4.463
MS.112         	10.44          	4.441
MS.113         	10.42          	4.463
MS.114         	10.4           	4.484
MS.115         	10.377         	4.419
MS.116         	10.358         	4.465
MS.117         	10.337         	4.502
MS.118         	10.318         	4.526
MS.119         	10.295         	4.534
MS.120         	10.275         	4.572
MS.121         	10.255         	4.534
MS.122         	10.235         	4.532
MS.123         	10.212         	4.467
MS.124         	10.193         	4.469
MS.125         	10.172         	4.465
MS.126         	10.153         	4.528
MS.127         	10.132         	4.492
MS.128         	10.113         	4.763
MS.129         	10.092         	4.502
MS.130         	10.073         	4.5
MS.131         	10.052         	4.596
MS.132         	10.032         	4.59
MS.133         	10.012         	4.576
MS.134         	9.992          	4.58
MS.135         	9.972          	4.572
MS.136         	9.952          	4.508
MS.137         	9.932          	4.516
MS.138         	9.912          	4.514
MS.139         	9.892          	4.522
MS.140         	9.872          	4.488
MS.141         	9.852          	4.508
MS.142         	9.832          	4.512
MS.143         	9.812          	4.52
MS.144         	9.792          	4.488
MS.145         	9.775          	4.417
MS.146         	9.755          	4.469
MS.147         	9.735          	4.459
MS.148         	9.715          	4.494
MS.149         	9.695          	4.486
MS.150         	9.677          	4.427
MS.151         	9.657          	4.441
MS.152         	9.637          	4.381
MS.153         	9.62           	4.437
MS.154         	9.6            	4.447
MS.155         	9.58           	4.457
MS.156         	9.562          	4.463
MS.157         	9.542          	4.403
MS.158         	9.523          	4.411
MS.159         	9.505          	4.425
MS.160         	9.485          	4.397
MS.161         	9.465          	4.461
MS.162         	9.448          	4.439
MS.163         	9.427          	4.393
MS.164         	9.41           	4.403
MS.165         	9.39           	4.538
MS.166         	9.372          	4.409
MS.167         	9.352          	4.405
MS.168         	9.335          	4.304
MS.169         	9.315          	4.443
MS.170         	9.297          	4.508
MS.171         	9.278          	4.488
MS.172         	9.26           	4.469
MS.173         	9.242          	4.469
MS.174         	9.222          	4.435
MS.175         	9.205          	4.453
MS.176         	9.188          	4.437
MS.177         	9.167          	4.415
MS.178         	9.15           	4.427
MS.179         	9.132          	4.379
MS.180         	9.113          	4.554
MS.181         	9.095          	4.719
MS.182         	9.077          	4.625
MS.183         	9.057          	4.455
MS.184         	9.04           	4.502
MS.185         	9.023          	4.552
MS.186         	9.005          	4.504
MS.187         	8.988          	4.526
MS.188         	8.967          	4.54
MS.189         	8.95           	4.512
MS.190         	8.932          	4.471
MS.191         	8.915          	4.467
MS.192         	8.898          	4.536
MS.193         	8.88           	4.54
MS.194         	8.863          	4.5
MS.195         	8.845          	4.457
MS.196         	8.825          	4.447
MS.197         	8.807          	4.482
MS.198         	8.79           	4.53
MS.199         	8.773          	4.443
MS.200         	8.755          	4.53
MS.201         	8.738          	4.451
MS.202         	8.72           	4.443
MS.203         	8.702          	4.417
MS.204         	8.685          	4.482
MS.205         	8.67           	4.518
MS.206         	8.653          	4.526
MS.207         	8.635          	4.451
MS.208         	8.617          	4.437
MS.209         	8.6            	4.447
MS.210         	8.582          	4.455
MS.211         	8.565          	4.403
MS.212         	8.547          	4.419
MS.213         	8.53           	4.375
MS.214         	8.515          	4.417
MS.215         	8.497          	4.403
MS.216         	8.48           	4.401
MS.217         	8.462          	4.413
MS.218         	8.448          	4.389
MS.219         	8.43           	4.441
MS.220         	8.412          	4.413
MS.221         	8.395          	4.375
MS.222         	8.38           	4.399
MS.223         	8.363          	4.399
MS.224         	8.345          	4.314
MS.225         	8.33           	4.328
MS.226         	8.312          	4.268
MS.227         	8.295          	4.363
MS.228         	8.28           	4.359
MS.229         	8.262          	4.373
MS.230         	8.245          	4.314
MS.231         	8.23           	4.377
MS.232         	8.212          	4.385
MS.233         	8.198          	4.326
MS.234         	8.18           	4.387
MS.235         	8.165          	4.401
MS.236         	8.148          	4.427
MS.237         	8.132          	4.367
MS.238         	8.115          	4.308
MS.239         	8.1            	4.343
MS.240         	8.082          	4.336
MS.241         	8.068          	4.268
MS.242         	8.05           	4.294
MS.243         	8.035          	4.304
MS.244         	8.017          	4.276
MS.245         	8.002          	4.274
MS.246         	7.987          	4.24
MS.247         	7.97           	4.246
MS.248         	7.955          	4.23
MS.249         	7.938          	4.268
MS.250         	7.922          	4.216
MS.251         	7.907          	4.248
MS.252         	7.89           	4.208
MS.253         	7.875          	4.21
MS.254         	7.86           	4.173
MS.255         	7.845          	4.157
MS.256         	7.827          	4.131
MS.257         	7.812          	4.055
MS.258         	7.797          	4.175
MS.259         	7.782          	4.173
MS.260         	7.765          	4.101
MS.261         	7.75           	4.49
MS.262         	7.735          	4.155
MS.263         	7.72           	4.077
MS.264         	7.705          	4.254
MS.265         	7.688          	4.2
MS.266         	7.672          	4.28
MS.267         	7.657          	4.057
MS.268         	7.642          	4.3
MS.269         	7.628          	4.129
MS.270         	7.612          	3.94
MS.271         	7.597          	4.032
MS.272         	7.582          	4.185
MS.273         	7.567          	4.212
MS.274         	7.552          	4.04
MS.275         	7.535          	4.018
MS.276         	7.52           	4.081
MS.277         	7.505          	4.032
MS.278         	7.49           	4.038
MS.279         	7.475          	3.986
MS.280         	7.462          	3.946
MS.281         	7.447          	3.92
MS.282         	7.432          	3.958
MS.283         	7.418          	3.954
MS.284         	7.402          	3.954
MS.285         	7.387          	3.98
MS.286         	7.372          	3.841
MS.287         	7.357          	3.855
MS.288         	7.342          	3.916
MS.289         	7.327          	3.918
MS.290         	7.312          	3.877
MS.291         	7.3            	3.887
MS.292         	7.285          	3.789
MS.293         	7.27           	3.863
MS.294         	7.255          	3.803
MS.295         	7.24           	3.803
MS.296         	7.227          	3.777
MS.297         	7.212          	3.793
MS.298         	7.197          	3.795
MS.299         	7.182          	3.791
MS.300         	7.168          	3.734
MS.301         	7.155          	3.726
MS.302         	7.14           	3.72
MS.303         	7.125          	3.799
MS.304         	7.112          	3.65
MS.305         	7.097          	3.591
MS.306         	7.082          	3.64
MS.307         	7.07           	3.599
MS.308         	7.055          	3.621
MS.309         	7.04           	3.543
MS.310         	7.027          	3.513
MS.311         	7.012          	3.533
MS.312         	6.997          	3.325
MS.313         	6.985          	3.438
MS.314         	6.97           	3.571
MS.315         	6.957          	3.505
MS.316         	6.942          	3.368
MS.317         	6.93           	3.436
MS.318         	6.915          	3.428
MS.319         	6.902          	3.176
MS.320         	6.887          	3.092
MS.321         	6.875          	3.287
MS.322         	6.86           	3.209
MS.323         	6.847          	3.243
MS.324         	6.832          	3.287
MS.325         	6.82           	3.06
MS.326         	6.805          	3.118
MS.327         	6.793          	2.844
MS.328         	6.777          	3.178
MS.329         	6.765          	3.023
MS.330         	6.75           	2.85
MS.331         	6.737          	2.828
MS.332         	6.725          	2.892
MS.333         	6.71           	2.804
MS.334         	6.697          	2.888
MS.335         	6.685          	2.808
MS.336         	6.67           	2.657
MS.337         	6.657          	2.612
MS.338         	6.645          	2.637
MS.339         	6.63           	2.655
MS.340         	6.617          	2.544
MS.341         	6.605          	2.546
MS.342         	6.59           	2.528
MS.343         	6.577          	2.445
MS.344         	6.565          	2.649
MS.345         	6.552          	2.445
MS.346         	6.537          	2.389
MS.347         	6.525          	2.357
MS.348         	6.512          	2.312
MS.349         	6.5            	2.274
MS.350         	6.487          	2.425
MS.351         	6.472          	2.383
MS.352         	6.46           	2.371
MS.353         	6.447          	2.373
MS.354         	6.435          	2.278
MS.355         	6.422          	2.218
MS.356         	6.41           	2.349
MS.357         	6.398          	2.087
MS.358         	6.382          	2.206
MS.359         	6.37           	1.924
MS.360         	6.358          	1.974
MS.361         	6.345          	1.974
MS.362         	6.332          	1.915
MS.363         	6.32           	2.137
MS.364         	6.307          	1.736
MS.365         	6.295          	1.688
MS.366         	6.282          	1.861
MS.367         	6.27           	1.688
MS.368         	6.257          	1.627
MS.369         	6.245          	1.539
MS.370         	6.233          	1.652
MS.371         	6.22           	1.412
MS.372         	6.207          	1.474
MS.373         	6.195          	1.43
MS.374         	6.182          	1.507
MS.375         	6.17           	1.436
MS.376         	6.157          	1.545
MS.377         	6.145          	1.444
MS.378         	6.132          	1.376
MS.379         	6.12           	1.347
MS.380         	6.11           	1.245
MS.381         	6.097          	1.305
MS.382         	6.085          	1.354
MS.383         	6.072          	1.382
MS.384         	6.06           	1.287
MS.385         	6.047          	1.211
MS.386         	6.035          	1.249
MS.387         	6.025          	1.271
MS.388         	6.012          	1.144
MS.389         	6              	1.138
MS.390         	5.987          	1.144
MS.391         	5.975          	1.055
MS.392         	5.965          	1.092
MS.393         	5.952          	1.009
MS.394         	5.94           	0.939
MS.395         	5.927          	1.051
MS.396         	5.918          	1.001
MS.397         	5.905          	1.063
MS.398         	5.892          	0.979
MS.399         	5.88           	0.854
MS.400         	5.87           	0.882
MS.401         	5.858          	0.963
MS.402         	5.845          	0.908
MS.403         	5.835          	0.949
MS.404         	5.822          	0.838
MS.405         	5.81           	0.858
MS.406         	5.8            	0.761
MS.407         	5.787          	0.794
MS.408         	5.775          	0.767
MS.409         	5.765          	0.717
MS.410         	5.753          	0.85
MS.411         	5.742          	0.618
MS.412         	5.73           	0.679
MS.413         	5.717          	0.777
MS.414         	5.707          	0.852
MS.415         	5.695          	0.673
MS.416         	5.685          	0.846
MS.417         	5.672          	0.504
MS.418         	5.662          	0.58
MS.419         	5.65           	0.423
MS.420         	5.64           	0.393
MS.421         	5.628          	0.483
MS.422         	5.617          	0.31
MS.423         	5.605          	0.449
MS.424         	5.595          	0.576
MS.425         	5.582          	0.189
MS.426         	5.572          	0.328
MS.427         	5.56           	0.175
MS.428         	5.55           	0.109
MS.429         	5.537          	0.411
MS.430         	5.527          	0.23
MS.431         	5.517          	0.169
MS.432         	5.505          	0.113
MS.433         	5.495          	0.099
MS.434         	5.483          	0.169
MS.435         	5.472          	0.205
MS.436         	5.463          	0.097
MS.437         	5.45           	0.073
MS.438         	5.44           	0.125
MS.439         	5.43           	0.175
MS.440         	5.418          	0.03
MS.441         	5.407          	0.066
MS.442         	5.398          	0.002
MS.443         	5.385          	0.000
MS.444         	5.375          	-0.004
MS.445         	5.365          	0.099
MS.446         	5.352          	0.066
MS.447         	5.342          	0.066
MS.448         	5.332          	-0.002
MS.449         	5.322          	0.000
MS.450         	5.31           	-0.002
MS.451         	5.3            	0.000
MS.452         	5.29           	0.000
MS.453         	5.28           	0.002
MS.454         	5.267          	-0.004
MS.455         	5.257          	0.000
MS.456         	5.247          	0.002
MS.457         	5.237          	-0.006
MS.458         	5.227          	-0.002
MS.459         	5.215          	0.004
MS.460         	5.205          	-0.002
MS.461         	5.195          	0.000
MS.462         	5.185          	0.002
MS.463         	5.175          	-0.004
MS.464         	5.165          	0.000
MS.465         	5.155          	0.002
MS.466         	5.142          	0.000
MS.467         	5.132          	-0.002
MS.468         	5.122          	0.004
MS.469         	5.112          	-0.002
MS.470         	5.102          	0.000
MS.471         	5.092          	-0.004
MS.472         	5.082          	-0.004
MS.473         	5.072          	0.008
MS.474         	5.062          	0.000
MS.475         	5.052          	-0.002
MS.476         	5.043          	0.000
MS.477         	5.032          	0.000
MS.478         	5.023          	0.01
MS.479         	5.012          	0.002
MS.480         	5.003          	0.000
MS.481         	4.992          	0.000
MS.482         	4.983          	0.000
MS.483         	4.972          	-0.002
MS.484         	4.963          	0.000
MS.485         	4.952          	-0.002
MS.486         	4.943          	0.000
MS.487         	4.932          	0.006
MS.488         	4.922          	0.01
MS.489         	4.912          	0.000
MS.490         	4.902          	0.000
MS.491         	4.892          	-0.004
MS.492         	4.882          	0.000
MS.493         	4.872          	-0.004
MS.494         	4.862          	-0.004
MS.495         	4.852          	-0.004
MS.496         	4.845          	0.000
MS.497         	4.835          	-0.004
MS.498         	4.825          	-0.002
MS.499         	4.815          	0.008
DERIVED EXCITABILITY VARIABLES
