File:              	C:\Qtrac\Data\Daniel M Sørensen\MScan multicentre study\Data from centres\Ankara\Processed data\BAC10112A.QZD
Name:              	TR.ANK.NC.1.2
Protocol:          	MSCAN-R2
Date:              	12/1/21
Start time:        	18:04:14
Age:               	29
Sex:               	F
Temperature:
S/R sites:         	APB
NC/disease:        	NC
Operator:          	HA
Comments:
M-SCAN DATA (7-3m)
Scanpts: 97, 101, 423, 427
Stim. (mA)     	Amp. (mV)
MS.1           	12             	8.905
MS.2           	12             	8.905
MS.3           	12             	8.911
MS.4           	12             	8.919
MS.5           	12             	8.911
MS.6           	12             	8.909
MS.7           	12             	8.939
MS.8           	12             	8.953
MS.9           	12             	8.951
MS.10          	12             	8.959
MS.11          	12             	8.969
MS.12          	12             	8.955
MS.13          	12             	8.969
MS.14          	12             	8.973
MS.15          	12             	8.973
MS.16          	12             	8.959
MS.17          	12             	8.963
MS.18          	12             	8.975
MS.19          	12             	8.977
MS.20          	12             	8.921
MS.21          	12             	8.941
MS.22          	12             	8.955
MS.23          	12             	8.951
MS.24          	11.975         	8.941
MS.25          	11.952         	8.939
MS.26          	11.927         	8.943
MS.27          	11.905         	8.943
MS.28          	11.88          	8.953
MS.29          	11.858         	8.959
MS.30          	11.832         	8.959
MS.31          	11.81          	8.973
MS.32          	11.785         	8.967
MS.33          	11.762         	8.955
MS.34          	11.74          	8.957
MS.35          	11.715         	8.977
MS.36          	11.693         	8.971
MS.37          	11.667         	8.955
MS.38          	11.645         	8.941
MS.39          	11.622         	8.961
MS.40          	11.6           	8.973
MS.41          	11.575         	8.969
MS.42          	11.552         	8.977
MS.43          	11.53          	8.927
MS.44          	11.507         	8.981
MS.45          	11.483         	8.905
MS.46          	11.46          	8.935
MS.47          	11.438         	8.941
MS.48          	11.415         	8.911
MS.49          	11.392         	8.891
MS.50          	11.37          	8.959
MS.51          	11.347         	8.921
MS.52          	11.325         	8.901
MS.53          	11.3           	8.963
MS.54          	11.278         	8.931
MS.55          	11.255         	8.953
MS.56          	11.233         	8.967
MS.57          	11.21          	8.899
MS.58          	11.188         	8.925
MS.59          	11.167         	8.939
MS.60          	11.145         	8.941
MS.61          	11.122         	8.971
MS.62          	11.1           	8.917
MS.63          	11.077         	8.907
MS.64          	11.055         	8.897
MS.65          	11.032         	8.876
MS.66          	11.01          	8.899
MS.67          	10.99          	8.909
MS.68          	10.967         	8.903
MS.69          	10.945         	8.901
MS.70          	10.922         	8.903
MS.71          	10.903         	8.911
MS.72          	10.88          	8.901
MS.73          	10.858         	8.907
MS.74          	10.837         	8.913
MS.75          	10.815         	8.933
MS.76          	10.792         	8.931
MS.77          	10.773         	8.911
MS.78          	10.75          	8.907
MS.79          	10.727         	8.917
MS.80          	10.707         	8.947
MS.81          	10.685         	8.933
MS.82          	10.665         	8.929
MS.83          	10.642         	8.929
MS.84          	10.622         	8.927
MS.85          	10.6           	8.913
MS.86          	10.58          	8.917
MS.87          	10.557         	8.927
MS.88          	10.537         	8.917
MS.89          	10.515         	8.919
MS.90          	10.495         	8.913
MS.91          	10.475         	8.905
MS.92          	10.452         	8.903
MS.93          	10.432         	8.905
MS.94          	10.412         	8.911
MS.95          	10.39          	8.905
MS.96          	10.37          	8.903
MS.97          	10.35          	8.907
MS.98          	10.327         	8.903
MS.99          	10.307         	8.905
MS.100         	10.287         	8.895
MS.101         	10.267         	8.895
MS.102         	10.245         	8.899
MS.103         	10.225         	8.907
MS.104         	10.205         	8.905
MS.105         	10.185         	8.891
MS.106         	10.165         	8.884
MS.107         	10.145         	8.878
MS.108         	10.125         	8.891
MS.109         	10.105         	8.897
MS.110         	10.082         	8.891
MS.111         	10.062         	8.88
MS.112         	10.042         	8.895
MS.113         	10.023         	8.888
MS.114         	10.002         	8.893
MS.115         	9.983          	8.899
MS.116         	9.962          	8.911
MS.117         	9.943          	8.901
MS.118         	9.922          	8.905
MS.119         	9.903          	8.915
MS.120         	9.885          	8.876
MS.121         	9.865          	8.951
MS.122         	9.845          	8.874
MS.123         	9.825          	8.891
MS.124         	9.805          	8.931
MS.125         	9.785          	8.856
MS.126         	9.765          	8.864
MS.127         	9.747          	8.864
MS.128         	9.727          	8.86
MS.129         	9.707          	8.919
MS.130         	9.688          	8.854
MS.131         	9.67           	8.858
MS.132         	9.65           	8.872
MS.133         	9.63           	8.862
MS.134         	9.61           	8.856
MS.135         	9.592          	8.834
MS.136         	9.573          	8.776
MS.137         	9.552          	8.848
MS.138         	9.535          	8.387
MS.139         	9.515          	8.413
MS.140         	9.497          	8.836
MS.141         	9.477          	8.78
MS.142         	9.457          	8.417
MS.143         	9.44           	8.48
MS.144         	9.42           	8.415
MS.145         	9.403          	8.466
MS.146         	9.382          	8.697
MS.147         	9.365          	8.349
MS.148         	9.345          	8.377
MS.149         	9.327          	8.341
MS.150         	9.307          	8.371
MS.151         	9.29           	8.349
MS.152         	9.27           	8.343
MS.153         	9.252          	8.325
MS.154         	9.235          	8.316
MS.155         	9.215          	8.329
MS.156         	9.198          	8.318
MS.157         	9.18           	8.308
MS.158         	9.16           	8.312
MS.159         	9.142          	8.316
MS.160         	9.125          	8.294
MS.161         	9.105          	8.325
MS.162         	9.087          	8.316
MS.163         	9.07           	8.26
MS.164         	9.052          	8.246
MS.165         	9.033          	8.272
MS.166         	9.015          	8.294
MS.167         	8.997          	8.23
MS.168         	8.98           	8.28
MS.169         	8.96           	8.222
MS.170         	8.943          	8.29
MS.171         	8.925          	8.264
MS.172         	8.908          	8.246
MS.173         	8.89           	8.286
MS.174         	8.872          	8.192
MS.175         	8.855          	8.266
MS.176         	8.837          	8.268
MS.177         	8.82           	7.68
MS.178         	8.802          	8.234
MS.179         	8.785          	8.079
MS.180         	8.765          	8.002
MS.181         	8.747          	7.942
MS.182         	8.73           	8.018
MS.183         	8.715          	8.137
MS.184         	8.698          	7.867
MS.185         	8.68           	7.946
MS.186         	8.662          	7.914
MS.187         	8.645          	7.599
MS.188         	8.627          	7.607
MS.189         	8.61           	7.557
MS.190         	8.592          	7.34
MS.191         	8.575          	7.281
MS.192         	8.557          	7.378
MS.193         	8.542          	7.436
MS.194         	8.525          	7.656
MS.195         	8.507          	7.366
MS.196         	8.49           	7.38
MS.197         	8.472          	7.231
MS.198         	8.457          	7.551
MS.199         	8.44           	7.42
MS.200         	8.422          	7.261
MS.201         	8.405          	6.977
MS.202         	8.39           	7.525
MS.203         	8.372          	6.987
MS.204         	8.355          	7.219
MS.205         	8.337          	7.148
MS.206         	8.323          	7.148
MS.207         	8.305          	6.943
MS.208         	8.29           	7.092
MS.209         	8.273          	6.719
MS.210         	8.255          	6.939
MS.211         	8.24           	6.633
MS.212         	8.222          	6.755
MS.213         	8.207          	6.86
MS.214         	8.19           	6.604
MS.215         	8.172          	6.836
MS.216         	8.158          	6.542
MS.217         	8.14           	6.463
MS.218         	8.125          	6.413
MS.219         	8.108          	6.552
MS.220         	8.092          	6.465
MS.221         	8.075          	6.546
MS.222         	8.06           	6.556
MS.223         	8.045          	6.389
MS.224         	8.028          	6.179
MS.225         	8.012          	6.435
MS.226         	7.995          	6.218
MS.227         	7.98           	6.242
MS.228         	7.965          	6.28
MS.229         	7.947          	6.256
MS.230         	7.932          	6.091
MS.231         	7.915          	5.922
MS.232         	7.9            	6.155
MS.233         	7.885          	5.962
MS.234         	7.87           	5.704
MS.235         	7.852          	5.924
MS.236         	7.837          	5.974
MS.237         	7.822          	5.932
MS.238         	7.805          	5.906
MS.239         	7.79           	5.722
MS.240         	7.775          	5.589
MS.241         	7.76           	5.712
MS.242         	7.745          	5.763
MS.243         	7.727          	5.579
MS.244         	7.712          	5.43
MS.245         	7.697          	5.225
MS.246         	7.682          	5.386
MS.247         	7.668          	5.605
MS.248         	7.652          	5.438
MS.249         	7.637          	5.39
MS.250         	7.62           	5.46
MS.251         	7.605          	5.156
MS.252         	7.59           	4.977
MS.253         	7.575          	5.223
MS.254         	7.56           	4.9
MS.255         	7.545          	4.997
MS.256         	7.53           	5.186
MS.257         	7.515          	5.096
MS.258         	7.5            	4.604
MS.259         	7.485          	4.639
MS.260         	7.47           	4.814
MS.261         	7.455          	4.643
MS.262         	7.44           	4.502
MS.263         	7.425          	4.995
MS.264         	7.41           	4.594
MS.265         	7.395          	3.881
MS.266         	7.38           	4.548
MS.267         	7.365          	4.161
MS.268         	7.352          	4.014
MS.269         	7.337          	4.298
MS.270         	7.322          	4.363
MS.271         	7.307          	4.133
MS.272         	7.293          	4.113
MS.273         	7.277          	4.055
MS.274         	7.265          	4.24
MS.275         	7.25           	3.871
MS.276         	7.235          	3.881
MS.277         	7.22           	3.241
MS.278         	7.205          	3.68
MS.279         	7.192          	2.977
MS.280         	7.177          	3.18
MS.281         	7.162          	3.346
MS.282         	7.148          	3.515
MS.283         	7.135          	2.453
MS.284         	7.12           	3.384
MS.285         	7.105          	3.384
MS.286         	7.092          	2.945
MS.287         	7.077          	2.943
MS.288         	7.062          	2.773
MS.289         	7.05           	2.306
MS.290         	7.035          	2.614
MS.291         	7.02           	2.268
MS.292         	7.007          	2.399
MS.293         	6.992          	2.413
MS.294         	6.98           	2.518
MS.295         	6.965          	1.871
MS.296         	6.95           	2.067
MS.297         	6.938          	2.55
MS.298         	6.922          	1.676
MS.299         	6.91           	1.781
MS.300         	6.895          	1.698
MS.301         	6.882          	1.833
MS.302         	6.867          	1.7
MS.303         	6.855          	1.77
MS.304         	6.84           	1.65
MS.305         	6.827          	1.901
MS.306         	6.812          	1.704
MS.307         	6.8            	1.543
MS.308         	6.787          	1.501
MS.309         	6.773          	1.488
MS.310         	6.76           	1.579
MS.311         	6.745          	1.718
MS.312         	6.733          	1.154
MS.313         	6.72           	1.315
MS.314         	6.705          	1.366
MS.315         	6.692          	1.271
MS.316         	6.677          	1.227
MS.317         	6.665          	1.156
MS.318         	6.652          	1.247
MS.319         	6.637          	1.211
MS.320         	6.625          	1.068
MS.321         	6.612          	1.039
MS.322         	6.6            	1.078
MS.323         	6.585          	1.211
MS.324         	6.572          	0.89
MS.325         	6.56           	0.975
MS.326         	6.547          	0.927
MS.327         	6.532          	0.937
MS.328         	6.52           	0.836
MS.329         	6.507          	0.8
MS.330         	6.495          	0.937
MS.331         	6.48           	0.828
MS.332         	6.467          	0.967
MS.333         	6.455          	0.832
MS.334         	6.442          	0.647
MS.335         	6.43           	0.479
MS.336         	6.418          	0.945
MS.337         	6.405          	0.757
MS.338         	6.39           	0.675
MS.339         	6.378          	0.757
MS.340         	6.365          	0.729
MS.341         	6.352          	0.461
MS.342         	6.34           	0.62
MS.343         	6.327          	0.455
MS.344         	6.315          	0.675
MS.345         	6.302          	0.431
MS.346         	6.29           	0.405
MS.347         	6.277          	0.562
MS.348         	6.265          	0.352
MS.349         	6.253          	0.348
MS.350         	6.24           	0.58
MS.351         	6.227          	0.425
MS.352         	6.215          	0.421
MS.353         	6.202          	0.401
MS.354         	6.19           	0.242
MS.355         	6.177          	0.534
MS.356         	6.165          	0.187
MS.357         	6.152          	0.419
MS.358         	6.14           	0.288
MS.359         	6.128          	0.512
MS.360         	6.115          	0.248
MS.361         	6.105          	0.328
MS.362         	6.092          	0.25
MS.363         	6.08           	0.234
MS.364         	6.067          	0.224
MS.365         	6.055          	0.318
MS.366         	6.043          	0.228
MS.367         	6.03           	0.421
MS.368         	6.02           	0.25
MS.369         	6.007          	0.143
MS.370         	5.995          	0.113
MS.371         	5.983          	0.129
MS.372         	5.97           	0.157
MS.373         	5.96           	0.083
MS.374         	5.947          	0.054
MS.375         	5.935          	0.048
MS.376         	5.922          	0.127
MS.377         	5.912          	0.048
MS.378         	5.9            	0.058
MS.379         	5.887          	0.018
MS.380         	5.875          	0.177
MS.381         	5.865          	0.048
MS.382         	5.852          	0.048
MS.383         	5.84           	0.012
MS.384         	5.83           	0.016
MS.385         	5.817          	0.292
MS.386         	5.805          	0.002
MS.387         	5.795          	0.006
MS.388         	5.782          	0.075
MS.389         	5.773          	0.04
MS.390         	5.76           	0.016
MS.391         	5.747          	0.016
MS.392         	5.737          	0.016
MS.393         	5.725          	0.002
MS.394         	5.715          	0.012
MS.395         	5.702          	0.014
MS.396         	5.69           	0.024
MS.397         	5.68           	0.016
MS.398         	5.668          	0.016
MS.399         	5.657          	0.006
MS.400         	5.645          	0.014
MS.401         	5.635          	0.014
MS.402         	5.622          	0.004
MS.403         	5.612          	0.014
MS.404         	5.6            	0.01
MS.405         	5.59           	0.008
MS.406         	5.577          	0.016
MS.407         	5.567          	0.002
MS.408         	5.555          	-0.022
MS.409         	5.545          	-0.02
MS.410         	5.535          	0.000
MS.411         	5.523          	0.006
MS.412         	5.512          	0.01
MS.413         	5.5            	-0.016
MS.414         	5.49           	-0.024
MS.415         	5.48           	0.01
MS.416         	5.467          	-0.022
MS.417         	5.457          	-0.022
MS.418         	5.445          	-0.018
MS.419         	5.435          	-0.018
MS.420         	5.425          	0.006
MS.421         	5.412          	0.01
MS.422         	5.402          	-0.02
MS.423         	5.392          	-0.02
MS.424         	5.38           	-0.02
MS.425         	5.37           	-0.02
MS.426         	5.36           	-0.022
MS.427         	5.35           	-0.006
MS.428         	5.338          	-0.016
MS.429         	5.327          	0.008
MS.430         	5.318          	-0.014
MS.431         	5.307          	-0.02
MS.432         	5.295          	-0.016
MS.433         	5.285          	-0.018
MS.434         	5.275          	-0.022
MS.435         	5.265          	-0.022
MS.436         	5.253          	-0.018
MS.437         	5.242          	-0.02
MS.438         	5.233          	-0.024
MS.439         	5.222          	-0.022
MS.440         	5.213          	-0.02
MS.441         	5.202          	-0.018
MS.442         	5.19           	-0.026
MS.443         	5.18           	-0.024
DERIVED EXCITABILITY VARIABLES
Program = QTracP 3/4/2020
Threshold method = 6 (optimised for CAP, using data for present condition only)
SR method = 1 (using actual data values)
6.                 	0.000               	Peak response\(mV)
17.                	29                  	Age (years)
18.                	2                   	Sex (M=1, F=2)

EXTRA VARIABLES

MScPeak(mV) = 8.96
MScS5(mA) = 6.22
MScS50(mA) = 7.39
MScS95(mA) = 9.46
MScNSteps = 3
MScSteps(%) = 6.8
MScStepMax(%) = 2.4
MScD50 = 37
MScSlope = 5.81
MSFPeakAmp(mV) = 8.92
MSFNUnits = 83
MSFMeanUnitAmp(uV) = 107.5
MSFHuntTime(m) = 1.9
MSFError(%) = 5.43
MSFNLarge = 20.49
MSFMedianAmp(%) = 0.889
MSFMedianAmp(mV) = 0.0793
MSFHalfAmpAmp(%) = 1.46
MSFHalfAmpAmp(mV) = 0.13
MSFLargestAmp(%) = 4.14
MSFLargestAmp(mV) = 0.37
MSFMeanRS(%) = 2.01
MSFOpts = 10106121
MScDuration(min) = 4
MSFTraces = 331
MSFSizeLimit(uV) = 22.3
MSFLimitType = 1
MSFSmallestAmp(uV) = 24.2

EXTRA WAVEFORMS


!MScan Model
!83
	1	5.45	0.44	2
	2	5.91	0.61	2
	3	5.96	0.37	2
	4	5.99	0.53	2
	5	6.05	1.04	2
	6	6.2	2.3	2
	7	6.33	1.24	2
	8	6.42	1.94	2
	9	6.5	1.46	2
	10	6.52	0.67	2
	11	6.55	0.66	2
	12	6.57	0.38	2
	13	6.58	0.31	2
	14	6.6	0.27	2
	15	6.61	0.34	2
	16	6.63	0.4	2
	17	6.65	0.59	2
	18	6.68	0.7	2
	19	6.7	0.73	2
	20	6.72	0.71	2
	21	6.75	0.73	2
	22	6.8	1.81	2
	23	6.87	1.93	2
	24	6.91	1.27	2
	25	6.91	0.85	2
	26	6.94	1.01	2
	27	6.98	2.33	2
	28	7.04	4.14	2
	29	7.09	2.43	2
	30	7.13	2.85	2
	31	7.18	3.64	2
	32	7.2	1.57	2
	33	7.23	1.46	2
	34	7.26	1.92	2
	35	7.31	2.8	2
	36	7.37	2.86	2
	37	7.44	2.43	2
	38	7.49	2.45	2
	39	7.51	0.76	2
	40	7.52	0.82	2
	41	7.54	0.88	2
	42	7.56	0.9	2
	43	7.6	1.44	2
	44	7.64	1.23	2
	45	7.67	0.99	2
	46	7.7	1.2	2
	47	7.72	0.81	2
	48	7.75	0.36	2
	49	7.77	0.52	2
	50	7.79	0.8	2
	51	7.81	0.78	2
	52	7.83	0.72	2
	53	7.86	0.67	2
	54	7.88	0.66	2
	55	7.9	0.59	2
	56	7.92	0.6	2
	57	7.95	0.71	2
	58	7.98	0.89	2
	59	8	0.68	2
	60	8.03	0.68	2
	61	8.07	0.86	2
	62	8.1	0.82	2
	63	8.13	0.86	2
	64	8.17	0.78	2
	65	8.2	0.86	2
	66	8.23	1.03	2
	67	8.26	1.01	2
	68	8.3	1.35	2
	69	8.35	0.89	2
	70	8.46	2.84	2.4
	71	8.5	2.88	2
	72	8.54	0.96	2
	73	8.57	1.22	2
	74	8.6	1.05	2
	75	8.65	1.46	2
