File:              	C:\Qtrac\Data\Daniel M Sørensen\MScan multicentre study\Data from centres\Ankara\Processed data\BCC00320A.QZD
Name:              	TR.ANK.NC.2.1
Protocol:          	MSCAN-R2
Date:              	20/3/20
Start time:        	15:07:51
Age:               	54
Sex:               	m
Temperature:
S/R sites:         	APB
NC/disease:        	NC
Operator:          	eb
Comments:
M-SCAN DATA (11.1-6.4m)
Scanpts: 82, 89, 491, 512
Stim. (mA)     	Amp. (mV)
MS.1           	16.5           	6.395
MS.2           	16.5           	6.39
MS.3           	16.5           	6.382
MS.4           	16.5           	6.375
MS.5           	16.5           	6.372
MS.6           	16.5           	6.385
MS.7           	16.5           	6.4
MS.8           	16.5           	6.41
MS.9           	16.5           	6.428
MS.10          	16.5           	6.409
MS.11          	16.5           	6.426
MS.12          	16.5           	6.399
MS.13          	16.5           	6.415
MS.14          	16.5           	6.417
MS.15          	16.5           	6.422
MS.16          	16.5           	6.438
MS.17          	16.5           	6.464
MS.18          	16.5           	6.451
MS.19          	16.5           	6.469
MS.20          	16.5           	6.458
MS.21          	16.5           	6.467
MS.22          	16.5           	6.477
MS.23          	16.5           	6.484
MS.24          	16.435         	6.479
MS.25          	16.4           	6.483
MS.26          	16.368         	6.483
MS.27          	16.335         	6.481
MS.28          	16.302         	6.495
MS.29          	16.27          	6.479
MS.30          	16.237         	6.467
MS.31          	16.205         	6.473
MS.32          	16.172         	6.493
MS.33          	16.14          	6.495
MS.34          	16.108         	6.482
MS.35          	16.077         	6.47
MS.36          	16.045         	6.483
MS.37          	16.012         	6.493
MS.38          	15.98          	6.482
MS.39          	15.947         	6.482
MS.40          	15.917         	6.483
MS.41          	15.885         	6.477
MS.42          	15.852         	6.478
MS.43          	15.822         	6.455
MS.44          	15.79          	6.467
MS.45          	15.757         	6.471
MS.46          	15.727         	6.472
MS.47          	15.695         	6.477
MS.48          	15.665         	6.442
MS.49          	15.632         	6.461
MS.50          	15.602         	6.466
MS.51          	15.57          	6.465
MS.52          	15.54          	6.478
MS.53          	15.507         	6.458
MS.54          	15.477         	6.467
MS.55          	15.445         	6.467
MS.56          	15.415         	6.47
MS.57          	15.385         	6.466
MS.58          	15.352         	6.49
MS.59          	15.322         	6.454
MS.60          	15.292         	6.44
MS.61          	15.262         	6.467
MS.62          	15.233         	6.456
MS.63          	15.2           	6.415
MS.64          	15.17          	6.454
MS.65          	15.14          	6.46
MS.66          	15.11          	6.455
MS.67          	15.08          	6.455
MS.68          	15.05          	6.459
MS.69          	15.02          	6.487
MS.70          	14.99          	6.477
MS.71          	14.96          	6.471
MS.72          	14.93          	6.455
MS.73          	14.9           	6.479
MS.74          	14.87          	6.465
MS.75          	14.84          	6.495
MS.76          	14.81          	6.49
MS.77          	14.78          	6.49
MS.78          	14.752         	6.484
MS.79          	14.722         	6.483
MS.80          	14.693         	6.481
MS.81          	14.662         	6.469
MS.82          	14.635         	6.465
MS.83          	14.605         	6.479
MS.84          	14.575         	6.471
MS.85          	14.547         	6.477
MS.86          	14.517         	6.475
MS.87          	14.487         	6.483
MS.88          	14.46          	6.478
MS.89          	14.43          	6.482
MS.90          	14.403         	6.47
MS.91          	14.372         	6.47
MS.92          	14.345         	6.39
MS.93          	14.315         	6.495
MS.94          	14.287         	6.487
MS.95          	14.257         	6.429
MS.96          	14.23          	6.497
MS.97          	14.202         	6.488
MS.98          	14.172         	6.381
MS.99          	14.145         	6.471
MS.100         	14.117         	6.483
MS.101         	14.087         	6.425
MS.102         	14.06          	6.403
MS.103         	14.032         	6.466
MS.104         	14.005         	6.425
MS.105         	13.975         	6.471
MS.106         	13.947         	6.404
MS.107         	13.92          	6.401
MS.108         	13.892         	6.411
MS.109         	13.865         	6.401
MS.110         	13.837         	6.337
MS.111         	13.81          	6.306
MS.112         	13.782         	6.344
MS.113         	13.755         	6.365
MS.114         	13.727         	6.331
MS.115         	13.7           	6.313
MS.116         	13.672         	6.318
MS.117         	13.645         	6.337
MS.118         	13.617         	6.326
MS.119         	13.59          	6.307
MS.120         	13.562         	6.158
MS.121         	13.535         	6.339
MS.122         	13.51          	6.32
MS.123         	13.483         	6.105
MS.124         	13.455         	6.338
MS.125         	13.427         	6.189
MS.126         	13.403         	6.119
MS.127         	13.375         	6.235
MS.128         	13.347         	6.028
MS.129         	13.32          	6.204
MS.130         	13.295         	6.15
MS.131         	13.267         	6.15
MS.132         	13.242         	6.053
MS.133         	13.215         	6.332
MS.134         	13.188         	5.914
MS.135         	13.162         	5.876
MS.136         	13.135         	5.792
MS.137         	13.11          	5.652
MS.138         	13.082         	5.708
MS.139         	13.057         	5.925
MS.140         	13.032         	5.662
MS.141         	13.005         	5.757
MS.142         	12.98          	5.796
MS.143         	12.952         	5.774
MS.144         	12.927         	5.768
MS.145         	12.903         	5.675
MS.146         	12.875         	5.902
MS.147         	12.85          	5.685
MS.148         	12.825         	5.645
MS.149         	12.8           	5.663
MS.150         	12.773         	5.575
MS.151         	12.747         	5.5
MS.152         	12.722         	5.709
MS.153         	12.697         	5.482
MS.154         	12.672         	5.487
MS.155         	12.645         	5.682
MS.156         	12.62          	5.487
MS.157         	12.595         	5.588
MS.158         	12.57          	5.435
MS.159         	12.545         	5.438
MS.160         	12.52          	5.435
MS.161         	12.495         	5.394
MS.162         	12.47          	5.385
MS.163         	12.445         	5.299
MS.164         	12.42          	5.327
MS.165         	12.395         	5.353
MS.166         	12.37          	5.292
MS.167         	12.347         	5.291
MS.168         	12.322         	5.325
MS.169         	12.297         	5.302
MS.170         	12.273         	5.3
MS.171         	12.247         	5.138
MS.172         	12.222         	5.233
MS.173         	12.2           	5.083
MS.174         	12.175         	5.048
MS.175         	12.15          	5.046
MS.176         	12.125         	5.148
MS.177         	12.102         	5.161
MS.178         	12.077         	5.002
MS.179         	12.052         	4.924
MS.180         	12.03          	4.963
MS.181         	12.005         	4.952
MS.182         	11.983         	4.823
MS.183         	11.957         	4.965
MS.184         	11.932         	4.957
MS.185         	11.91          	4.883
MS.186         	11.885         	4.753
MS.187         	11.863         	4.74
MS.188         	11.837         	4.508
MS.189         	11.815         	4.578
MS.190         	11.79          	4.509
MS.191         	11.767         	4.493
MS.192         	11.745         	4.6
MS.193         	11.72          	4.496
MS.194         	11.697         	4.437
MS.195         	11.675         	4.467
MS.196         	11.65          	4.38
MS.197         	11.627         	4.176
MS.198         	11.605         	4.346
MS.199         	11.58          	4.366
MS.200         	11.557         	4.413
MS.201         	11.535         	4.452
MS.202         	11.512         	4.26
MS.203         	11.488         	4.329
MS.204         	11.465         	4.243
MS.205         	11.443         	4.354
MS.206         	11.42          	4.221
MS.207         	11.398         	4.376
MS.208         	11.375         	4.181
MS.209         	11.352         	4.11
MS.210         	11.33          	3.683
MS.211         	11.307         	3.667
MS.212         	11.282         	3.474
MS.213         	11.26          	3.527
MS.214         	11.238         	3.495
MS.215         	11.215         	3.391
MS.216         	11.195         	3.143
MS.217         	11.172         	3.105
MS.218         	11.15          	2.925
MS.219         	11.127         	3.411
MS.220         	11.105         	2.943
MS.221         	11.082         	3.231
MS.222         	11.06          	2.939
MS.223         	11.037         	2.938
MS.224         	11.015         	2.838
MS.225         	10.995         	2.788
MS.226         	10.972         	2.65
MS.227         	10.95          	3.284
MS.228         	10.927         	2.559
MS.229         	10.907         	2.472
MS.230         	10.885         	2.539
MS.231         	10.863         	2.294
MS.232         	10.84          	2.423
MS.233         	10.82          	2.548
MS.234         	10.797         	2.673
MS.235         	10.778         	2.44
MS.236         	10.755         	2.04
MS.237         	10.733         	2.504
MS.238         	10.712         	2.192
MS.239         	10.69          	2.198
MS.240         	10.67          	2.159
MS.241         	10.648         	2.054
MS.242         	10.627         	2.025
MS.243         	10.605         	1.973
MS.244         	10.585         	1.877
MS.245         	10.562         	1.934
MS.246         	10.542         	1.885
MS.247         	10.52          	1.654
MS.248         	10.5           	1.648
MS.249         	10.48          	1.821
MS.250         	10.457         	1.552
MS.251         	10.438         	1.694
MS.252         	10.415         	1.57
MS.253         	10.395         	1.542
MS.254         	10.375         	1.541
MS.255         	10.355         	1.096
MS.256         	10.332         	1.501
MS.257         	10.312         	1.479
MS.258         	10.292         	1.116
MS.259         	10.273         	1.523
MS.260         	10.25          	1.422
MS.261         	10.23          	1.074
MS.262         	10.21          	1.384
MS.263         	10.19          	1.008
MS.264         	10.17          	1.063
MS.265         	10.15          	0.885
MS.266         	10.127         	0.967
MS.267         	10.108         	1.025
MS.268         	10.087         	0.922
MS.269         	10.068         	0.93
MS.270         	10.047         	1.013
MS.271         	10.028         	0.829
MS.272         	10.007         	0.862
MS.273         	9.988          	0.892
MS.274         	9.967          	0.706
MS.275         	9.948          	0.806
MS.276         	9.927          	0.781
MS.277         	9.907          	0.731
MS.278         	9.887          	0.625
MS.279         	9.867          	0.618
MS.280         	9.85           	0.656
MS.281         	9.83           	0.743
MS.282         	9.81           	0.621
MS.283         	9.79           	0.626
MS.284         	9.77           	0.671
MS.285         	9.75           	0.656
MS.286         	9.733          	0.627
MS.287         	9.712          	0.762
MS.288         	9.693          	0.762
MS.289         	9.672          	0.597
MS.290         	9.655          	0.558
MS.291         	9.635          	0.575
MS.292         	9.615          	0.586
MS.293         	9.595          	0.614
MS.294         	9.577          	0.568
MS.295         	9.557          	0.48
MS.296         	9.537          	0.508
MS.297         	9.52           	0.518
MS.298         	9.5            	0.516
MS.299         	9.483          	0.51
MS.300         	9.462          	0.479
MS.301         	9.445          	0.521
MS.302         	9.425          	0.507
MS.303         	9.405          	0.477
MS.304         	9.387          	0.498
MS.305         	9.367          	0.498
MS.306         	9.35           	0.511
MS.307         	9.33           	0.411
MS.308         	9.312          	0.505
MS.309         	9.295          	0.494
MS.310         	9.275          	0.49
MS.311         	9.257          	0.465
MS.312         	9.238          	0.419
MS.313         	9.22           	0.465
MS.314         	9.202          	0.439
MS.315         	9.182          	0.367
MS.316         	9.165          	0.471
MS.317         	9.148          	0.448
MS.318         	9.127          	0.449
MS.319         	9.11           	0.386
MS.320         	9.092          	0.461
MS.321         	9.073          	0.311
MS.322         	9.055          	0.3
MS.323         	9.037          	0.276
MS.324         	9.02           	0.282
MS.325         	9              	0.36
MS.326         	8.983          	0.409
MS.327         	8.965          	0.392
MS.328         	8.948          	0.272
MS.329         	8.93           	0.201
MS.330         	8.912          	0.264
MS.331         	8.895          	0.265
MS.332         	8.875          	0.237
MS.333         	8.858          	0.179
MS.334         	8.84           	0.187
MS.335         	8.823          	0.189
MS.336         	8.805          	0.175
MS.337         	8.787          	0.177
MS.338         	8.77           	0.182
MS.339         	8.752          	0.212
MS.340         	8.735          	0.178
MS.341         	8.717          	0.182
MS.342         	8.7            	0.179
MS.343         	8.682          	0.181
MS.344         	8.665          	0.167
MS.345         	8.648          	0.167
MS.346         	8.63           	0.181
MS.347         	8.613          	0.144
MS.348         	8.597          	0.187
MS.349         	8.58           	0.186
MS.350         	8.562          	0.188
MS.351         	8.545          	0.189
MS.352         	8.528          	0.142
MS.353         	8.51           	0.188
MS.354         	8.495          	0.149
MS.355         	8.477          	0.145
MS.356         	8.46           	0.145
MS.357         	8.443          	0.19
MS.358         	8.427          	0.192
MS.359         	8.41           	0.172
MS.360         	8.392          	0.137
MS.361         	8.375          	0.149
MS.362         	8.36           	0.131
MS.363         	8.342          	0.197
MS.364         	8.325          	0.143
MS.365         	8.31           	0.127
MS.366         	8.292          	0.121
MS.367         	8.275          	0.127
MS.368         	8.26           	0.121
MS.369         	8.242          	0.134
MS.370         	8.227          	0.128
MS.371         	8.21           	0.12
MS.372         	8.193          	0.128
MS.373         	8.177          	0.12
MS.374         	8.16           	0.154
MS.375         	8.145          	0.122
MS.376         	8.127          	0.12
MS.377         	8.113          	0.122
MS.378         	8.095          	0.121
MS.379         	8.08           	0.118
MS.380         	8.062          	0.121
MS.381         	8.047          	0.123
MS.382         	8.033          	0.126
MS.383         	8.015          	0.121
MS.384         	8              	0.122
MS.385         	7.982          	0.122
MS.386         	7.967          	0.127
MS.387         	7.952          	0.12
MS.388         	7.935          	0.127
MS.389         	7.92           	0.126
MS.390         	7.905          	0.116
MS.391         	7.887          	0.128
MS.392         	7.872          	0.126
MS.393         	7.857          	0.128
MS.394         	7.84           	0.123
MS.395         	7.825          	0.122
MS.396         	7.81           	0.122
MS.397         	7.795          	0.128
MS.398         	7.777          	0.127
MS.399         	7.762          	0.123
MS.400         	7.747          	0.121
MS.401         	7.732          	0.125
MS.402         	7.717          	0.142
MS.403         	7.7            	0.126
MS.404         	7.685          	0.131
MS.405         	7.67           	0.127
MS.406         	7.655          	0.127
MS.407         	7.64           	0.128
MS.408         	7.625          	0.142
MS.409         	7.61           	0.122
MS.410         	7.595          	0.143
MS.411         	7.58           	0.143
MS.412         	7.562          	0.125
MS.413         	7.547          	0.144
MS.414         	7.532          	0.142
MS.415         	7.517          	0.121
MS.416         	7.503          	0.143
MS.417         	7.487          	0.127
MS.418         	7.472          	0.138
MS.419         	7.457          	0.139
MS.420         	7.442          	0.154
MS.421         	7.427          	0.138
MS.422         	7.415          	0.139
MS.423         	7.4            	0.134
MS.424         	7.385          	0.14
MS.425         	7.37           	0.132
MS.426         	7.355          	0.138
MS.427         	7.34           	0.134
MS.428         	7.325          	0.139
MS.429         	7.31           	0.146
MS.430         	7.295          	0.146
MS.431         	7.282          	0.146
MS.432         	7.267          	0.165
MS.433         	7.253          	0.164
MS.434         	7.237          	0.15
MS.435         	7.222          	0.166
MS.436         	7.21           	0.166
MS.437         	7.195          	0.15
MS.438         	7.18           	0.161
MS.439         	7.165          	0.164
MS.440         	7.152          	0.165
MS.441         	7.137          	0.167
MS.442         	7.122          	0.162
MS.443         	7.11           	0.161
MS.444         	7.095          	0.165
MS.445         	7.08           	0.162
MS.446         	7.067          	0.164
MS.447         	7.052          	0.16
MS.448         	7.037          	0.164
MS.449         	7.025          	0.161
MS.450         	7.01           	0.031
MS.451         	6.995          	0.162
MS.452         	6.983          	0.161
MS.453         	6.967          	0.162
MS.454         	6.955          	0.161
MS.455         	6.94           	0.161
MS.456         	6.927          	0.031
MS.457         	6.912          	0.165
MS.458         	6.9            	0.165
MS.459         	6.885          	0.161
MS.460         	6.872          	0.027
MS.461         	6.858          	0.028
MS.462         	6.845          	0.031
MS.463         	6.83           	0.028
MS.464         	6.817          	0.027
MS.465         	6.802          	0.162
MS.466         	6.79           	0.029
MS.467         	6.775          	0.028
MS.468         	6.762          	0.031
MS.469         	6.747          	0.028
MS.470         	6.735          	0.032
MS.471         	6.722          	0.027
MS.472         	6.707          	0.028
MS.473         	6.695          	0.015
MS.474         	6.682          	0.031
MS.475         	6.668          	0.031
MS.476         	6.655          	0.029
MS.477         	6.642          	0.012
MS.478         	6.628          	0.013
MS.479         	6.615          	0.013
MS.480         	6.602          	0.024
MS.481         	6.587          	0.028
MS.482         	6.575          	0.027
MS.483         	6.562          	0.013
MS.484         	6.55           	0.015
MS.485         	6.535          	0.011
MS.486         	6.523          	0.013
MS.487         	6.51           	0.013
MS.488         	6.497          	0.009
MS.489         	6.485          	0.01
MS.490         	6.47           	0.013
MS.491         	6.457          	0.012
MS.492         	6.445          	0.016
MS.493         	6.432          	0.015
MS.494         	6.42           	0.01
MS.495         	6.407          	0.009
MS.496         	6.395          	0.015
MS.497         	6.38           	0.012
MS.498         	6.367          	0.015
MS.499         	6.355          	0.016
MS.500         	6.342          	0.016
MS.501         	6.33           	0.012
