File:              	C:\Qtrac\Data\Daniel M Sørensen\MScan multicentre study\Data from centres\Ankara\Processed data\ÇCC10114A.QZD
Name:              	TR.ANK.NC.3.1
Protocol:          	MSCAN-R2
Date:              	14/1/21
Start time:        	19:43:15
Age:               	28
Sex:               	M
Temperature:
S/R sites:         	APB
NC/disease:        	NC
Operator:          	HA
Comments:
M-SCAN DATA (5.9-1.7m)
Scanpts: 3, 8, 443, 465
Stim. (mA)     	Amp. (mV)
MS.1           	21.5           	9.044
MS.2           	21.5           	9.048
MS.3           	21.5           	9.074
MS.4           	21.5           	9.031
MS.5           	21.5           	9.001
MS.6           	21.5           	9.007
MS.7           	21.5           	9.019
MS.8           	21.5           	8.933
MS.9           	21.5           	8.923
MS.10          	21.5           	8.957
MS.11          	21.5           	8.933
MS.12          	21.5           	8.852
MS.13          	21.5           	8.893
MS.14          	21.5           	8.901
MS.15          	21.5           	8.876
MS.16          	21.5           	8.846
MS.17          	21.5           	8.792
MS.18          	21.5           	8.84
MS.19          	21.5           	8.846
MS.20          	21.5           	8.776
MS.21          	21.5           	8.84
MS.22          	21.5           	8.844
MS.23          	21.5           	8.864
MS.24          	21.458         	8.778
MS.25          	21.415         	8.842
MS.26          	21.372         	8.858
MS.27          	21.327         	8.87
MS.28          	21.285         	8.868
MS.29          	21.243         	8.854
MS.30          	21.2           	8.802
MS.31          	21.157         	8.82
MS.32          	21.118         	8.834
MS.33          	21.075         	8.84
MS.34          	21.032         	8.826
MS.35          	20.99          	8.895
MS.36          	20.948         	8.891
MS.37          	20.907         	8.832
MS.38          	20.865         	8.83
MS.39          	20.823         	8.84
MS.40          	20.782         	8.844
MS.41          	20.74          	8.848
MS.42          	20.698         	8.625
MS.43          	20.657         	8.858
MS.44          	20.615         	8.862
MS.45          	20.575         	8.856
MS.46          	20.532         	8.85
MS.47          	20.493         	8.844
MS.48          	20.452         	8.536
MS.49          	20.41          	8.84
MS.50          	20.37          	8.842
MS.51          	20.33          	8.844
MS.52          	20.288         	8.844
MS.53          	20.247         	8.832
MS.54          	20.208         	8.848
MS.55          	20.167         	8.846
MS.56          	20.127         	8.818
MS.57          	20.087         	8.647
MS.58          	20.047         	8.852
MS.59          	20.007         	8.85
MS.60          	19.967         	8.838
MS.61          	19.927         	8.85
MS.62          	19.887         	8.842
MS.63          	19.847         	8.661
MS.64          	19.807         	8.643
MS.65          	19.767         	8.858
MS.66          	19.727         	8.627
MS.67          	19.69          	8.667
MS.68          	19.65          	8.864
MS.69          	19.61          	8.659
MS.70          	19.57          	8.862
MS.71          	19.532         	8.884
MS.72          	19.493         	8.681
MS.73          	19.455         	8.665
MS.74          	19.415         	8.685
MS.75          	19.377         	8.659
MS.76          	19.337         	8.677
MS.77          	19.3           	8.701
MS.78          	19.26          	8.649
MS.79          	19.222         	8.691
MS.80          	19.182         	8.699
MS.81          	19.145         	8.888
MS.82          	19.108         	8.693
MS.83          	19.07          	8.669
MS.84          	19.03          	8.683
MS.85          	18.993         	8.679
MS.86          	18.955         	8.733
MS.87          	18.917         	8.758
MS.88          	18.88          	8.776
MS.89          	18.842         	8.719
MS.90          	18.802         	8.737
MS.91          	18.765         	8.721
MS.92          	18.727         	8.594
MS.93          	18.69          	8.665
MS.94          	18.655         	8.681
MS.95          	18.618         	8.677
MS.96          	18.58          	8.691
MS.97          	18.542         	8.596
MS.98          	18.505         	8.548
MS.99          	18.467         	8.556
MS.100         	18.432         	8.433
MS.101         	18.395         	8.588
MS.102         	18.358         	8.59
MS.103         	18.32          	8.488
MS.104         	18.285         	8.556
MS.105         	18.247         	8.468
MS.106         	18.212         	8.508
MS.107         	18.175         	8.427
MS.108         	18.14          	8.586
MS.109         	18.102         	8.314
MS.110         	18.067         	8.512
MS.111         	18.03          	8.312
MS.112         	17.995         	8.353
MS.113         	17.958         	8.419
MS.114         	17.922         	8.403
MS.115         	17.887         	8.278
MS.116         	17.85          	8.242
MS.117         	17.815         	8.298
MS.118         	17.78          	8.316
MS.119         	17.745         	7.791
MS.120         	17.708         	8.32
MS.121         	17.672         	7.94
MS.122         	17.637         	7.74
MS.123         	17.602         	8.036
MS.124         	17.567         	7.738
MS.125         	17.532         	8.032
MS.126         	17.497         	7.946
MS.127         	17.462         	8.028
MS.128         	17.427         	7.984
MS.129         	17.392         	7.98
MS.130         	17.358         	7.885
MS.131         	17.323         	7.887
MS.132         	17.288         	7.843
MS.133         	17.255         	7.799
MS.134         	17.22          	7.585
MS.135         	17.185         	7.569
MS.136         	17.15          	7.632
MS.137         	17.118         	7.521
MS.138         	17.083         	7.444
MS.139         	17.047         	7.471
MS.140         	17.015         	7.414
MS.141         	16.98          	7.402
MS.142         	16.948         	7.446
MS.143         	16.913         	7.676
MS.144         	16.878         	7.873
MS.145         	16.845         	7.436
MS.146         	16.812         	7.309
MS.147         	16.778         	7.16
MS.148         	16.745         	7.442
MS.149         	16.71          	7.251
MS.150         	16.677         	7.394
MS.151         	16.645         	7.595
MS.152         	16.61          	7.106
MS.153         	16.577         	7.279
MS.154         	16.545         	7.158
MS.155         	16.512         	7.193
MS.156         	16.477         	6.961
MS.157         	16.445         	7.013
MS.158         	16.413         	7.074
MS.159         	16.38          	7.162
MS.160         	16.347         	7.104
MS.161         	16.315         	6.864
MS.162         	16.282         	7.042
MS.163         	16.25          	7.164
MS.164         	16.217         	7.086
MS.165         	16.185         	6.776
MS.166         	16.153         	6.794
MS.167         	16.12          	6.921
MS.168         	16.087         	6.965
MS.169         	16.055         	6.929
MS.170         	16.022         	7.084
MS.171         	15.992         	6.639
MS.172         	15.96          	6.729
MS.173         	15.927         	6.788
MS.174         	15.895         	6.82
MS.175         	15.865         	6.153
MS.176         	15.832         	6.32
MS.177         	15.8           	6.316
MS.178         	15.77          	6.586
MS.179         	15.737         	6.542
MS.180         	15.705         	6.141
MS.181         	15.675         	6.099
MS.182         	15.642         	5.756
MS.183         	15.612         	6.173
MS.184         	15.58          	6.361
MS.185         	15.55          	5.853
MS.186         	15.52          	5.716
MS.187         	15.487         	6.137
MS.188         	15.457         	5.724
MS.189         	15.425         	5.642
MS.190         	15.395         	5.678
MS.191         	15.365         	5.281
MS.192         	15.332         	5.215
MS.193         	15.302         	5.424
MS.194         	15.273         	5.265
MS.195         	15.242         	5.416
MS.196         	15.212         	4.937
MS.197         	15.18          	4.88
MS.198         	15.15          	5.199
MS.199         	15.12          	5.247
MS.200         	15.09          	5.072
MS.201         	15.06          	4.719
MS.202         	15.03          	4.949
MS.203         	15             	5.015
MS.204         	14.97          	5.193
MS.205         	14.94          	5.023
MS.206         	14.91          	4.83
MS.207         	14.88          	4.715
MS.208         	14.85          	4.574
MS.209         	14.82          	4.62
MS.210         	14.792         	4.88
MS.211         	14.762         	4.193
MS.212         	14.733         	4.56
MS.213         	14.702         	4.572
MS.214         	14.672         	4.528
MS.215         	14.645         	4.381
MS.216         	14.615         	4.336
MS.217         	14.585         	4.3
MS.218         	14.557         	4.145
MS.219         	14.527         	4.179
MS.220         	14.497         	3.897
MS.221         	14.47          	4.125
MS.222         	14.44          	3.758
MS.223         	14.412         	3.869
MS.224         	14.382         	3.839
MS.225         	14.355         	3.829
MS.226         	14.325         	3.619
MS.227         	14.297         	3.267
MS.228         	14.267         	3.358
MS.229         	14.24          	2.782
MS.230         	14.212         	3.354
MS.231         	14.182         	3.501
MS.232         	14.155         	3.019
MS.233         	14.127         	2.973
MS.234         	14.097         	3.186
MS.235         	14.07          	2.906
MS.236         	14.042         	2.945
MS.237         	14.015         	2.973
MS.238         	13.985         	2.931
MS.239         	13.957         	2.923
MS.240         	13.93          	2.697
MS.241         	13.903         	2.687
MS.242         	13.875         	2.709
MS.243         	13.847         	2.469
MS.244         	13.82          	2.792
MS.245         	13.792         	2.471
MS.246         	13.765         	2.141
MS.247         	13.737         	2.199
MS.248         	13.71          	2.109
MS.249         	13.682         	2.091
MS.250         	13.655         	2.302
MS.251         	13.627         	2.23
MS.252         	13.6           	2.071
MS.253         	13.572         	2.165
MS.254         	13.545         	1.986
MS.255         	13.517         	2.127
MS.256         	13.492         	2.038
MS.257         	13.465         	1.99
MS.258         	13.438         	1.68
MS.259         	13.41          	1.964
MS.260         	13.385         	2.028
MS.261         	13.358         	1.575
MS.262         	13.33          	1.563
MS.263         	13.305         	1.738
MS.264         	13.278         	1.648
MS.265         	13.25          	1.718
MS.266         	13.225         	1.509
MS.267         	13.197         	1.492
MS.268         	13.172         	1.404
MS.269         	13.145         	1.446
MS.270         	13.12          	1.46
MS.271         	13.092         	1.368
MS.272         	13.068         	1.219
MS.273         	13.04          	1.48
MS.274         	13.015         	1.42
MS.275         	12.987         	1.708
MS.276         	12.962         	1.257
MS.277         	12.938         	1.444
MS.278         	12.91          	1.497
MS.279         	12.885         	1.273
MS.280         	12.86          	1.198
MS.281         	12.832         	1.172
MS.282         	12.807         	1.086
MS.283         	12.782         	1.132
MS.284         	12.757         	0.876
MS.285         	12.73          	1.025
MS.286         	12.705         	0.816
MS.287         	12.68          	1.025
MS.288         	12.655         	0.844
MS.289         	12.63          	1.154
MS.290         	12.605         	0.854
MS.291         	12.58          	0.798
MS.292         	12.555         	0.88
MS.293         	12.53          	0.775
MS.294         	12.505         	0.842
MS.295         	12.48          	0.524
MS.296         	12.455         	0.792
MS.297         	12.43          	0.717
MS.298         	12.405         	0.733
MS.299         	12.38          	0.542
MS.300         	12.355         	0.554
MS.301         	12.33          	0.691
MS.302         	12.305         	0.449
MS.303         	12.28          	0.544
MS.304         	12.257         	0.502
MS.305         	12.233         	0.481
MS.306         	12.207         	0.544
MS.307         	12.182         	0.56
MS.308         	12.16          	0.628
MS.309         	12.135         	0.465
MS.310         	12.11          	0.461
MS.311         	12.085         	0.284
MS.312         	12.062         	0.427
MS.313         	12.037         	0.308
MS.314         	12.015         	0.401
MS.315         	11.99          	0.306
MS.316         	11.965         	0.31
MS.317         	11.943         	0.282
MS.318         	11.917         	0.361
MS.319         	11.895         	0.266
MS.320         	11.87          	0.367
MS.321         	11.847         	0.24
MS.322         	11.822         	0.298
MS.323         	11.8           	0.294
MS.324         	11.775         	0.242
MS.325         	11.752         	0.276
MS.326         	11.73          	0.209
MS.327         	11.705         	0.226
MS.328         	11.682         	0.228
MS.329         	11.657         	0.193
MS.330         	11.635         	0.27
MS.331         	11.613         	0.173
MS.332         	11.59          	0.209
MS.333         	11.565         	0.218
MS.334         	11.542         	0.22
MS.335         	11.52          	0.171
MS.336         	11.497         	0.214
MS.337         	11.472         	0.177
MS.338         	11.45          	0.199
MS.339         	11.427         	0.195
MS.340         	11.405         	0.197
MS.341         	11.382         	0.167
MS.342         	11.36          	0.177
MS.343         	11.337         	0.193
MS.344         	11.315         	0.187
MS.345         	11.292         	0.159
MS.346         	11.27          	0.167
MS.347         	11.247         	0.167
MS.348         	11.225         	0.177
MS.349         	11.202         	0.169
MS.350         	11.18          	0.165
MS.351         	11.157         	0.167
MS.352         	11.135         	0.165
MS.353         	11.113         	0.167
MS.354         	11.09          	0.133
MS.355         	11.068         	0.165
MS.356         	11.045         	0.123
MS.357         	11.025         	0.137
MS.358         	11.002         	0.157
MS.359         	10.98          	0.125
MS.360         	10.957         	0.121
MS.361         	10.935         	0.149
MS.362         	10.915         	0.125
MS.363         	10.892         	0.123
MS.364         	10.87          	0.127
MS.365         	10.85          	0.125
MS.366         	10.827         	0.117
MS.367         	10.805         	0.151
MS.368         	10.785         	0.147
MS.369         	10.762         	0.119
MS.370         	10.74          	0.151
MS.371         	10.72          	0.083
MS.372         	10.698         	0.123
MS.373         	10.677         	0.087
MS.374         	10.655         	0.117
MS.375         	10.635         	0.153
MS.376         	10.613         	0.123
MS.377         	10.592         	0.125
MS.378         	10.57          	0.115
MS.379         	10.55          	0.123
MS.380         	10.528         	0.129
MS.381         	10.507         	0.085
MS.382         	10.485         	0.089
MS.383         	10.465         	0.085
MS.384         	10.445         	0.087
MS.385         	10.422         	0.085
MS.386         	10.403         	0.119
MS.387         	10.382         	0.087
MS.388         	10.36          	0.123
MS.389         	10.34          	0.085
MS.390         	10.32          	0.089
MS.391         	10.3           	0.115
MS.392         	10.278         	0.087
MS.393         	10.257         	0.087
MS.394         	10.238         	0.089
MS.395         	10.217         	0.085
MS.396         	10.198         	0.087
MS.397         	10.175         	0.083
MS.398         	10.155         	0.083
MS.399         	10.135         	0.083
MS.400         	10.115         	0.085
MS.401         	10.095         	0.085
MS.402         	10.075         	0.087
MS.403         	10.055         	0.083
MS.404         	10.035         	0.087
MS.405         	10.015         	0.085
MS.406         	9.995          	0.081
MS.407         	9.975          	0.085
MS.408         	9.955          	0.085
MS.409         	9.935          	0.087
MS.410         	9.915          	0.087
MS.411         	9.895          	0.085
MS.412         	9.875          	0.075
MS.413         	9.855          	0.083
MS.414         	9.835          	0.075
MS.415         	9.818          	0.075
MS.416         	9.797          	0.081
MS.417         	9.778          	0.081
MS.418         	9.757          	0.085
MS.419         	9.738          	0.089
MS.420         	9.717          	0.077
MS.421         	9.7            	0.079
MS.422         	9.68           	0.077
MS.423         	9.66           	0.085
MS.424         	9.642          	0.073
MS.425         	9.622          	0.087
MS.426         	9.602          	0.079
MS.427         	9.582          	0.079
MS.428         	9.565          	0.079
MS.429         	9.545          	0.079
MS.430         	9.528          	0.079
MS.431         	9.507          	0.079
MS.432         	9.488          	0.077
MS.433         	9.47           	0.077
MS.434         	9.45           	0.077
MS.435         	9.432          	0.087
MS.436         	9.412          	0.075
MS.437         	9.395          	0.079
MS.438         	9.375          	0.087
MS.439         	9.358          	0.079
MS.440         	9.337          	0.077
MS.441         	9.32           	0.083
MS.442         	9.3            	0.083
MS.443         	9.283          	0.079
MS.444         	9.262          	0.073
MS.445         	9.245          	0.077
MS.446         	9.227          	0.075
MS.447         	9.207          	0.077
MS.448         	9.19           	0.077
MS.449         	9.17           	0.077
MS.450         	9.153          	0.077
MS.451         	9.135          	0.081
MS.452         	9.115          	0.075
MS.453         	9.097          	0.079
MS.454         	9.08           	0.081
MS.455         	9.062          	0.077
MS.456         	9.042          	0.077
MS.457         	9.025          	0.075
MS.458         	9.007          	0.081
MS.459         	8.99           	0.081
MS.460         	8.972          	0.081
MS.461         	8.952          	0.079
MS.462         	8.935          	0.081
MS.463         	8.917          	0.081
MS.464         	8.9            	0.079
MS.465         	8.882          	0.077
DERIVED EXCITABILITY VARIABLES
Program = QTracP 3/4/2020
Threshold method = 6 (optimised for CAP, using data for present condition only)
SR method = 1 (using actual data values)
6.                 	0.000               	Peak response\(mV)
17.                	28                  	Age (years)
18.                	1                   	Sex (M=1, F=2)

EXTRA VARIABLES

MScPeak(mV) = 8.84
MScS5(mA) = 12.11
MScS50(mA) = 14.72
MScS95(mA) = 18.03
MScNSteps = 7
MScSteps(%) = 17.2
MScStepMax(%) = 2.8
MScD50 = 36
MScSlope = 6.69
MSFPeakAmp(mV) = 8.93
MSFNUnits = 104
MSFMeanUnitAmp(uV) = 85.9
MSFHuntTime(m) = 2.58
MSFError(%) = 3.82
MSFNLarge = 32.11
MSFMedianAmp(%) = 0.885
MSFMedianAmp(mV) = 0.0791
MSFHalfAmpAmp(%) = 1.16
MSFHalfAmpAmp(mV) = 0.104
MSFLargestAmp(%) = 3.01
MSFLargestAmp(mV) = 0.269
MSFMeanRS(%) = 2.01
MSFOpts = 10106121
MScDuration(min) = 4.2
MSFTraces = 463
MSFSizeLimit(uV) = 22.3
MSFLimitType = 1
MSFSmallestAmp(uV) = 23.3

EXTRA WAVEFORMS


!MScan Model
!104
	1	10.47	0.29	2
	2	10.9	0.45	2
	3	11.45	0.56	2
	4	11.66	0.4	2
	5	11.77	0.36	2
	6	11.89	0.53	2
	7	11.98	0.46	2
	8	12.07	0.8	2
	9	12.21	1.12	2
	10	12.3	0.66	2
	11	12.35	0.26	2
	12	12.4	0.64	2
	13	12.46	0.65	2
	14	12.52	0.81	2
	15	12.62	1	2
	16	12.69	0.9	2
	17	12.73	0.99	2
	18	12.79	1.07	2
	19	12.86	1.01	2
	20	13.08	2.37	2
	21	13.21	1.25	2
	22	13.26	0.7	2
	23	13.31	0.86	2
