File:              	C:\Qtrac\Data\Daniel M Sørensen\MScan multicentre study\Data from centres\Aarhus\Processed data\DMSB91217A.QZD
Name:              	DK.AAR.NC.8.2
Protocol:          	MSCAN-R2
Date:              	17/12/19
Start time:        	11:40:31
Age:               	75
Sex:               	m
Temperature:       	35,2
S/R sites:         	APB
NC/disease:        	Control
Operator:          	DS
Comments:
M-SCAN DATA (8.9-3.2m)
Scanpts: 98, 105, 591, 612
Stim. (mA)     	Amp. (mV)
MS.1           	27.5           	8.572
MS.2           	27.5           	8.578
MS.3           	27.5           	8.552
MS.4           	27.5           	8.572
MS.5           	27.5           	8.536
MS.6           	27.5           	8.534
MS.7           	27.5           	8.516
MS.8           	27.5           	8.532
MS.9           	27.5           	8.54
MS.10          	27.5           	8.538
MS.11          	27.5           	8.528
MS.12          	27.5           	8.502
MS.13          	27.5           	8.508
MS.14          	27.5           	8.536
MS.15          	27.5           	8.474
MS.16          	27.5           	8.186
MS.17          	27.5           	8.558
MS.18          	27.5           	8.554
MS.19          	27.5           	8.596
MS.20          	27.5           	8.536
MS.21          	27.5           	8.582
MS.22          	27.5           	8.536
MS.23          	27.5           	8.522
MS.24          	27.39          	8.542
MS.25          	27.28          	8.502
MS.26          	27.227         	8.57
MS.27          	27.172         	8.407
MS.28          	27.118         	8.566
MS.29          	27.062         	8.522
MS.30          	27.01          	8.534
MS.31          	26.955         	8.546
MS.32          	26.903         	8.6
MS.33          	26.847         	8.607
MS.34          	26.795         	8.584
MS.35          	26.74          	8.558
MS.36          	26.688         	8.576
MS.37          	26.635         	8.58
MS.38          	26.58          	8.582
MS.39          	26.528         	8.56
MS.40          	26.475         	8.564
MS.41          	26.422         	8.568
MS.42          	26.37          	8.544
MS.43          	26.315         	8.556
MS.44          	26.262         	8.562
MS.45          	26.21          	8.59
MS.46          	26.157         	8.602
MS.47          	26.108         	8.623
MS.48          	26.055         	8.602
MS.49          	26.002         	8.578
MS.50          	25.95          	8.59
MS.51          	25.897         	8.582
MS.52          	25.847         	8.588
MS.53          	25.795         	8.532
MS.54          	25.743         	8.562
MS.55          	25.692         	8.578
MS.56          	25.64          	8.564
MS.57          	25.59          	8.564
MS.58          	25.538         	8.562
MS.59          	25.487         	8.546
MS.60          	25.438         	8.613
MS.61          	25.385         	8.574
MS.62          	25.335         	8.576
MS.63          	25.285         	8.576
MS.64          	25.233         	8.596
MS.65          	25.182         	8.617
MS.66          	25.132         	8.613
MS.67          	25.082         	8.623
MS.68          	25.032         	8.629
MS.69          	24.983         	8.604
MS.70          	24.932         	8.635
MS.71          	24.882         	8.617
MS.72          	24.832         	8.627
MS.73          	24.782         	8.602
MS.74          	24.735         	8.621
MS.75          	24.685         	8.592
MS.76          	24.635         	8.592
MS.77          	24.585         	8.576
MS.78          	24.538         	8.584
MS.79          	24.487         	8.58
MS.80          	24.44          	8.576
MS.81          	24.39          	8.586
MS.82          	24.342         	8.574
MS.83          	24.292         	8.576
MS.84          	24.245         	8.592
MS.85          	24.195         	8.592
MS.86          	24.147         	8.598
MS.87          	24.1           	8.5
MS.88          	24.05          	8.598
MS.89          	24.002         	8.59
MS.90          	23.955         	8.578
MS.91          	23.907         	8.582
MS.92          	23.86          	8.619
MS.93          	23.812         	8.637
MS.94          	23.765         	8.619
MS.95          	23.717         	8.607
MS.96          	23.67          	8.609
MS.97          	23.622         	8.611
MS.98          	23.575         	8.615
MS.99          	23.528         	8.611
MS.100         	23.48          	8.609
MS.101         	23.435         	8.6
MS.102         	23.387         	8.598
MS.103         	23.34          	8.627
MS.104         	23.292         	8.615
MS.105         	23.247         	8.613
MS.106         	23.2           	8.602
MS.107         	23.155         	8.568
MS.108         	23.108         	8.59
MS.109         	23.062         	8.602
MS.110         	23.015         	8.604
MS.111         	22.97          	8.598
MS.112         	22.925         	8.607
MS.113         	22.877         	8.611
MS.114         	22.832         	8.562
MS.115         	22.788         	8.588
MS.116         	22.743         	8.586
MS.117         	22.695         	8.586
MS.118         	22.65          	8.586
MS.119         	22.605         	8.596
MS.120         	22.56          	8.598
MS.121         	22.515         	8.594
MS.122         	22.47          	8.59
MS.123         	22.425         	8.615
MS.124         	22.38          	8.588
MS.125         	22.335         	8.584
MS.126         	22.29          	8.584
MS.127         	22.247         	8.586
MS.128         	22.202         	8.592
MS.129         	22.157         	8.568
MS.130         	22.112         	8.574
MS.131         	22.07          	8.532
MS.132         	22.025         	8.568
MS.133         	21.98          	8.562
MS.134         	21.938         	8.564
MS.135         	21.892         	8.564
MS.136         	21.85          	8.566
MS.137         	21.805         	8.56
MS.138         	21.762         	8.566
MS.139         	21.72          	8.472
MS.140         	21.675         	8.578
MS.141         	21.632         	8.534
MS.142         	21.59          	8.578
MS.143         	21.545         	8.574
MS.144         	21.502         	8.588
MS.145         	21.46          	8.447
MS.146         	21.417         	8.431
MS.147         	21.375         	8.455
MS.148         	21.333         	8.381
MS.149         	21.29          	8.21
MS.150         	21.247         	8.381
MS.151         	21.205         	8.431
MS.152         	21.163         	8.27
MS.153         	21.12          	8.188
MS.154         	21.077         	8.425
MS.155         	21.035         	8.157
MS.156         	20.993         	8.238
MS.157         	20.95          	8.254
MS.158         	20.91          	8.264
MS.159         	20.868         	8.351
MS.160         	20.825         	8.19
MS.161         	20.785         	8.184
MS.162         	20.743         	8.188
MS.163         	20.7           	8.188
MS.164         	20.66          	8.343
MS.165         	20.618         	8.18
MS.166         	20.577         	8.149
MS.167         	20.535         	8.186
MS.168         	20.495         	8.18
MS.169         	20.455         	8.167
MS.170         	20.413         	8.188
MS.171         	20.372         	8.173
MS.172         	20.333         	8.131
MS.173         	20.29          	8.119
MS.174         	20.25          	8.113
MS.175         	20.21          	7.902
MS.176         	20.17          	8.167
MS.177         	20.13          	8.125
MS.178         	20.09          	8.099
MS.179         	20.05          	8.139
MS.180         	20.01          	8.131
MS.181         	19.97          	8.133
MS.182         	19.93          	8.089
MS.183         	19.89          	8.184
MS.184         	19.85          	8.131
MS.185         	19.81          	7.96
MS.186         	19.77          	8.091
MS.187         	19.73          	7.94
MS.188         	19.692         	8.091
MS.189         	19.653         	8.085
MS.190         	19.612         	8.089
MS.191         	19.573         	7.918
MS.192         	19.535         	7.994
MS.193         	19.495         	8.018
MS.194         	19.458         	8.004
MS.195         	19.417         	8.131
MS.196         	19.38          	8.095
MS.197         	19.34          	7.835
MS.198         	19.302         	7.861
MS.199         	19.262         	7.829
MS.200         	19.225         	7.863
MS.201         	19.185         	7.835
MS.202         	19.147         	7.803
MS.203         	19.11          	7.813
MS.204         	19.07          	7.829
MS.205         	19.032         	7.755
MS.206         	18.995         	7.74
MS.207         	18.958         	7.724
MS.208         	18.92          	7.791
MS.209         	18.882         	7.557
MS.210         	18.845         	7.819
MS.211         	18.805         	7.757
MS.212         	18.767         	7.688
MS.213         	18.73          	7.386
MS.214         	18.692         	7.495
MS.215         	18.657         	7.388
MS.216         	18.62          	7.674
MS.217         	18.583         	7.394
MS.218         	18.545         	7.402
MS.219         	18.507         	7.396
MS.220         	18.47          	7.388
MS.221         	18.432         	7.235
MS.222         	18.397         	7.376
MS.223         	18.36          	7.156
MS.224         	18.323         	7.428
MS.225         	18.288         	7.207
MS.226         	18.25          	7.388
MS.227         	18.215         	7.255
MS.228         	18.177         	7.291
MS.229         	18.14          	7.251
MS.230         	18.105         	7.275
MS.231         	18.067         	7.394
MS.232         	18.032         	7.225
MS.233         	17.997         	7.426
MS.234         	17.96          	7.263
MS.235         	17.925         	7.38
MS.236         	17.89          	7.132
MS.237         	17.852         	7.05
MS.238         	17.817         	7.019
MS.239         	17.782         	7.007
MS.240         	17.747         	7.301
MS.241         	17.71          	7.197
MS.242         	17.675         	7.434
MS.243         	17.64          	7.66
MS.244         	17.605         	7.456
MS.245         	17.57          	7.247
MS.246         	17.535         	7.352
MS.247         	17.5           	7.156
MS.248         	17.465         	6.911
MS.249         	17.43          	6.484
MS.250         	17.395         	6.623
MS.251         	17.36          	6.627
MS.252         	17.325         	6.6
MS.253         	17.29          	6.53
MS.254         	17.257         	6.546
MS.255         	17.222         	6.548
MS.256         	17.188         	6.494
MS.257         	17.153         	6.421
MS.258         	17.12          	6.349
MS.259         	17.085         	6.337
MS.260         	17.05          	6.437
MS.261         	17.017         	6.246
MS.262         	16.983         	6.179
MS.263         	16.948         	6.252
MS.264         	16.915         	6.254
MS.265         	16.88          	6.192
MS.266         	16.847         	6.276
MS.267         	16.812         	6.214
MS.268         	16.78          	6.032
MS.269         	16.747         	6.101
MS.270         	16.712         	6.04
MS.271         	16.68          	5.954
MS.272         	16.645         	6.099
MS.273         	16.612         	6.022
MS.274         	16.58          	6.047
MS.275         	16.547         	6.065
MS.276         	16.512         	6.165
MS.277         	16.48          	5.924
MS.278         	16.448         	5.938
MS.279         	16.415         	5.881
MS.280         	16.382         	5.841
MS.281         	16.35          	5.889
MS.282         	16.317         	5.869
MS.283         	16.285         	5.895
MS.284         	16.253         	5.875
MS.285         	16.22          	5.827
MS.286         	16.188         	5.76
MS.287         	16.155         	5.767
MS.288         	16.122         	5.805
MS.289         	16.09          	5.881
MS.290         	16.057         	5.835
MS.291         	16.025         	5.716
MS.292         	15.992         	5.702
MS.293         	15.962         	5.748
MS.294         	15.93          	5.841
MS.295         	15.898         	5.748
MS.296         	15.865         	5.599
MS.297         	15.835         	5.666
MS.298         	15.802         	5.636
MS.299         	15.77          	5.607
MS.300         	15.74          	5.394
MS.301         	15.707         	5.354
MS.302         	15.677         	5.493
MS.303         	15.645         	5.348
MS.304         	15.615         	5.346
MS.305         	15.582         	5.45
MS.306         	15.552         	5.309
MS.307         	15.52          	5.122
MS.308         	15.49          	5.168
MS.309         	15.46          	5.289
MS.310         	15.427         	5.009
MS.311         	15.398         	5.126
MS.312         	15.367         	5.035
MS.313         	15.335         	4.85
MS.314         	15.305         	5.154
MS.315         	15.275         	4.872
MS.316         	15.245         	5.035
MS.317         	15.212         	4.951
MS.318         	15.182         	4.884
MS.319         	15.152         	4.979
MS.320         	15.122         	4.868
MS.321         	15.092         	5.197
MS.322         	15.062         	5.124
MS.323         	15.032         	5.054
MS.324         	15.002         	4.882
MS.325         	14.972         	4.898
MS.326         	14.943         	5.066
MS.327         	14.912         	5.35
MS.328         	14.882         	4.949
MS.329         	14.852         	5.197
MS.330         	14.822         	4.967
MS.331         	14.792         	4.931
MS.332         	14.765         	4.967
MS.333         	14.735         	4.85
MS.334         	14.705         	5.052
MS.335         	14.675         	4.852
MS.336         	14.645         	4.8
MS.337         	14.617         	4.796
MS.338         	14.587         	4.399
MS.339         	14.557         	4.796
MS.340         	14.53          	4.872
MS.341         	14.5           	4.81
MS.342         	14.472         	4.232
MS.343         	14.443         	4.774
MS.344         	14.412         	4.798
MS.345         	14.385         	4.707
MS.346         	14.355         	3.942
MS.347         	14.327         	4.669
MS.348         	14.3           	4.703
MS.349         	14.27          	4.093
MS.350         	14.242         	4.145
MS.351         	14.212         	4.111
MS.352         	14.185         	4.23
MS.353         	14.157         	4.073
MS.354         	14.127         	4.024
MS.355         	14.1           	4.093
MS.356         	14.072         	3.952
MS.357         	14.045         	3.758
MS.358         	14.015         	3.974
MS.359         	13.987         	3.595
MS.360         	13.96          	4.093
MS.361         	13.932         	3.664
MS.362         	13.905         	3.515
MS.363         	13.877         	3.547
MS.364         	13.847         	3.764
MS.365         	13.82          	3.515
MS.366         	13.792         	3.658
MS.367         	13.765         	3.74
MS.368         	13.737         	3.499
MS.369         	13.71          	3.698
MS.370         	13.682         	3.625
MS.371         	13.655         	3.547
MS.372         	13.63          	3.472
MS.373         	13.602         	3.4
MS.374         	13.575         	3.376
MS.375         	13.547         	3.368
MS.376         	13.52          	3.295
MS.377         	13.492         	3.313
MS.378         	13.465         	3.273
MS.379         	13.44          	3.049
MS.380         	13.412         	3.162
MS.381         	13.385         	3.178
MS.382         	13.36          	3.186
MS.383         	13.332         	3.277
MS.384         	13.305         	3.114
MS.385         	13.28          	3.11
MS.386         	13.252         	3.035
MS.387         	13.225         	2.993
MS.388         	13.2           	2.981
MS.389         	13.172         	2.977
MS.390         	13.148         	3.064
MS.391         	13.12          	2.959
MS.392         	13.095         	3.047
MS.393         	13.068         	2.985
MS.394         	13.042         	2.81
MS.395         	13.015         	2.83
MS.396         	12.99          	2.767
MS.397         	12.965         	2.87
MS.398         	12.938         	2.759
MS.399         	12.912         	2.713
MS.400         	12.887         	2.904
MS.401         	12.86          	2.85
MS.402         	12.835         	2.598
MS.403         	12.81          	2.637
MS.404         	12.785         	2.602
MS.405         	12.757         	2.828
MS.406         	12.733         	2.512
MS.407         	12.707         	2.419
MS.408         	12.682         	2.496
MS.409         	12.657         	2.451
MS.410         	12.632         	2.369
MS.411         	12.605         	2.451
MS.412         	12.58          	2.276
MS.413         	12.555         	2.427
MS.414         	12.53          	2.224
MS.415         	12.505         	2.089
MS.416         	12.48          	2.153
MS.417         	12.455         	2.135
MS.418         	12.43          	2.155
MS.419         	12.405         	2.067
MS.420         	12.38          	2.067
MS.421         	12.358         	2
MS.422         	12.332         	1.984
MS.423         	12.307         	1.968
MS.424         	12.282         	1.911
MS.425         	12.257         	1.936
MS.426         	12.233         	1.907
MS.427         	12.21          	1.922
MS.428         	12.185         	1.958
MS.429         	12.16          	1.839
MS.430         	12.135         	1.857
MS.431         	12.113         	1.825
MS.432         	12.087         	1.801
MS.433         	12.062         	1.883
MS.434         	12.04          	1.7
MS.435         	12.015         	1.658
MS.436         	11.992         	1.72
MS.437         	11.967         	1.623
MS.438         	11.943         	1.692
MS.439         	11.92          	1.722
MS.440         	11.895         	1.662
MS.441         	11.872         	1.69
MS.442         	11.847         	1.47
MS.443         	11.825         	1.72
MS.444         	11.8           	1.501
MS.445         	11.778         	1.533
MS.446         	11.755         	1.509
MS.447         	11.73          	1.374
MS.448         	11.707         	1.654
MS.449         	11.682         	1.368
MS.450         	11.66          	1.281
MS.451         	11.637         	1.611
MS.452         	11.613         	1.202
MS.453         	11.59          	1.208
MS.454         	11.568         	1.094
MS.455         	11.545         	1.19
MS.456         	11.52          	1.271
MS.457         	11.497         	0.914
MS.458         	11.475         	1.756
MS.459         	11.452         	1.781
MS.460         	11.43          	1.559
MS.461         	11.407         	1.482
MS.462         	11.382         	1.599
MS.463         	11.36          	1.656
MS.464         	11.337         	1.748
MS.465         	11.315         	1.65
MS.466         	11.292         	1.72
MS.467         	11.27          	1.7
MS.468         	11.247         	1.66
MS.469         	11.225         	1.426
MS.470         	11.202         	1.523
MS.471         	11.18          	1.74
MS.472         	11.157         	1.426
MS.473         	11.135         	1.635
MS.474         	11.113         	1.438
MS.475         	11.092         	1.41
MS.476         	11.07          	1.237
MS.477         	11.047         	1.241
MS.478         	11.025         	1.434
MS.479         	11.002         	1.44
MS.480         	10.98          	1.378
MS.481         	10.96          	1.295
MS.482         	10.938         	1.086
MS.483         	10.915         	1.09
MS.484         	10.892         	1.102
MS.485         	10.872         	1.317
MS.486         	10.85          	0.876
MS.487         	10.827         	0.882
MS.488         	10.807         	0.882
MS.489         	10.785         	0.719
MS.490         	10.762         	1.094
MS.491         	10.742         	0.832
MS.492         	10.72          	0.82
MS.493         	10.7           	0.836
MS.494         	10.677         	0.632
MS.495         	10.657         	0.699
MS.496         	10.635         	0.554
MS.497         	10.615         	0.661
MS.498         	10.592         	0.657
MS.499         	10.573         	0.526
MS.500         	10.55          	0.552
MS.501         	10.53          	0.534
