File:              	C:\Qtrac\Data\Daniel M Sørensen\MScan multicentre study\Data from centres\Aarhus\Processed data\DMSC00211A.QZD
Name:              	DK.AAR.NC.2.2
Protocol:          	MSCAN-R2
Date:              	11/2/20
Start time:        	13:17:49
Age:               	35
Sex:               	f
Temperature:       	31,4
S/R sites:         	APB
NC/disease:        	Control
Operator:          	DS
Comments:
M-SCAN DATA (Repeat 2/2, 7.8-0.0m)
Scanpts: 105, 122, 535, 549
Stim. (mA)     	Amp. (mV)
MS.1           	11             	11.436
MS.2           	11             	11.459
MS.3           	10.977         	11.475
MS.4           	10.955         	11.455
MS.5           	10.935         	11.469
MS.6           	10.912         	11.469
MS.7           	10.89          	11.473
MS.8           	10.87          	11.477
MS.9           	10.847         	11.473
MS.10          	10.825         	11.475
MS.11          	10.805         	11.451
MS.12          	10.782         	11.44
MS.13          	10.76          	11.459
MS.14          	10.74          	11.479
MS.15          	10.717         	11.459
MS.16          	10.698         	11.473
MS.17          	10.675         	11.483
MS.18          	10.653         	11.471
MS.19          	10.632         	11.457
MS.20          	10.61          	11.442
MS.21          	10.59          	11.453
MS.22          	10.568         	11.444
MS.23          	10.547         	11.442
MS.24          	10.528         	11.457
MS.25          	10.505         	11.457
MS.26          	10.485         	11.455
MS.27          	10.462         	11.455
MS.28          	10.443         	11.461
MS.29          	10.422         	11.44
MS.30          	10.4           	11.489
MS.31          	10.38          	11.493
MS.32          	10.36          	11.485
MS.33          	10.337         	11.477
MS.34          	10.318         	11.489
MS.35          	10.297         	11.459
MS.36          	10.278         	11.463
MS.37          	10.257         	11.463
MS.38          	10.235         	11.493
MS.39          	10.215         	11.473
MS.40          	10.195         	11.477
MS.41          	10.175         	11.493
MS.42          	10.155         	11.483
MS.43          	10.135         	11.497
MS.44          	10.113         	11.479
MS.45          	10.092         	11.507
MS.46          	10.073         	11.491
MS.47          	10.052         	11.499
MS.48          	10.032         	11.495
MS.49          	10.012         	11.491
MS.50          	9.992          	11.497
MS.51          	9.972          	11.487
MS.52          	9.952          	11.497
MS.53          	9.932          	11.483
MS.54          	9.912          	11.501
MS.55          	9.892          	11.513
MS.56          	9.875          	11.501
MS.57          	9.855          	11.485
MS.58          	9.835          	11.501
MS.59          	9.815          	11.434
MS.60          	9.795          	11.495
MS.61          	9.775          	11.487
MS.62          	9.755          	11.503
MS.63          	9.738          	11.438
MS.64          	9.717          	11.501
MS.65          	9.698          	11.489
MS.66          	9.677          	11.438
MS.67          	9.66           	11.497
MS.68          	9.64           	11.436
MS.69          	9.62           	11.438
MS.70          	9.602          	11.501
MS.71          	9.582          	11.432
MS.72          	9.562          	11.442
MS.73          	9.545          	11.448
MS.74          	9.525          	11.455
MS.75          	9.505          	11.434
MS.76          	9.488          	11.501
MS.77          	9.467          	11.448
MS.78          	9.45           	11.499
MS.79          	9.43           	11.459
MS.80          	9.41           	11.444
MS.81          	9.392          	11.446
MS.82          	9.372          	11.451
MS.83          	9.355          	11.446
MS.84          	9.335          	11.459
MS.85          	9.318          	11.513
MS.86          	9.3            	11.505
MS.87          	9.28           	11.471
MS.88          	9.262          	11.461
MS.89          	9.242          	11.455
MS.90          	9.225          	11.465
MS.91          	9.207          	11.463
MS.92          	9.188          	11.467
MS.93          	9.17           	11.463
MS.94          	9.153          	11.469
MS.95          	9.132          	11.489
MS.96          	9.115          	11.479
MS.97          	9.097          	11.489
MS.98          	9.077          	11.497
MS.99          	9.06           	11.509
MS.100         	9.042          	11.531
MS.101         	9.025          	11.513
MS.102         	9.005          	11.511
MS.103         	8.988          	11.505
MS.104         	8.97           	11.501
MS.105         	8.952          	11.501
MS.106         	8.935          	11.503
MS.107         	8.917          	11.511
MS.108         	8.898          	11.503
MS.109         	8.88           	11.509
MS.110         	8.863          	11.507
MS.111         	8.845          	11.521
MS.112         	8.827          	11.505
MS.113         	8.81           	11.517
MS.114         	8.792          	11.525
MS.115         	8.775          	11.513
MS.116         	8.757          	11.517
MS.117         	8.74           	11.517
MS.118         	8.722          	11.517
MS.119         	8.705          	11.503
MS.120         	8.688          	11.507
MS.121         	8.67           	11.519
MS.122         	8.653          	11.509
MS.123         	8.635          	11.517
MS.124         	8.617          	11.513
MS.125         	8.6            	11.523
MS.126         	8.585          	11.527
MS.127         	8.568          	11.525
MS.128         	8.55           	11.537
MS.129         	8.533          	11.555
MS.130         	8.515          	11.539
MS.131         	8.497          	11.559
MS.132         	8.483          	11.557
MS.133         	8.465          	11.559
MS.134         	8.448          	11.531
MS.135         	8.43           	11.547
MS.136         	8.415          	11.523
MS.137         	8.398          	11.543
MS.138         	8.38           	11.539
MS.139         	8.363          	11.559
MS.140         	8.347          	11.559
MS.141         	8.33           	11.428
MS.142         	8.312          	11.583
MS.143         	8.297          	11.571
MS.144         	8.28           	11.553
MS.145         	8.265          	11.573
MS.146         	8.247          	11.438
MS.147         	8.23           	11.541
MS.148         	8.215          	11.569
MS.149         	8.198          	11.581
MS.150         	8.182          	11.529
MS.151         	8.165          	11.489
MS.152         	8.15           	11.434
MS.153         	8.132          	11.469
MS.154         	8.117          	11.44
MS.155         	8.1            	11.412
MS.156         	8.085          	11.455
MS.157         	8.068          	11.438
MS.158         	8.052          	11.398
MS.159         	8.035          	11.43
MS.160         	8.02           	11.467
MS.161         	8.002          	11.44
MS.162         	7.987          	11.36
MS.163         	7.972          	11.465
MS.164         	7.955          	11.43
MS.165         	7.94           	11.354
MS.166         	7.925          	11.39
MS.167         	7.907          	11.354
MS.168         	7.892          	11.372
MS.169         	7.878          	11.392
MS.170         	7.86           	11.205
MS.171         	7.845          	11.241
MS.172         	7.83           	11.35
MS.173         	7.815          	11.265
MS.174         	7.797          	11.251
MS.175         	7.782          	11.189
MS.176         	7.767          	11.181
MS.177         	7.753          	11.195
MS.178         	7.735          	11.352
MS.179         	7.72           	11.215
MS.180         	7.705          	11.191
MS.181         	7.69           	10.977
MS.182         	7.675          	11.187
MS.183         	7.66           	11.116
MS.184         	7.645          	11.223
MS.185         	7.628          	11.227
MS.186         	7.612          	11.1
MS.187         	7.597          	10.838
MS.188         	7.582          	11.239
MS.189         	7.567          	11.152
MS.190         	7.552          	11.078
MS.191         	7.537          	11.205
MS.192         	7.523          	10.899
MS.193         	7.507          	11.046
MS.194         	7.492          	11.227
MS.195         	7.477          	11.136
MS.196         	7.462          	10.967
MS.197         	7.447          	10.729
MS.198         	7.432          	10.748
MS.199         	7.418          	10.979
MS.200         	7.402          	10.842
MS.201         	7.387          	11.114
MS.202         	7.372          	10.778
MS.203         	7.36           	10.772
MS.204         	7.345          	10.82
MS.205         	7.33           	10.834
MS.206         	7.315          	10.713
MS.207         	7.3            	10.88
MS.208         	7.285          	10.705
MS.209         	7.27           	10.401
MS.210         	7.257          	10.56
MS.211         	7.242          	10.312
MS.212         	7.227          	10.325
MS.213         	7.212          	10.568
MS.214         	7.197          	10.125
MS.215         	7.185          	10.331
MS.216         	7.17           	10.329
MS.217         	7.155          	10.031
MS.218         	7.142          	10.228
MS.219         	7.128          	10.075
MS.220         	7.112          	10.147
MS.221         	7.097          	10.186
MS.222         	7.085          	10.157
MS.223         	7.07           	9.9
MS.224         	7.055          	10.423
MS.225         	7.043          	10.022
MS.226         	7.027          	10.182
MS.227         	7.015          	9.781
MS.228         	7              	9.978
MS.229         	6.985          	9.646
MS.230         	6.972          	9.869
MS.231         	6.957          	9.45
MS.232         	6.945          	9.751
MS.233         	6.93           	9.567
MS.234         	6.918          	9.64
MS.235         	6.902          	9.05
MS.236         	6.89           	9.344
MS.237         	6.875          	9.332
MS.238         	6.862          	9.376
MS.239         	6.847          	9.313
MS.240         	6.835          	9.303
MS.241         	6.82           	9.269
MS.242         	6.807          	8.637
MS.243         	6.793          	8.842
MS.244         	6.78           	8.544
MS.245         	6.765          	8.717
MS.246         	6.753          	8.371
MS.247         	6.74           	7.984
MS.248         	6.725          	8.308
MS.249         	6.712          	7.91
MS.250         	6.697          	8.671
MS.251         	6.685          	8.409
MS.252         	6.672          	8.526
MS.253         	6.657          	7.761
MS.254         	6.645          	7.577
MS.255         	6.632          	7.056
MS.256         	6.617          	7.269
MS.257         	6.605          	8.115
MS.258         	6.592          	7.199
MS.259         	6.58           	7.046
MS.260         	6.565          	7.352
MS.261         	6.552          	7.539
MS.262         	6.54           	6.772
MS.263         	6.527          	6.937
MS.264         	6.512          	7.108
MS.265         	6.5            	7.054
MS.266         	6.487          	6.631
MS.267         	6.475          	6.697
MS.268         	6.462          	6.637
MS.269         	6.45           	6.709
MS.270         	6.435          	7.174
MS.271         	6.422          	6.429
MS.272         	6.41           	6.753
MS.273         	6.398          	6.339
MS.274         	6.385          	6.441
MS.275         	6.372          	6.312
MS.276         	6.36           	6.419
MS.277         	6.347          	6.125
MS.278         	6.335          	6.256
MS.279         	6.32           	5.897
MS.280         	6.307          	6.169
MS.281         	6.295          	5.974
MS.282         	6.282          	5.928
MS.283         	6.27           	5.97
MS.284         	6.257          	5.803
MS.285         	6.245          	5.758
MS.286         	6.233          	5.702
MS.287         	6.22           	5.897
MS.288         	6.207          	5.507
MS.289         	6.195          	5.632
MS.290         	6.182          	5.622
MS.291         	6.17           	5.408
MS.292         	6.16           	5.416
MS.293         	6.148          	5.102
MS.294         	6.135          	5.406
MS.295         	6.122          	5.4
MS.296         	6.11           	4.931
MS.297         	6.097          	5.201
MS.298         	6.085          	5.251
MS.299         	6.072          	4.8
MS.300         	6.06           	5.17
MS.301         	6.05           	4.965
MS.302         	6.037          	4.768
MS.303         	6.025          	4.089
MS.304         	6.012          	4.202
MS.305         	6              	4.874
MS.306         	5.99           	4.721
MS.307         	5.977          	4.258
MS.308         	5.965          	4.637
MS.309         	5.952          	4.443
MS.310         	5.94           	4.175
MS.311         	5.93           	3.718
MS.312         	5.918          	3.7
MS.313         	5.905          	4.03
MS.314         	5.895          	3.708
MS.315         	5.882          	3.551
MS.316         	5.87           	3.668
MS.317         	5.858          	3.779
MS.318         	5.847          	3.634
MS.319         	5.835          	3.561
MS.320         	5.822          	3.468
MS.321         	5.812          	3.619
MS.322         	5.8            	3.384
MS.323         	5.787          	3.426
MS.324         	5.777          	3.341
MS.325         	5.765          	3.039
MS.326         	5.755          	3.057
MS.327         	5.742          	3.108
MS.328         	5.73           	3.178
MS.329         	5.72           	3.07
MS.330         	5.707          	2.902
MS.331         	5.697          	3.104
MS.332         	5.685          	2.848
MS.333         	5.675          	3.076
MS.334         	5.662          	2.765
MS.335         	5.652          	2.761
MS.336         	5.64           	2.687
MS.337         	5.63           	2.753
MS.338         	5.617          	3.049
MS.339         	5.608          	2.685
MS.340         	5.595          	2.691
MS.341         	5.585          	2.566
MS.342         	5.572          	2.661
MS.343         	5.562          	2.54
MS.344         	5.55           	2.397
MS.345         	5.54           	2.29
MS.346         	5.527          	2.483
MS.347         	5.517          	2.365
MS.348         	5.507          	1.797
MS.349         	5.495          	2.383
MS.350         	5.485          	1.974
MS.351         	5.472          	2.286
MS.352         	5.463          	1.764
MS.353         	5.452          	1.674
MS.354         	5.44           	1.66
MS.355         	5.43           	1.66
MS.356         	5.42           	1.682
MS.357         	5.407          	1.565
MS.358         	5.398          	1.454
MS.359         	5.387          	1.354
MS.360         	5.375          	1.438
MS.361         	5.365          	1.327
MS.362         	5.355          	1.587
MS.363         	5.342          	1.386
MS.364         	5.332          	0.971
MS.365         	5.322          	1.106
MS.366         	5.312          	1.074
MS.367         	5.3            	1.482
MS.368         	5.29           	0.995
MS.369         	5.28           	1.098
MS.370         	5.27           	1.031
MS.371         	5.26           	1.144
MS.372         	5.247          	0.959
MS.373         	5.237          	0.991
MS.374         	5.227          	0.866
MS.375         	5.217          	0.8
MS.376         	5.207          	0.947
MS.377         	5.195          	0.9
MS.378         	5.185          	0.949
MS.379         	5.175          	0.866
MS.380         	5.165          	0.872
MS.381         	5.155          	0.745
MS.382         	5.145          	0.85
MS.383         	5.135          	0.8
MS.384         	5.125          	0.737
MS.385         	5.112          	0.693
MS.386         	5.102          	0.723
MS.387         	5.092          	0.641
MS.388         	5.082          	0.79
MS.389         	5.072          	0.677
MS.390         	5.062          	0.761
MS.391         	5.052          	0.679
MS.392         	5.043          	0.685
MS.393         	5.032          	0.534
MS.394         	5.023          	0.487
MS.395         	5.012          	0.6
MS.396         	5.003          	0.649
MS.397         	4.992          	0.425
MS.398         	4.983          	0.6
MS.399         	4.972          	0.592
MS.400         	4.963          	0.564
MS.401         	4.952          	0.516
MS.402         	4.943          	0.572
MS.403         	4.932          	0.576
MS.404         	4.922          	0.58
MS.405         	4.912          	0.455
MS.406         	4.902          	0.451
MS.407         	4.892          	0.53
MS.408         	4.882          	0.552
MS.409         	4.875          	0.461
MS.410         	4.865          	0.491
MS.411         	4.855          	0.526
MS.412         	4.845          	0.485
MS.413         	4.835          	0.369
MS.414         	4.825          	0.367
MS.415         	4.815          	0.518
MS.416         	4.805          	0.369
MS.417         	4.797          	0.371
MS.418         	4.787          	0.375
MS.419         	4.777          	0.413
MS.420         	4.767          	0.401
MS.421         	4.757          	0.397
MS.422         	4.75           	0.401
MS.423         	4.74           	0.385
MS.424         	4.73           	0.373
MS.425         	4.72           	0.375
MS.426         	4.71           	0.377
MS.427         	4.702          	0.375
MS.428         	4.693          	0.415
MS.429         	4.682          	0.373
MS.430         	4.673          	0.373
MS.431         	4.665          	0.393
MS.432         	4.655          	0.373
MS.433         	4.645          	0.369
MS.434         	4.635          	0.421
MS.435         	4.628          	0.375
MS.436         	4.617          	0.373
MS.437         	4.608          	0.375
MS.438         	4.6            	0.405
MS.439         	4.59           	0.377
MS.440         	4.58           	0.369
MS.441         	4.572          	0.373
MS.442         	4.562          	0.377
MS.443         	4.552          	0.377
MS.444         	4.545          	0.379
MS.445         	4.535          	0.375
MS.446         	4.527          	0.377
MS.447         	4.517          	0.379
MS.448         	4.507          	0.377
MS.449         	4.5            	0.377
MS.450         	4.49           	0.379
MS.451         	4.48           	0.379
MS.452         	4.472          	0.375
MS.453         	4.463          	0.375
MS.454         	4.455          	0.375
MS.455         	4.445          	0.381
MS.456         	4.438          	0.375
MS.457         	4.427          	0.375
MS.458         	4.42           	0.379
MS.459         	4.41           	0.379
MS.460         	4.402          	0.373
MS.461         	4.392          	0.379
MS.462         	4.382          	0.377
MS.463         	4.375          	0.383
MS.464         	4.365          	0.377
MS.465         	4.358          	0.377
MS.466         	4.35           	0.375
MS.467         	4.34           	0.377
MS.468         	4.332          	0.377
MS.469         	4.322          	0.377
MS.470         	4.315          	0.377
MS.471         	4.305          	0.379
MS.472         	4.298          	0.381
MS.473         	4.287          	0.377
MS.474         	4.28           	0.375
MS.475         	4.27           	0.377
MS.476         	4.262          	0.375
MS.477         	4.255          	0.377
MS.478         	4.245          	0.375
MS.479         	4.237          	0.379
MS.480         	4.227          	0.377
MS.481         	4.22           	0.377
MS.482         	4.213          	0.381
MS.483         	4.202          	0.379
MS.484         	4.195          	0.379
MS.485         	4.188          	0.381
MS.486         	4.177          	0.379
MS.487         	4.17           	0.381
MS.488         	4.162          	0.377
MS.489         	4.152          	0.379
MS.490         	4.145          	0.133
MS.491         	4.137          	0.129
MS.492         	4.128          	0.379
MS.493         	4.12           	0.131
MS.494         	4.112          	0.004
MS.495         	4.102          	0.133
