File:              	C:\Qtrac\Data\Daniel M Sørensen\MScan multicentre study\Data from centres\Aarhus\Processed data\DMSC10423A.QZD
Name:              	DK.AAR.NC.12.2
Protocol:          	MSCAN-R2
Date:              	23/4/21
Start time:        	10:44:36
Age:               	26
Sex:               	f
Temperature:       	29,3
S/R sites:         	APB
NC/disease:        	NC
Operator:          	DS
Comments:          	Too early stop, error
M-SCAN DATA (5.9-2.1m)
Scanpts: 82, 95, 398, 419
Stim. (mA)     	Amp. (mV)
MS.1           	13             	12.623
MS.2           	13             	12.623
MS.3           	13             	12.617
MS.4           	13             	12.597
MS.5           	13             	12.593
MS.6           	13             	12.57
MS.7           	13             	12.589
MS.8           	13             	12.556
MS.9           	13             	12.582
MS.10          	13             	12.55
MS.11          	13             	12.55
MS.12          	13             	12.582
MS.13          	13             	12.552
MS.14          	13             	12.554
MS.15          	13             	12.552
MS.16          	13             	12.56
MS.17          	13             	12.591
MS.18          	13             	12.56
MS.19          	13             	12.548
MS.20          	13             	12.558
MS.21          	13             	12.564
MS.22          	13             	12.558
MS.23          	13             	12.566
MS.24          	12.947         	12.554
MS.25          	12.922         	12.554
MS.26          	12.898         	12.544
MS.27          	12.87          	12.528
MS.28          	12.845         	12.534
MS.29          	12.82          	12.528
MS.30          	12.792         	12.538
MS.31          	12.767         	12.526
MS.32          	12.742         	12.526
MS.33          	12.717         	12.53
MS.34          	12.693         	12.53
MS.35          	12.667         	12.524
MS.36          	12.64          	12.524
MS.37          	12.615         	12.522
MS.38          	12.59          	12.528
MS.39          	12.565         	12.522
MS.40          	12.54          	12.508
MS.41          	12.515         	12.508
MS.42          	12.49          	12.518
MS.43          	12.465         	12.498
MS.44          	12.44          	12.502
MS.45          	12.415         	12.504
MS.46          	12.39          	12.502
MS.47          	12.365         	12.502
MS.48          	12.34          	12.506
MS.49          	12.318         	12.504
MS.50          	12.292         	12.492
MS.51          	12.267         	12.508
MS.52          	12.242         	12.496
MS.53          	12.217         	12.496
MS.54          	12.195         	12.494
MS.55          	12.17          	12.494
MS.56          	12.145         	12.488
MS.57          	12.12          	12.492
MS.58          	12.097         	12.478
MS.59          	12.072         	12.48
MS.60          	12.047         	12.476
MS.61          	12.025         	12.488
MS.62          	12             	12.486
MS.63          	11.977         	12.492
MS.64          	11.952         	12.49
MS.65          	11.927         	12.476
MS.66          	11.905         	12.474
MS.67          	11.88          	12.472
MS.68          	11.858         	12.456
MS.69          	11.832         	12.466
MS.70          	11.81          	12.46
MS.71          	11.787         	12.439
MS.72          	11.762         	12.458
MS.73          	11.74          	12.462
MS.74          	11.715         	12.448
MS.75          	11.693         	12.466
MS.76          	11.67          	12.448
MS.77          	11.645         	12.437
MS.78          	11.622         	12.452
MS.79          	11.6           	12.452
MS.80          	11.575         	12.443
MS.81          	11.552         	12.45
MS.82          	11.53          	12.452
MS.83          	11.507         	12.45
MS.84          	11.485         	12.441
MS.85          	11.46          	12.445
MS.86          	11.438         	12.443
MS.87          	11.415         	12.437
MS.88          	11.392         	12.429
MS.89          	11.37          	12.439
MS.90          	11.347         	12.437
MS.91          	11.325         	12.433
MS.92          	11.302         	12.425
MS.93          	11.28          	12.431
MS.94          	11.257         	12.419
MS.95          	11.235         	12.437
MS.96          	11.212         	12.419
MS.97          	11.19          	12.419
MS.98          	11.167         	12.419
MS.99          	11.145         	12.415
MS.100         	11.122         	12.425
MS.101         	11.1           	12.403
MS.102         	11.077         	12.395
MS.103         	11.055         	12.405
MS.104         	11.032         	12.393
MS.105         	11.012         	12.397
MS.106         	10.99          	12.407
MS.107         	10.967         	12.401
MS.108         	10.945         	12.401
MS.109         	10.925         	12.389
MS.110         	10.903         	12.393
MS.111         	10.88          	12.401
MS.112         	10.858         	12.389
MS.113         	10.837         	12.367
MS.114         	10.815         	12.379
MS.115         	10.792         	12.391
MS.116         	10.773         	12.375
MS.117         	10.75          	12.389
MS.118         	10.73          	12.369
MS.119         	10.707         	12.391
MS.120         	10.685         	12.385
MS.121         	10.665         	12.363
MS.122         	10.642         	12.353
MS.123         	10.622         	12.349
MS.124         	10.6           	12.337
MS.125         	10.58          	12.345
MS.126         	10.557         	12.355
MS.127         	10.537         	12.286
MS.128         	10.517         	12.351
MS.129         	10.495         	12.28
MS.130         	10.475         	12.323
MS.131         	10.452         	12.327
MS.132         	10.432         	12.282
MS.133         	10.412         	12.284
MS.134         	10.39          	12.254
MS.135         	10.37          	12.278
MS.136         	10.35          	12.26
MS.137         	10.33          	12.254
MS.138         	10.307         	12.266
MS.139         	10.287         	12.276
MS.140         	10.267         	12.27
MS.141         	10.247         	12.274
MS.142         	10.225         	12.276
MS.143         	10.205         	12.272
MS.144         	10.185         	12.246
MS.145         	10.165         	12.268
MS.146         	10.145         	12.24
MS.147         	10.125         	12.248
MS.148         	10.105         	12.103
MS.149         	10.085         	12.236
MS.150         	10.065         	12.236
MS.151         	10.042         	12.109
MS.152         	10.023         	12.26
MS.153         	10.002         	11.99
MS.154         	9.983          	12.145
MS.155         	9.962          	11.95
MS.156         	9.945          	12.063
MS.157         	9.925          	11.982
MS.158         	9.905          	12.21
MS.159         	9.885          	12.073
MS.160         	9.865          	11.972
MS.161         	9.845          	12.079
MS.162         	9.825          	11.892
MS.163         	9.805          	12.069
MS.164         	9.785          	11.968
MS.165         	9.767          	11.926
MS.166         	9.747          	11.97
MS.167         	9.727          	11.91
MS.168         	9.707          	11.932
MS.169         	9.688          	11.863
MS.170         	9.67           	11.869
MS.171         	9.65           	11.849
MS.172         	9.63           	11.644
MS.173         	9.613          	11.849
MS.174         	9.592          	11.739
MS.175         	9.573          	11.301
MS.176         	9.555          	11.175
MS.177         	9.535          	11.857
MS.178         	9.515          	11.865
MS.179         	9.497          	11.692
MS.180         	9.477          	11.245
MS.181         	9.46           	11.154
MS.182         	9.44           	11.169
MS.183         	9.42           	11.074
MS.184         	9.403          	11.058
MS.185         	9.382          	11.128
MS.186         	9.365          	11.076
MS.187         	9.345          	11.074
MS.188         	9.327          	11.062
MS.189         	9.307          	10.87
MS.190         	9.29           	11.69
MS.191         	9.273          	11.038
MS.192         	9.252          	11.054
MS.193         	9.235          	11.019
MS.194         	9.215          	11.03
MS.195         	9.198          	10.941
MS.196         	9.18           	10.907
MS.197         	9.16           	10.947
MS.198         	9.142          	10.967
MS.199         	9.125          	10.647
MS.200         	9.105          	10.75
MS.201         	9.087          	10.818
MS.202         	9.07           	10.653
MS.203         	9.052          	10.713
MS.204         	9.033          	10.315
MS.205         	9.015          	10.037
MS.206         	8.997          	10.178
MS.207         	8.98           	10.373
MS.208         	8.962          	10.099
MS.209         	8.943          	10.022
MS.210         	8.925          	10.006
MS.211         	8.908          	10.111
MS.212         	8.89           	10.123
MS.213         	8.872          	10.018
MS.214         	8.855          	9.96
MS.215         	8.837          	9.577
MS.216         	8.82           	9.912
MS.217         	8.802          	9.845
MS.218         	8.785          	9.833
MS.219         	8.767          	9.525
MS.220         	8.75           	9.708
MS.221         	8.733          	9.664
MS.222         	8.715          	9.803
MS.223         	8.698          	9.604
MS.224         	8.68           	9.402
MS.225         	8.662          	9.732
MS.226         	8.645          	9.358
MS.227         	8.627          	9.469
MS.228         	8.61           	9.132
MS.229         	8.592          	8.939
MS.230         	8.575          	9.277
MS.231         	8.557          	9.07
MS.232         	8.542          	8.933
MS.233         	8.525          	8.979
MS.234         	8.507          	9.128
MS.235         	8.49           	8.53
MS.236         	8.472          	8.951
MS.237         	8.457          	9.362
MS.238         	8.44           	8.86
MS.239         	8.422          	8.77
MS.240         	8.405          	8.592
MS.241         	8.39           	8.969
MS.242         	8.372          	8.143
MS.243         	8.355          	8.449
MS.244         	8.34           	7.984
MS.245         	8.323          	7.781
MS.246         	8.305          	8.073
MS.247         	8.29           	8.439
MS.248         	8.273          	8.294
MS.249         	8.255          	7.565
MS.250         	8.24           	7.636
MS.251         	8.222          	7.704
MS.252         	8.207          	7.68
MS.253         	8.19           	7.299
MS.254         	8.175          	7.841
MS.255         	8.158          	7.056
MS.256         	8.142          	7.229
MS.257         	8.125          	7.231
MS.258         	8.11           	6.753
MS.259         	8.092          	6.788
MS.260         	8.077          	6.671
MS.261         	8.06           	6.818
MS.262         	8.045          	6.409
MS.263         	8.028          	5.819
MS.264         	8.012          	6.274
MS.265         	7.995          	6.109
MS.266         	7.98           	6.206
MS.267         	7.965          	6.117
MS.268         	7.947          	6.262
MS.269         	7.932          	6.202
MS.270         	7.918          	6.109
MS.271         	7.9            	6.294
MS.272         	7.885          	6.286
MS.273         	7.87           	5.031
MS.274         	7.852          	5.485
MS.275         	7.837          	5.885
MS.276         	7.822          	5.682
MS.277         	7.807          	5.146
MS.278         	7.79           	4.933
MS.279         	7.775          	5.146
MS.280         	7.76           	5.076
MS.281         	7.745          	4.774
MS.282         	7.727          	4.943
MS.283         	7.712          	4.473
MS.284         	7.697          	4.763
MS.285         	7.682          	5.001
MS.286         	7.668          	4.302
MS.287         	7.652          	4.431
MS.288         	7.637          	4.564
MS.289         	7.622          	4.389
MS.290         	7.605          	4.336
MS.291         	7.59           	4.324
MS.292         	7.575          	4.206
MS.293         	7.56           	4.095
MS.294         	7.545          	4.129
MS.295         	7.53           	3.527
MS.296         	7.515          	4.115
MS.297         	7.5            	3.887
MS.298         	7.485          	4.014
MS.299         	7.47           	4.075
MS.300         	7.455          	3.366
MS.301         	7.44           	3.827
MS.302         	7.425          	3.339
MS.303         	7.41           	3.845
MS.304         	7.395          	3.899
MS.305         	7.382          	3.082
MS.306         	7.367          	3.152
MS.307         	7.352          	3.102
MS.308         	7.337          	3.041
MS.309         	7.322          	3.005
MS.310         	7.307          	2.828
MS.311         	7.293          	2.733
MS.312         	7.277          	3.497
MS.313         	7.265          	2.86
MS.314         	7.25           	2.902
MS.315         	7.235          	2.677
MS.316         	7.22           	2.685
MS.317         	7.205          	2.848
MS.318         	7.192          	2.673
MS.319         	7.177          	2.657
MS.320         	7.162          	2.492
MS.321         	7.15           	2.431
MS.322         	7.135          	2.167
MS.323         	7.12           	2.349
MS.324         	7.105          	2.338
MS.325         	7.092          	2.312
MS.326         	7.077          	2.302
MS.327         	7.062          	2.113
MS.328         	7.05           	1.714
MS.329         	7.035          	2.302
MS.330         	7.023          	1.509
MS.331         	7.007          	1.924
MS.332         	6.992          	2.06
MS.333         	6.98           	1.386
MS.334         	6.965          	1.839
MS.335         	6.952          	1.331
MS.336         	6.938          	1.255
MS.337         	6.922          	1.243
MS.338         	6.91           	1.237
MS.339         	6.895          	1.122
MS.340         	6.882          	1.764
MS.341         	6.867          	1.73
MS.342         	6.855          	1.273
MS.343         	6.84           	0.002
MS.344         	6.827          	0.008
MS.345         	6.815          	0.008
MS.346         	6.8            	0.01
MS.347         	6.787          	0.006
MS.348         	6.773          	0.006
MS.349         	6.76           	0.004
MS.350         	6.745          	0.002
MS.351         	6.733          	0.006
MS.352         	6.72           	0.002
MS.353         	6.705          	0.006
MS.354         	6.692          	0.002
MS.355         	6.68           	0.002
MS.356         	6.665          	0.008
MS.357         	6.652          	0.006
MS.358         	6.64           	0.008
MS.359         	6.625          	0.008
MS.360         	6.612          	0.008
MS.361         	6.6            	0.006
MS.362         	6.585          	0.008
MS.363         	6.572          	0.006
MS.364         	6.56           	0.004
MS.365         	6.547          	0.002
MS.366         	6.532          	0.008
MS.367         	6.52           	0.008
MS.368         	6.507          	0.002
MS.369         	6.495          	0.002
MS.370         	6.483          	0.004
MS.371         	6.467          	0.004
MS.372         	6.455          	0.008
MS.373         	6.442          	0.004
MS.374         	6.43           	0.004
MS.375         	6.418          	0.008
MS.376         	6.405          	0.002
MS.377         	6.392          	0.004
MS.378         	6.378          	0.004
MS.379         	6.365          	0.006
MS.380         	6.352          	0.004
MS.381         	6.34           	0.008
MS.382         	6.327          	0.004
MS.383         	6.315          	0.004
MS.384         	6.302          	0.004
MS.385         	6.29           	0.002
MS.386         	6.277          	0.000
MS.387         	6.265          	0.004
MS.388         	6.253          	0.004
MS.389         	6.24           	0.008
MS.390         	6.227          	0.002
MS.391         	6.215          	0.004
MS.392         	6.202          	0.006
MS.393         	6.19           	0.004
MS.394         	6.177          	0.006
MS.395         	6.165          	0.004
MS.396         	6.152          	0.004
MS.397         	6.14           	0.008
MS.398         	6.128          	0.002
MS.399         	6.115          	0.002
MS.400         	6.105          	0.006
MS.401         	6.092          	0.008
MS.402         	6.08           	-0.002
MS.403         	6.067          	0.008
MS.404         	6.055          	0.002
MS.405         	6.043          	0.002
MS.406         	6.03           	0.014
MS.407         	6.02           	0.008
MS.408         	6.007          	0.008
MS.409         	5.995          	0.008
MS.410         	5.983          	0.008
MS.411         	5.97           	0.004
MS.412         	5.96           	0.002
MS.413         	5.947          	0.006
MS.414         	5.935          	0.006
MS.415         	5.922          	0.004
MS.416         	5.912          	0.004
MS.417         	5.9            	0.004
MS.418         	5.887          	0.008
MS.419         	5.878          	0.004
DERIVED EXCITABILITY VARIABLES
Program = QTracP 9/10/2021
Threshold method = 6 (optimised for CAP, using data for present condition only)
SR method = 1 (using actual data values)
6.                 	0.000               	Peak response\(mV)
9.                 	29                  	Temperature ( C)
17.                	26                  	Age (years)
18.                	2                   	Sex (M=1, F=2)

EXTRA VARIABLES

MScPeak(mV) = 12.57
MScS5(mA) = 6.85
MScS50(mA) = 7.94
MScS95(mA) = 9.78
MScNSteps = 6
MScSteps(%) = 20.3
MScStepMax(%) = 8.8
MScD50 = 28
MScSlope = 6.02
MScDuration(min) = 3.8
MSFTraces = 338
MSFPeakAmp(mV) = 12.4
MSFNUnits = 69
MSFMeanUnitAmp(uV) = 180.2
MSFHuntTime(m) = 1.88
MSFError(%) = 8.05
MSFNLarge = 21.03
MSFMedianAmp(%) = 1.29
MSFMedianAmp(mV) = 0.16
MSFHalfAmpAmp(%) = 1.53
MSFHalfAmpAmp(mV) = 0.191
MSFLargestAmp(%) = 9.78
MSFLargestAmp(mV) = 1.22
MSFMeanRS(%) = 1.99
MSFSizeLimit(uV) = 36
MSFLimitType = 3
MSFSmallestAmp(uV) = 43.9
MSFOpts = 10106121

EXTRA WAVEFORMS


!MScan Model
!69
	1	6.81	9.78	2
	2	6.94	1.58	2
	3	7	3.33	2
	4	7.02	1.07	2
	5	7.04	0.76	2
	6	7.06	0.7	2
	7	7.09	0.95	2
	8	7.13	1.72	2
	9	7.18	1.5	2
	10	7.22	1.6	2
	11	7.26	1.18	2
	12	7.3	1.39	2
	13	7.35	1.64	2
	14	7.4	1.38	2
	15	7.44	1.39	2
	16	7.48	1.24	2
	17	7.51	1.12	2
	18	7.56	2.01	2
	19	7.61	1.55	2
	20	7.65	1.56	2
	21	7.69	1.23	2
	22	7.72	1.29	2
	23	7.75	1.43	2
	24	7.79	1.62	2
	25	7.83	1.24	2
	26	7.87	1.98	2
	27	7.92	1.7	2
	28	7.96	1.96	2
	29	7.99	1.72	2
	30	8.03	1.46	2
	31	8.06	1.53	2
	32	8.08	0.98	2
	33	8.11	0.96	2
	34	8.13	1	2
	35	8.15	1.05	2
	36	8.18	1.04	2
	37	8.2	1.07	2
	38	8.23	1.2	2
	39	8.26	1.77	2
	40	8.3	1.51	2
	41	8.34	1.5	2
	42	8.38	1.53	2
	43	8.43	1.71	2
	44	8.49	2.08	2
	45	8.55	1.84	2
	46	8.61	1.5	2
	47	8.67	1.17	2
	48	8.7	0.6	2
	49	8.73	0.59	2
	50	8.76	0.75	2
	51	8.81	1.06	2
	52	8.85	0.83	2
	53	8.88	0.73	2
	54	8.92	0.85	2
	55	8.94	0.61	2
	56	8.97	0.56	2
	57	9	0.58	2
	58	9.03	0.75	2
	59	9.07	0.95	2.2
	60	9.13	1.67	1.28
	61	9.24	2.3	2
	62	9.41	1.36	2
	63	9.61	4.86	2
	64	9.87	1.53	2
	65	10	0.81	2
	66	10.19	0.77	2
	67	10.38	0.54	2
	68	10.57	0.35	2
	69	10.85	0.44	2

