File:              	C:\Qtrac\Data\Daniel M Sørensen\MScan multicentre study\Data from centres\Aarhus\Processed data\DMSC00930A.QZD
Name:              	DK.AAR.NC.10.2
Protocol:          	MSCAN-R2
Date:              	30/9/20
Start time:        	14:56:44
Age:               	70
Sex:               	m
Temperature:       	34,7
S/R sites:         	APB
NC/disease:        	NC
Operator:          	DS
Comments:
M-SCAN DATA (2.8-0.0m)
Scanpts: 14, 21, 484, 519
Stim. (mA)     	Amp. (mV)
MS.1           	26             	7.837
MS.2           	26             	7.845
MS.3           	25.845         	7.779
MS.4           	25.792         	7.827
MS.5           	25.74          	7.829
MS.6           	25.69          	7.849
MS.7           	25.637         	7.855
MS.8           	25.587         	7.877
MS.9           	25.535         	7.839
MS.10          	25.485         	7.849
MS.11          	25.435         	7.823
MS.12          	25.382         	7.827
MS.13          	25.332         	7.827
MS.14          	25.282         	7.833
MS.15          	25.233         	7.831
MS.16          	25.18          	7.831
MS.17          	25.13          	7.821
MS.18          	25.08          	7.837
MS.19          	25.03          	7.817
MS.20          	24.98          	7.793
MS.21          	24.93          	7.839
MS.22          	24.88          	7.821
MS.23          	24.83          	7.855
MS.24          	24.782         	7.803
MS.25          	24.733         	7.827
MS.26          	24.682         	7.793
MS.27          	24.632         	7.833
MS.28          	24.585         	7.857
MS.29          	24.535         	7.773
MS.30          	24.485         	7.879
MS.31          	24.438         	7.845
MS.32          	24.387         	7.837
MS.33          	24.34          	7.835
MS.34          	24.29          	7.843
MS.35          	24.243         	7.845
MS.36          	24.192         	7.851
MS.37          	24.145         	7.857
MS.38          	24.097         	7.694
MS.39          	24.05          	7.682
MS.40          	24             	7.829
MS.41          	23.952         	7.67
MS.42          	23.905         	7.827
MS.43          	23.858         	7.805
MS.44          	23.81          	7.833
MS.45          	23.762         	7.835
MS.46          	23.715         	7.863
MS.47          	23.667         	7.658
MS.48          	23.62          	7.821
MS.49          	23.573         	7.622
MS.50          	23.525         	7.682
MS.51          	23.477         	7.68
MS.52          	23.432         	7.664
MS.53          	23.385         	7.837
MS.54          	23.337         	7.68
MS.55          	23.292         	7.692
MS.56          	23.245         	7.678
MS.57          	23.198         	7.7
MS.58          	23.153         	7.702
MS.59          	23.105         	7.696
MS.60          	23.06          	7.638
MS.61          	23.015         	7.694
MS.62          	22.967         	7.692
MS.63          	22.922         	7.583
MS.64          	22.875         	7.684
MS.65          	22.83          	7.684
MS.66          	22.785         	7.684
MS.67          	22.74          	7.696
MS.68          	22.695         	7.698
MS.69          	22.647         	7.7
MS.70          	22.602         	7.666
MS.71          	22.557         	7.69
MS.72          	22.512         	7.567
MS.73          	22.467         	7.702
MS.74          	22.422         	7.684
MS.75          	22.377         	7.71
MS.76          	22.332         	7.684
MS.77          	22.29          	7.68
MS.78          	22.245         	7.654
MS.79          	22.2           	7.66
MS.80          	22.155         	7.652
MS.81          	22.112         	7.632
MS.82          	22.067         	7.672
MS.83          	22.022         	7.666
MS.84          	21.98          	7.66
MS.85          	21.935         	7.652
MS.86          	21.892         	7.66
MS.87          	21.847         	7.664
MS.88          	21.805         	7.66
MS.89          	21.76          	7.648
MS.90          	21.717         	7.67
MS.91          	21.672         	7.64
MS.92          	21.63          	7.66
MS.93          	21.587         	7.668
MS.94          	21.545         	7.642
MS.95          	21.5           	7.636
MS.96          	21.458         	7.609
MS.97          	21.415         	7.644
MS.98          	21.372         	7.652
MS.99          	21.33          	7.658
MS.100         	21.288         	7.652
MS.101         	21.245         	7.648
MS.102         	21.202         	7.666
MS.103         	21.16          	7.63
MS.104         	21.118         	7.66
MS.105         	21.075         	7.638
MS.106         	21.032         	7.616
MS.107         	20.99          	7.618
MS.108         	20.95          	7.634
MS.109         	20.907         	7.622
MS.110         	20.865         	7.483
MS.111         	20.823         	7.595
MS.112         	20.782         	7.493
MS.113         	20.74          	7.581
MS.114         	20.7           	7.352
MS.115         	20.657         	7.523
MS.116         	20.618         	7.323
MS.117         	20.575         	7.581
MS.118         	20.535         	7.4
MS.119         	20.493         	7.338
MS.120         	20.452         	7.38
MS.121         	20.413         	7.317
MS.122         	20.37          	7.317
MS.123         	20.33          	7.332
MS.124         	20.29          	7.317
MS.125         	20.247         	7.231
MS.126         	20.208         	7.269
MS.127         	20.167         	7.299
MS.128         	20.127         	7.112
MS.129         	20.087         	7.356
MS.130         	20.047         	7.126
MS.131         	20.007         	7.354
MS.132         	19.967         	7.225
MS.133         	19.927         	7.108
MS.134         	19.887         	7.064
MS.135         	19.847         	7.033
MS.136         	19.807         	7.16
MS.137         	19.767         	6.802
MS.138         	19.73          	7.005
MS.139         	19.69          	7.064
MS.140         	19.65          	7.144
MS.141         	19.61          	7.048
MS.142         	19.573         	6.721
MS.143         	19.532         	6.693
MS.144         	19.493         	6.711
MS.145         	19.455         	6.522
MS.146         	19.415         	6.705
MS.147         	19.377         	6.544
MS.148         	19.337         	6.844
MS.149         	19.3           	6.467
MS.150         	19.26          	6.373
MS.151         	19.222         	6.26
MS.152         	19.185         	6.254
MS.153         	19.145         	6.216
MS.154         	19.108         	6.409
MS.155         	19.07          	6.343
MS.156         	19.032         	6.016
MS.157         	18.993         	6.2
MS.158         	18.955         	5.98
MS.159         	18.917         	5.994
MS.160         	18.88          	5.809
MS.161         	18.842         	5.885
MS.162         	18.805         	5.956
MS.163         	18.767         	5.887
MS.164         	18.73          	5.889
MS.165         	18.692         	6.079
MS.166         	18.655         	6.153
MS.167         	18.618         	5.71
MS.168         	18.58          	5.656
MS.169         	18.542         	5.694
MS.170         	18.505         	5.644
MS.171         	18.47          	5.642
MS.172         	18.432         	5.474
MS.173         	18.395         	5.63
MS.174         	18.358         	5.557
MS.175         	18.323         	5.162
MS.176         	18.285         	5.201
MS.177         	18.247         	5.577
MS.178         	18.212         	5.722
MS.179         	18.175         	5.152
MS.180         	18.14          	5.487
MS.181         	18.102         	5.583
MS.182         	18.067         	5.327
MS.183         	18.03          	5.275
MS.184         	17.995         	4.808
MS.185         	17.96          	4.864
MS.186         	17.922         	5.1
MS.187         	17.887         	4.715
MS.188         	17.852         	4.727
MS.189         	17.815         	4.84
MS.190         	17.78          	4.649
MS.191         	17.745         	4.504
MS.192         	17.71          	4.776
MS.193         	17.675         	4.5
MS.194         	17.637         	4.405
MS.195         	17.602         	4.548
MS.196         	17.567         	4.475
MS.197         	17.532         	4.687
MS.198         	17.497         	4.332
MS.199         	17.462         	4.296
MS.200         	17.427         	4.133
MS.201         	17.392         	3.952
MS.202         	17.358         	3.974
MS.203         	17.325         	4.171
MS.204         	17.29          	4.113
MS.205         	17.255         	4.23
MS.206         	17.22          	4.067
MS.207         	17.185         	3.781
MS.208         	17.153         	3.495
MS.209         	17.118         	3.924
MS.210         	17.083         	3.916
MS.211         	17.05          	3.702
MS.212         	17.015         	3.817
MS.213         	16.98          	3.495
MS.214         	16.948         	3.704
MS.215         	16.913         	3.682
MS.216         	16.88          	3.692
MS.217         	16.845         	3.668
MS.218         	16.812         	3.797
MS.219         	16.778         	3.372
MS.220         	16.745         	3.237
MS.221         	16.712         	3.376
MS.222         	16.677         	3.362
MS.223         	16.645         	3.293
MS.224         	16.612         	3.686
MS.225         	16.577         	3.021
MS.226         	16.545         	3.632
MS.227         	16.512         	3.156
MS.228         	16.48          	3.013
MS.229         	16.445         	3.051
MS.230         	16.413         	2.923
MS.231         	16.38          	2.971
MS.232         	16.347         	2.828
MS.233         	16.315         	3.023
MS.234         	16.282         	2.729
MS.235         	16.25          	2.919
MS.236         	16.217         	3.074
MS.237         	16.185         	2.9
MS.238         	16.153         	2.876
MS.239         	16.12          	2.733
MS.240         	16.087         	2.624
MS.241         	16.055         	2.733
MS.242         	16.025         	2.677
MS.243         	15.992         	2.578
MS.244         	15.96          	2.657
MS.245         	15.927         	2.624
MS.246         	15.898         	2.483
MS.247         	15.865         	2.641
MS.248         	15.832         	2.778
MS.249         	15.802         	2.637
MS.250         	15.77          	2.606
MS.251         	15.737         	2.59
MS.252         	15.707         	2.572
MS.253         	15.675         	2.536
MS.254         	15.645         	2.649
MS.255         	15.612         	2.473
MS.256         	15.582         	2.32
MS.257         	15.55          	2.413
MS.258         	15.52          	2.346
MS.259         	15.487         	2.377
MS.260         	15.457         	2.371
MS.261         	15.427         	2.21
MS.262         	15.395         	2.355
MS.263         	15.365         	2.29
MS.264         	15.335         	2.199
MS.265         	15.302         	2.276
MS.266         	15.273         	2.22
MS.267         	15.242         	2.127
MS.268         	15.212         	2.284
MS.269         	15.182         	2.159
MS.270         	15.152         	2.101
MS.271         	15.12          	2.155
MS.272         	15.09          	1.922
MS.273         	15.06          	2.01
MS.274         	15.03          	2.087
MS.275         	15             	1.974
MS.276         	14.97          	2.075
MS.277         	14.94          	1.825
MS.278         	14.91          	1.867
MS.279         	14.88          	1.789
MS.280         	14.852         	1.799
MS.281         	14.822         	1.694
MS.282         	14.792         	1.692
MS.283         	14.762         	1.726
MS.284         	14.733         	1.716
MS.285         	14.702         	1.819
MS.286         	14.675         	1.807
MS.287         	14.645         	1.472
MS.288         	14.615         	1.857
MS.289         	14.587         	1.631
MS.290         	14.557         	1.589
MS.291         	14.527         	1.589
MS.292         	14.5           	1.67
MS.293         	14.47          	1.579
MS.294         	14.443         	1.555
MS.295         	14.412         	1.539
MS.296         	14.382         	1.364
MS.297         	14.355         	1.625
MS.298         	14.325         	1.521
MS.299         	14.297         	1.358
MS.300         	14.27          	1.41
MS.301         	14.24          	1.497
MS.302         	14.212         	1.507
MS.303         	14.182         	1.525
MS.304         	14.155         	1.458
MS.305         	14.127         	1.347
MS.306         	14.1           	1.521
MS.307         	14.07          	1.402
MS.308         	14.042         	1.45
MS.309         	14.015         	1.362
MS.310         	13.987         	1.339
MS.311         	13.957         	1.376
MS.312         	13.93          	1.267
MS.313         	13.903         	1.337
MS.314         	13.875         	1.394
MS.315         	13.847         	1.438
MS.316         	13.82          	1.18
MS.317         	13.792         	1.325
MS.318         	13.765         	1.289
MS.319         	13.737         	1.255
MS.320         	13.71          	1.315
MS.321         	13.682         	1.315
MS.322         	13.655         	1.16
MS.323         	13.627         	1.227
MS.324         	13.6           	1.237
MS.325         	13.572         	1.273
MS.326         	13.545         	1.229
MS.327         	13.52          	0.987
MS.328         	13.492         	1.013
MS.329         	13.465         	1.223
MS.330         	13.438         	1.229
MS.331         	13.41          	1.176
MS.332         	13.385         	1.094
MS.333         	13.358         	1.045
MS.334         	13.33          	1.023
MS.335         	13.305         	0.939
MS.336         	13.278         	0.792
MS.337         	13.252         	0.997
MS.338         	13.225         	1.003
MS.339         	13.197         	0.983
MS.340         	13.172         	1.011
MS.341         	13.145         	0.838
MS.342         	13.12          	0.92
MS.343         	13.092         	0.729
MS.344         	13.068         	1.015
MS.345         	13.04          	0.598
MS.346         	13.015         	0.663
MS.347         	12.99          	0.916
MS.348         	12.962         	0.798
MS.349         	12.938         	0.524
MS.350         	12.91          	0.707
MS.351         	12.885         	0.572
MS.352         	12.86          	0.6
MS.353         	12.835         	0.588
MS.354         	12.807         	0.578
MS.355         	12.782         	0.584
MS.356         	12.757         	0.568
MS.357         	12.733         	0.566
MS.358         	12.705         	0.588
MS.359         	12.68          	0.592
MS.360         	12.655         	0.538
MS.361         	12.63          	0.544
MS.362         	12.605         	0.52
MS.363         	12.58          	0.638
MS.364         	12.555         	0.683
MS.365         	12.53          	0.542
MS.366         	12.505         	0.552
MS.367         	12.48          	0.5
MS.368         	12.455         	0.54
MS.369         	12.43          	0.554
MS.370         	12.405         	0.572
MS.371         	12.38          	0.524
MS.372         	12.355         	0.548
MS.373         	12.33          	0.483
MS.374         	12.305         	0.582
MS.375         	12.282         	0.5
MS.376         	12.257         	0.552
MS.377         	12.233         	0.467
MS.378         	12.207         	0.449
MS.379         	12.182         	0.532
MS.380         	12.16          	0.479
MS.381         	12.135         	0.52
MS.382         	12.11          	0.495
MS.383         	12.087         	0.495
MS.384         	12.062         	0.443
MS.385         	12.037         	0.431
MS.386         	12.015         	0.433
MS.387         	11.99          	0.431
MS.388         	11.967         	0.473
MS.389         	11.943         	0.479
MS.390         	11.917         	0.469
MS.391         	11.895         	0.433
MS.392         	11.87          	0.447
MS.393         	11.847         	0.534
MS.394         	11.822         	0.447
MS.395         	11.8           	0.431
MS.396         	11.778         	0.445
MS.397         	11.752         	0.419
MS.398         	11.73          	0.332
MS.399         	11.705         	0.445
MS.400         	11.682         	0.377
MS.401         	11.66          	0.389
MS.402         	11.635         	0.455
MS.403         	11.613         	0.332
MS.404         	11.59          	0.445
MS.405         	11.568         	0.389
MS.406         	11.542         	0.342
MS.407         	11.52          	0.346
MS.408         	11.497         	0.282
MS.409         	11.475         	0.413
MS.410         	11.45          	0.409
MS.411         	11.427         	0.381
MS.412         	11.405         	0.238
MS.413         	11.382         	0.282
MS.414         	11.36          	0.308
MS.415         	11.337         	0.342
MS.416         	11.315         	0.379
MS.417         	11.292         	0.322
MS.418         	11.27          	0.224
MS.419         	11.247         	0.348
MS.420         	11.225         	0.23
MS.421         	11.202         	0.34
MS.422         	11.18          	0.242
MS.423         	11.157         	0.278
MS.424         	11.135         	0.232
MS.425         	11.113         	0.226
MS.426         	11.09          	0.336
MS.427         	11.068         	0.3
MS.428         	11.047         	0.238
MS.429         	11.025         	0.222
MS.430         	11.002         	0.282
MS.431         	10.98          	0.228
MS.432         	10.957         	0.226
MS.433         	10.938         	0.218
MS.434         	10.915         	0.232
MS.435         	10.892         	0.199
MS.436         	10.87          	0.234
MS.437         	10.85          	0.23
MS.438         	10.827         	0.183
MS.439         	10.805         	0.111
MS.440         	10.785         	0.203
MS.441         	10.762         	0.139
MS.442         	10.742         	0.197
MS.443         	10.72          	0.244
MS.444         	10.698         	0.111
MS.445         	10.677         	0.097
MS.446         	10.655         	0.22
MS.447         	10.635         	0.179
MS.448         	10.613         	0.024
MS.449         	10.592         	0.133
MS.450         	10.57          	0.089
MS.451         	10.55          	0.101
MS.452         	10.528         	0.01
MS.453         	10.507         	0.139
MS.454         	10.488         	0.004
MS.455         	10.465         	0.099
MS.456         	10.445         	0.026
MS.457         	10.425         	0.167
MS.458         	10.403         	0.167
MS.459         	10.382         	0.095
MS.460         	10.363         	0.101
MS.461         	10.34          	0.103
MS.462         	10.32          	0.167
MS.463         	10.3           	0.01
MS.464         	10.28          	0.07
MS.465         	10.257         	0.016
MS.466         	10.238         	0.054
MS.467         	10.217         	0.095
MS.468         	10.198         	0.008
MS.469         	10.177         	0.01
MS.470         	10.157         	0.008
MS.471         	10.135         	0.008
MS.472         	10.115         	0.01
MS.473         	10.095         	0.006
MS.474         	10.075         	0.004
MS.475         	10.055         	0.012
MS.476         	10.035         	0.012
MS.477         	10.015         	0.008
MS.478         	9.995          	0.006
MS.479         	9.975          	0.01
MS.480         	9.955          	0.012
MS.481         	9.935          	0.012
MS.482         	9.915          	0.006
MS.483         	9.895          	0.016
MS.484         	9.875          	0.008
MS.485         	9.855          	0.008
MS.486         	9.837          	0.014
MS.487         	9.818          	0.008
MS.488         	9.797          	0.01
MS.489         	9.778          	0.012
MS.490         	9.757          	0.01
MS.491         	9.738          	0.004
MS.492         	9.72           	0.008
MS.493         	9.7            	0.01
MS.494         	9.68           	0.006
MS.495         	9.66           	0.008
MS.496         	9.642          	0.01
MS.497         	9.622          	0.01
MS.498         	9.602          	0.012
MS.499         	9.585          	0.006
MS.500         	9.565          	0.014
MS.501         	9.545          	0.008
MS.502         	9.528          	0.014
