File:              	C:\Qtrac\Data\Daniel M Sørensen\MScan multicentre study\Data from centres\Aarhus\Processed data\DMSC00921A.QZD
Name:              	DK.AAR.NC.10.1
Protocol:          	MSCAN-R2
Date:              	21/9/20
Start time:        	14:24:23
Age:               	70
Sex:               	m
Temperature:       	35,0
S/R sites:         	APB
NC/disease:        	NC
Operator:          	DS
Comments:
M-SCAN DATA (7.4-3.5m)
Scanpts: 25, 30, 384, 395
Stim. (mA)     	Amp. (mV)
MS.1           	19.5           	8.173
MS.2           	19.5           	8.177
MS.3           	19.422         	8.163
MS.4           	19.382         	8.165
MS.5           	19.345         	8.167
MS.6           	19.305         	8.175
MS.7           	19.267         	8.18
MS.8           	19.23          	8.188
MS.9           	19.19          	8.188
MS.10          	19.153         	8.177
MS.11          	19.115         	8.171
MS.12          	19.075         	8.167
MS.13          	19.038         	8.184
MS.14          	19             	8.173
MS.15          	18.962         	8.18
MS.16          	18.922         	8.186
MS.17          	18.885         	8.188
MS.18          	18.847         	8.196
MS.19          	18.81          	8.186
MS.20          	18.772         	8.198
MS.21          	18.735         	8.204
MS.22          	18.698         	8.204
MS.23          	18.66          	8.204
MS.24          	18.622         	8.21
MS.25          	18.585         	8.208
MS.26          	18.55          	8.214
MS.27          	18.512         	8.214
MS.28          	18.475         	8.216
MS.29          	18.438         	8.206
MS.30          	18.4           	8.206
MS.31          	18.365         	8.202
MS.32          	18.327         	8.212
MS.33          	18.29          	8.214
MS.34          	18.255         	8.196
MS.35          	18.217         	8.194
MS.36          	18.182         	8.202
MS.37          	18.145         	8.19
MS.38          	18.11          	8.204
MS.39          	18.073         	8.155
MS.40          	18.038         	8.198
MS.41          	18             	8.188
MS.42          	17.965         	8.198
MS.43          	17.93          	8.18
MS.44          	17.892         	8.182
MS.45          	17.858         	8.18
MS.46          	17.823         	8.139
MS.47          	17.785         	8.186
MS.48          	17.75          	8.133
MS.49          	17.715         	8.153
MS.50          	17.68          	8.19
MS.51          	17.645         	8.151
MS.52          	17.61          	8.131
MS.53          	17.575         	8.141
MS.54          	17.538         	8.202
MS.55          	17.503         	8.133
MS.56          	17.467         	8.143
MS.57          	17.435         	7.885
MS.58          	17.4           	8.085
MS.59          	17.365         	7.924
MS.60          	17.33          	7.765
MS.61          	17.295         	8.121
MS.62          	17.26          	8.103
MS.63          	17.225         	8.107
MS.64          	17.192         	7.879
MS.65          	17.157         	7.926
MS.66          	17.122         	7.718
MS.67          	17.087         	8.055
MS.68          	17.055         	7.769
MS.69          	17.02          	7.726
MS.70          	16.987         	7.859
MS.71          	16.952         	8.069
MS.72          	16.917         	7.902
MS.73          	16.885         	7.887
MS.74          	16.85          	7.932
MS.75          	16.817         	7.73
MS.76          	16.782         	7.809
MS.77          	16.75          	7.734
MS.78          	16.717         	7.726
MS.79          	16.682         	7.847
MS.80          	16.65          	7.69
MS.81          	16.618         	7.71
MS.82          	16.583         	7.658
MS.83          	16.55          	7.481
MS.84          	16.517         	7.853
MS.85          	16.485         	7.73
MS.86          	16.452         	7.666
MS.87          	16.417         	7.555
MS.88          	16.385         	7.7
MS.89          	16.352         	7.442
MS.90          	16.32          	7.418
MS.91          	16.288         	7.46
MS.92          	16.255         	7.46
MS.93          	16.222         	7.442
MS.94          	16.19          	7.386
MS.95          	16.157         	7.551
MS.96          	16.125         	7.42
MS.97          	16.092         	7.428
MS.98          	16.062         	7.319
MS.99          	16.03          	7.217
MS.100         	15.997         	7.277
MS.101         	15.965         	7.154
MS.102         	15.932         	7.223
MS.103         	15.902         	7.136
MS.104         	15.87          	7.072
MS.105         	15.837         	7.142
MS.106         	15.807         	7.221
MS.107         	15.775         	7.243
MS.108         	15.742         	7.205
MS.109         	15.712         	7.08
MS.110         	15.68          	7.207
MS.111         	15.65          	7.092
MS.112         	15.617         	7.033
MS.113         	15.587         	7.086
MS.114         	15.555         	7.078
MS.115         	15.525         	7.062
MS.116         	15.492         	7.124
MS.117         	15.462         	7.015
MS.118         	15.432         	7.084
MS.119         	15.4           	7.021
MS.120         	15.37          	7.013
MS.121         	15.34          	6.997
MS.122         	15.307         	6.979
MS.123         	15.277         	7.029
MS.124         	15.247         	7.013
MS.125         	15.217         	6.969
MS.126         	15.188         	6.983
MS.127         	15.155         	6.963
MS.128         	15.125         	6.919
MS.129         	15.095         	6.905
MS.130         	15.065         	6.896
MS.131         	15.035         	6.836
MS.132         	15.005         	6.774
MS.133         	14.975         	6.828
MS.134         	14.945         	6.81
MS.135         	14.915         	6.802
MS.136         	14.885         	6.838
MS.137         	14.855         	6.727
MS.138         	14.827         	6.741
MS.139         	14.797         	6.695
MS.140         	14.767         	6.725
MS.141         	14.737         	6.51
MS.142         	14.707         	6.693
MS.143         	14.68          	6.625
MS.144         	14.65          	6.661
MS.145         	14.62          	6.625
MS.146         	14.59          	6.635
MS.147         	14.562         	6.484
MS.148         	14.532         	6.667
MS.149         	14.505         	6.258
MS.150         	14.475         	6.478
MS.151         	14.445         	6.486
MS.152         	14.417         	6.463
MS.153         	14.387         	6.216
MS.154         	14.36          	6.469
MS.155         	14.33          	6.32
MS.156         	14.302         	6.051
MS.157         	14.273         	6.23
MS.158         	14.245         	6.183
MS.159         	14.217         	5.899
MS.160         	14.188         	5.567
MS.161         	14.16          	5.581
MS.162         	14.132         	5.362
MS.163         	14.102         	5.609
MS.164         	14.075         	5.525
MS.165         	14.047         	5.158
MS.166         	14.02          	5.287
MS.167         	13.99          	5.368
MS.168         	13.962         	5.263
MS.169         	13.935         	4.731
MS.170         	13.907         	4.812
MS.171         	13.88          	4.929
MS.172         	13.852         	5.229
MS.173         	13.825         	5.227
MS.174         	13.797         	4.812
MS.175         	13.77          	4.534
MS.176         	13.742         	4.679
MS.177         	13.715         	4.455
MS.178         	13.688         	4.627
MS.179         	13.66          	4.671
MS.180         	13.632         	4.538
MS.181         	13.605         	4.276
MS.182         	13.577         	4.433
MS.183         	13.55          	4.012
MS.184         	13.523         	4.077
MS.185         	13.495         	4.586
MS.186         	13.47          	4.345
MS.187         	13.443         	4.107
MS.188         	13.415         	4.427
MS.189         	13.387         	3.712
MS.190         	13.362         	3.962
MS.191         	13.335         	3.571
MS.192         	13.307         	3.716
MS.193         	13.282         	4.042
MS.194         	13.255         	3.954
MS.195         	13.23          	4.129
MS.196         	13.202         	3.45
MS.197         	13.175         	3.412
MS.198         	13.15          	3.464
MS.199         	13.122         	3.372
MS.200         	13.097         	3.619
MS.201         	13.07          	4.036
MS.202         	13.045         	3.14
MS.203         	13.02          	3.235
MS.204         	12.992         	3.448
MS.205         	12.967         	3.559
MS.206         	12.94          	3.539
MS.207         	12.915         	3.174
MS.208         	12.89          	3.257
MS.209         	12.862         	2.969
MS.210         	12.837         	3.219
MS.211         	12.812         	3.003
MS.212         	12.787         	3.154
MS.213         	12.76          	3.08
MS.214         	12.735         	2.818
MS.215         	12.71          	3.025
MS.216         	12.685         	3.08
MS.217         	12.66          	2.919
MS.218         	12.635         	2.804
MS.219         	12.61          	2.838
MS.220         	12.585         	2.86
MS.221         	12.557         	2.796
MS.222         	12.532         	2.949
MS.223         	12.507         	2.925
MS.224         	12.483         	2.842
MS.225         	12.457         	2.647
MS.226         	12.432         	2.685
MS.227         	12.41          	2.667
MS.228         	12.385         	2.693
MS.229         	12.36          	2.51
MS.230         	12.335         	2.542
MS.231         	12.31          	2.624
MS.232         	12.285         	2.562
MS.233         	12.26          	2.55
MS.234         	12.238         	2.534
MS.235         	12.212         	2.179
MS.236         	12.188         	2.429
MS.237         	12.162         	2.405
MS.238         	12.14          	2.222
MS.239         	12.115         	2.224
MS.240         	12.09          	2.163
MS.241         	12.065         	2.085
MS.242         	12.042         	2.137
MS.243         	12.017         	2.113
MS.244         	11.995         	2.121
MS.245         	11.97          	2.125
MS.246         	11.945         	2.018
MS.247         	11.922         	1.873
MS.248         	11.898         	1.932
MS.249         	11.875         	1.996
MS.250         	11.85          	2.083
MS.251         	11.827         	2.03
MS.252         	11.802         	1.859
MS.253         	11.78          	1.867
MS.254         	11.757         	1.859
MS.255         	11.733         	1.913
MS.256         	11.71          	1.871
MS.257         	11.685         	1.511
MS.258         	11.662         	1.635
MS.259         	11.64          	1.499
MS.260         	11.617         	1.726
MS.261         	11.592         	1.696
MS.262         	11.57          	1.589
MS.263         	11.547         	1.597
MS.264         	11.525         	1.233
MS.265         	11.5           	1.194
MS.266         	11.477         	1.644
MS.267         	11.455         	1.426
MS.268         	11.432         	1.217
MS.269         	11.41          	1.029
MS.270         	11.387         	1.009
MS.271         	11.363         	1.303
MS.272         	11.34          	1.122
MS.273         	11.318         	0.971
MS.274         	11.295         	1.118
MS.275         	11.273         	1.078
MS.276         	11.25          	1.043
MS.277         	11.227         	0.912
MS.278         	11.205         	0.953
MS.279         	11.182         	0.838
MS.280         	11.16          	0.943
MS.281         	11.137         	0.898
MS.282         	11.117         	0.854
MS.283         	11.095         	0.743
MS.284         	11.073         	0.961
MS.285         	11.05          	0.681
MS.286         	11.028         	0.735
MS.287         	11.005         	0.695
MS.288         	10.983         	0.753
MS.289         	10.962         	0.693
MS.290         	10.94          	0.765
MS.291         	10.917         	0.775
MS.292         	10.895         	0.757
MS.293         	10.875         	0.649
MS.294         	10.852         	0.608
MS.295         	10.83          	0.669
MS.296         	10.81          	0.659
MS.297         	10.787         	0.5
MS.298         	10.765         	0.701
MS.299         	10.745         	0.558
MS.300         	10.722         	0.552
MS.301         	10.702         	0.417
MS.302         	10.68          	0.558
MS.303         	10.66          	0.385
MS.304         	10.637         	0.526
MS.305         	10.617         	0.342
MS.306         	10.595         	0.33
MS.307         	10.575         	0.485
MS.308         	10.552         	0.389
MS.309         	10.532         	0.34
MS.310         	10.51          	0.487
MS.311         	10.49          	0.512
MS.312         	10.47          	0.22
MS.313         	10.448         	0.433
MS.314         	10.427         	0.236
MS.315         	10.407         	0.25
MS.316         	10.385         	0.361
MS.317         	10.365         	0.35
MS.318         	10.345         	0.389
MS.319         	10.323         	0.316
MS.320         	10.302         	0.256
MS.321         	10.282         	0.177
MS.322         	10.262         	0.228
MS.323         	10.24          	0.244
MS.324         	10.22          	0.125
MS.325         	10.2           	0.216
MS.326         	10.18          	0.087
MS.327         	10.16          	0.264
MS.328         	10.14          	0.199
MS.329         	10.12          	0.179
MS.330         	10.097         	0.22
MS.331         	10.077         	0.155
MS.332         	10.057         	0.197
MS.333         	10.037         	0.058
MS.334         	10.017         	0.113
MS.335         	9.997          	0.111
MS.336         	9.977          	0.103
MS.337         	9.957          	0.111
MS.338         	9.938          	0.153
MS.339         	9.917          	0.024
MS.340         	9.9            	0.038
MS.341         	9.88           	0.153
MS.342         	9.86           	0.111
MS.343         	9.84           	0.064
MS.344         	9.82           	0.06
MS.345         	9.8            	0.028
MS.346         	9.78           	0.121
MS.347         	9.76           	0.02
MS.348         	9.742          	0.058
MS.349         	9.722          	0.066
MS.350         	9.702          	0.064
MS.351         	9.682          	0.022
MS.352         	9.665          	0.06
MS.353         	9.645          	0.068
MS.354         	9.625          	0.056
MS.355         	9.605          	0.008
MS.356         	9.587          	0.018
MS.357         	9.568          	0.058
MS.358         	9.55           	0.022
MS.359         	9.53           	0.06
MS.360         	9.51           	0.06
MS.361         	9.492          	0.016
MS.362         	9.472          	0.058
MS.363         	9.452          	0.018
MS.364         	9.435          	0.024
MS.365         	9.415          	0.006
MS.366         	9.398          	0.054
MS.367         	9.377          	0.016
MS.368         	9.36           	0.006
MS.369         	9.34           	0.014
MS.370         	9.323          	0.016
MS.371         	9.302          	0.022
MS.372         	9.285          	0.02
MS.373         	9.267          	0.016
MS.374         	9.247          	0.02
MS.375         	9.23           	0.016
MS.376         	9.21           	0.000
MS.377         	9.193          	0.002
MS.378         	9.175          	0.018
MS.379         	9.155          	0.018
MS.380         	9.137          	0.018
MS.381         	9.12           	0.004
MS.382         	9.1            	0.002
MS.383         	9.082          	0.000
MS.384         	9.065          	0.004
MS.385         	9.047          	0.002
MS.386         	9.028          	0.000
MS.387         	9.01           	-0.002
MS.388         	8.992          	0.000
MS.389         	8.975          	0.000
MS.390         	8.957          	0.000
MS.391         	8.94           	0.018
MS.392         	8.92           	0.002
MS.393         	8.903          	0.016
MS.394         	8.885          	0.006
MS.395         	8.867          	0.002
MS.396         	8.85           	0.004
MS.397         	8.832          	0.006
MS.398         	8.815          	0.002
DERIVED EXCITABILITY VARIABLES
Program = QTracP 9/10/2021
Threshold method = 6 (optimised for CAP, using data for present condition only)
SR method = 1 (using actual data values)
6.                 	0.000               	Peak response\(mV)
9.                 	35                  	Temperature ( C)
17.                	70                  	Age (years)
18.                	1                   	Sex (M=1, F=2)

EXTRA VARIABLES

MScPeak(mV) = 8.17
MScS5(mA) = 10.55
MScS50(mA) = 13.39
MScS95(mA) = 16.83
MScNSteps = 3
MScSteps(%) = 7.9
MScStepMax(%) = 2.9
MScD50 = 39
MScSlope = 5.58
MScDuration(min) = 3.9
MSFTraces = 371
MSFPeakAmp(mV) = 8.21
MSFNUnits = 102
MSFMeanUnitAmp(uV) = 80.5
MSFHuntTime(m) = 1.54
MSFError(%) = 4.8
MSFNLarge = 27.21
MSFMedianAmp(%) = 0.801
MSFMedianAmp(mV) = 0.0658
MSFHalfAmpAmp(%) = 1.17
MSFHalfAmpAmp(mV) = 0.0962
MSFLargestAmp(%) = 4.73
MSFLargestAmp(mV) = 0.388
MSFMeanRS(%) = 2
MSFSizeLimit(uV) = 20.5
MSFLimitType = 1
MSFSmallestAmp(uV) = 21
MSFOpts = 10106121

EXTRA WAVEFORMS


!MScan Model
!102
	1	9.46	0.31	2
	2	9.88	0.64	2
	3	9.97	0.44	2
	4	10.11	0.54	2
	5	10.24	0.87	2
	6	10.38	0.92	2
	7	10.57	1.3	2
	8	10.65	0.78	2
	9	10.7	0.5	2
	10	10.74	0.32	2
	11	10.8	0.67	2
	12	10.87	0.72	2
	13	10.95	0.89	2
	14	11.01	0.47	2
	15	11.05	0.37	2
	16	11.09	0.54	2
	17	11.15	0.62	2
	18	11.23	0.92	2
	19	11.33	1.62	2
	20	11.39	1.22	2
	21	11.45	1.6	2
	22	11.51	0.86	2
	23	11.56	1.26	2
	24	11.62	1.33	2
	25	11.68	1.2	2
	26	11.73	1.08	2
	27	11.79	0.8	2
	28	11.86	1.23	2
	29	11.93	0.72	2
	30	11.98	0.91	2
	31	12.04	0.73	2
	32	12.07	0.38	2
	33	12.1	0.44	2
	34	12.12	0.51	2
	35	12.15	0.48	2
	36	12.18	0.54	2
	37	12.21	0.37	2
	38	12.23	0.34	2
	39	12.26	0.54	2
	40	12.29	0.54	2
	41	12.33	0.87	2
	42	12.38	0.75	2
	43	12.45	1.08	2
	44	12.52	0.88	2
	45	12.64	1.53	2
	46	12.69	0.55	2
	47	12.73	0.87	2
	48	12.78	0.75	2
	49	12.9	2.1	2
	50	13.07	2.93	2
	51	13.3	4.73	2
	52	13.42	2.51	2
	53	13.51	1.47	2
	54	13.6	2.02	2
	55	13.7	2.72	2
	56	13.75	1.15	2
	57	13.81	1.76	2
	58	13.86	1.28	2
	59	13.92	1.52	2
	60	13.97	1.31	2
	61	13.99	0.62	2
	62	14.01	0.8	2
	63	14.04	0.48	2
	64	14.06	0.74	2
	65	14.08	0.94	2
	66	14.11	0.84	2
	67	14.13	0.93	2
	68	14.16	1.01	2
	69	14.18	0.79	2
	70	14.21	0.63	2
	71	14.23	0.73	2
	72	14.27	1.15	2
	73	14.31	1.39	2
	74	14.35	1.57	2
	75	14.45	2.82	2
	76	14.58	1.12	2
	77	14.67	1.12	2
	78	14.75	0.67	2
	79	14.81	0.53	2
	80	14.88	0.55	2
	81	14.94	0.3	2
	82	14.97	0.26	2
	83	14.99	0.39	2
	84	15.08	0.56	2
	85	15.13	0.32	2
	86	15.19	0.33	2
	87	15.25	0.43	2
	88	15.32	0.34	2
	89	15.44	0.54	2
	90	15.54	0.38	2
	91	15.77	0.85	2
	92	15.88	0.83	2
	93	15.96	0.58	2
	94	16.05	0.56	2
	95	16.11	0.54	2
	96	16.17	0.6	2
	97	16.29	1.34	2
	98	16.46	1.17	2
	99	16.63	1.49	2
	100	16.86	1.68	2
	101	17.13	2.85	2
	102	17.92	0.94	2

