File:              	C:\Qtrac\Data\Daniel M Sørensen\MScan multicentre study\Data from centres\Roskilde\Folders with NC-examinations\ROS_N10b\MBC00623B.QZD
Name:              	DK.ROS.NC.10.2
Protocol:          	MSCAN-R2
Date:              	23/6/20
Start time:        	19:18:46
Age:               	44
Sex:               	f
Temperature:       	38.3
S/R sites:         	Median Wr-APB
NC/disease:        	NC
Operator:          	MB
Comments:
M-SCAN DATA (9.1-1.3m)
Scanpts: 17, 26, 811, 832
Stim. (mA)     	Amp. (mV)
MS.1           	13.5           	7.106
MS.2           	13.5           	7.116
MS.3           	13.5           	7.118
MS.4           	13.5           	7.08
MS.5           	13.5           	7.078
MS.6           	13.5           	7.098
MS.7           	13.5           	7.116
MS.8           	13.5           	7.178
MS.9           	13.5           	7.142
MS.10          	13.5           	7.14
MS.11          	13.5           	7.11
MS.12          	13.5           	7.108
MS.13          	13.5           	7.096
MS.14          	13.5           	7.092
MS.15          	13.5           	7.106
MS.16          	13.5           	7.096
MS.17          	13.5           	7.126
MS.18          	13.5           	7.12
MS.19          	13.5           	7.132
MS.20          	13.5           	7.12
MS.21          	13.5           	7.102
MS.22          	13.5           	7.1
MS.23          	13.5           	7.096
MS.24          	13.445         	7.126
MS.25          	13.42          	7.118
MS.26          	13.392         	7.124
MS.27          	13.365         	7.1
MS.28          	13.34          	7.08
MS.29          	13.312         	7.1
MS.30          	13.285         	7.088
MS.31          	13.26          	7.088
MS.32          	13.233         	7.072
MS.33          	13.205         	7.09
MS.34          	13.18          	7.086
MS.35          	13.153         	7.078
MS.36          	13.127         	7.1
MS.37          	13.1           	7.09
MS.38          	13.075         	7.094
MS.39          	13.047         	7.086
MS.40          	13.023         	7.098
MS.41          	12.997         	7.086
MS.42          	12.97          	7.092
MS.43          	12.945         	7.104
MS.44          	12.92          	7.078
MS.45          	12.892         	7.07
MS.46          	12.867         	7.056
MS.47          	12.842         	6.949
MS.48          	12.815         	7.044
MS.49          	12.79          	7.05
MS.50          	12.765         	7.046
MS.51          	12.74          	7.044
MS.52          	12.715         	7.062
MS.53          	12.688         	7.033
MS.54          	12.662         	7.052
MS.55          	12.637         	6.955
MS.56          	12.613         	6.961
MS.57          	12.587         	6.941
MS.58          	12.562         	6.973
MS.59          	12.537         	6.949
MS.60          	12.512         	6.939
MS.61          	12.488         	7.076
MS.62          	12.462         	6.973
MS.63          	12.438         	7.116
MS.64          	12.412         	6.971
MS.65          	12.387         	6.949
MS.66          	12.363         	6.935
MS.67          	12.337         	6.917
MS.68          	12.312         	6.925
MS.69          	12.29          	6.927
MS.70          	12.265         	7.035
MS.71          	12.24          	6.911
MS.72          	12.215         	6.911
MS.73          	12.19          	6.919
MS.74          	12.167         	6.913
MS.75          	12.142         	6.919
MS.76          	12.117         	6.921
MS.77          	12.092         	6.915
MS.78          	12.07          	6.919
MS.79          	12.045         	6.911
MS.80          	12.023         	6.921
MS.81          	11.997         	6.911
MS.82          	11.972         	6.905
MS.83          	11.95          	6.901
MS.84          	11.925         	6.898
MS.85          	11.903         	6.911
MS.86          	11.877         	6.921
MS.87          	11.855         	6.925
MS.88          	11.83          	6.896
MS.89          	11.807         	6.89
MS.90          	11.782         	6.896
MS.91          	11.76          	6.894
MS.92          	11.738         	6.903
MS.93          	11.712         	6.894
MS.94          	11.69          	6.901
MS.95          	11.665         	6.911
MS.96          	11.642         	6.907
MS.97          	11.62          	6.919
MS.98          	11.597         	6.905
MS.99          	11.572         	6.925
MS.100         	11.55          	6.931
MS.101         	11.528         	6.913
MS.102         	11.505         	6.943
MS.103         	11.48          	6.923
MS.104         	11.457         	6.935
MS.105         	11.435         	6.921
MS.106         	11.412         	6.921
MS.107         	11.39          	6.931
MS.108         	11.367         	6.913
MS.109         	11.345         	6.919
MS.110         	11.322         	6.925
MS.111         	11.297         	6.931
MS.112         	11.275         	6.929
MS.113         	11.252         	6.937
MS.114         	11.23          	6.913
MS.115         	11.207         	6.884
MS.116         	11.188         	6.894
MS.117         	11.165         	6.882
MS.118         	11.142         	6.876
MS.119         	11.12          	6.884
MS.120         	11.097         	6.874
MS.121         	11.075         	6.888
MS.122         	11.052         	6.876
MS.123         	11.03          	6.866
MS.124         	11.007         	6.892
MS.125         	10.988         	6.89
MS.126         	10.965         	6.907
MS.127         	10.943         	6.898
MS.128         	10.92          	6.903
MS.129         	10.9           	6.913
MS.130         	10.877         	6.913
MS.131         	10.855         	6.939
MS.132         	10.835         	6.925
MS.133         	10.812         	6.923
MS.134         	10.79          	6.941
MS.135         	10.77          	6.909
MS.136         	10.747         	6.917
MS.137         	10.725         	6.901
MS.138         	10.705         	6.931
MS.139         	10.682         	6.921
MS.140         	10.662         	6.945
MS.141         	10.64          	6.959
MS.142         	10.62          	6.937
MS.143         	10.597         	6.923
MS.144         	10.577         	6.939
MS.145         	10.555         	6.917
MS.146         	10.535         	6.927
MS.147         	10.515         	6.915
MS.148         	10.492         	6.935
MS.149         	10.472         	6.923
MS.150         	10.45          	6.76
MS.151         	10.43          	6.931
MS.152         	10.41          	6.907
MS.153         	10.387         	6.925
MS.154         	10.367         	6.892
MS.155         	10.347         	6.927
MS.156         	10.325         	6.907
MS.157         	10.305         	6.905
MS.158         	10.285         	6.901
MS.159         	10.265         	6.903
MS.160         	10.245         	6.903
MS.161         	10.222         	6.864
MS.162         	10.202         	6.898
MS.163         	10.182         	6.842
MS.164         	10.162         	6.717
MS.165         	10.142         	6.892
MS.166         	10.122         	6.774
MS.167         	10.102         	6.921
MS.168         	10.082         	6.774
MS.169         	10.06          	6.735
MS.170         	10.04          	6.747
MS.171         	10.02          	6.766
MS.172         	10             	6.737
MS.173         	9.98           	6.697
MS.174         	9.96           	6.663
MS.175         	9.94           	6.731
MS.176         	9.922          	6.689
MS.177         	9.903          	6.697
MS.178         	9.882          	6.743
MS.179         	9.863          	6.673
MS.180         	9.842          	6.707
MS.181         	9.823          	6.701
MS.182         	9.802          	6.711
MS.183         	9.782          	6.711
MS.184         	9.765          	6.707
MS.185         	9.745          	6.709
MS.186         	9.725          	6.6
MS.187         	9.705          	6.689
MS.188         	9.685          	6.564
MS.189         	9.667          	6.679
MS.190         	9.648          	6.691
MS.191         	9.627          	6.649
MS.192         	9.61           	6.544
MS.193         	9.59           	6.536
MS.194         	9.57           	6.524
MS.195         	9.552          	6.554
MS.196         	9.532          	6.524
MS.197         	9.512          	6.534
MS.198         	9.495          	6.528
MS.199         	9.475          	6.419
MS.200         	9.457          	6.53
MS.201         	9.438          	6.433
MS.202         	9.417          	6.478
MS.203         	9.4            	6.488
MS.204         	9.38           	6.347
MS.205         	9.363          	6.365
MS.206         	9.342          	6.423
MS.207         	9.325          	6.202
MS.208         	9.305          	6.278
MS.209         	9.287          	6.222
MS.210         	9.27           	6.395
MS.211         	9.25           	6.23
MS.212         	9.233          	6.274
MS.213         	9.212          	6.389
MS.214         	9.195          	6.302
MS.215         	9.177          	6.105
MS.216         	9.158          	6.298
MS.217         	9.14           	6.101
MS.218         	9.122          	6.026
MS.219         	9.102          	6.272
MS.220         	9.085          	6.135
MS.221         	9.068          	6.449
MS.222         	9.05           	6.109
MS.223         	9.03           	6.254
MS.224         	9.012          	6.294
MS.225         	8.995          	6.137
MS.226         	8.977          	6.149
MS.227         	8.96           	6
MS.228         	8.943          	5.964
MS.229         	8.922          	5.998
MS.230         	8.905          	5.962
MS.231         	8.887          	5.934
MS.232         	8.87           	5.777
MS.233         	8.852          	5.906
MS.234         	8.835          	5.783
MS.235         	8.818          	5.976
MS.236         	8.8            	5.982
MS.237         	8.783          	5.946
MS.238         	8.765          	5.845
MS.239         	8.747          	5.73
MS.240         	8.73           	5.837
MS.241         	8.712          	5.746
MS.242         	8.695          	5.688
MS.243         	8.677          	5.642
MS.244         	8.66           	5.688
MS.245         	8.642          	5.609
MS.246         	8.625          	5.692
MS.247         	8.608          	5.438
MS.248         	8.59           	5.672
MS.249         	8.573          	5.422
MS.250         	8.557          	5.483
MS.251         	8.54           	5.295
MS.252         	8.523          	5.416
MS.253         	8.505          	5.277
MS.254         	8.488          	5.307
MS.255         	8.472          	5.392
MS.256         	8.455          	5.166
MS.257         	8.438          	5.152
MS.258         	8.42           	5.084
MS.259         	8.405          	4.983
MS.260         	8.387          	4.925
MS.261         	8.37           	5.11
MS.262         	8.352          	5.098
MS.263         	8.337          	4.874
MS.264         	8.32           	4.955
MS.265         	8.302          	4.983
MS.266         	8.287          	4.888
MS.267         	8.27           	4.727
MS.268         	8.255          	4.814
MS.269         	8.238          	4.504
MS.270         	8.22           	4.747
MS.271         	8.205          	4.88
MS.272         	8.188          	4.687
MS.273         	8.172          	4.596
MS.274         	8.155          	4.479
MS.275         	8.14           	4.457
MS.276         	8.122          	4.52
MS.277         	8.108          	4.701
MS.278         	8.09           	4.322
MS.279         	8.075          	4.443
MS.280         	8.057          	4.345
MS.281         	8.042          	4.395
MS.282         	8.025          	4.592
MS.283         	8.01           	4.147
MS.284         	7.995          	4.055
MS.285         	7.977          	4.347
MS.286         	7.962          	4.193
MS.287         	7.945          	4.381
MS.288         	7.93           	4.389
MS.289         	7.915          	3.891
MS.290         	7.898          	4.026
MS.291         	7.882          	3.942
MS.292         	7.867          	3.414
MS.293         	7.852          	3.579
MS.294         	7.835          	3.797
MS.295         	7.82           	3.619
MS.296         	7.805          	3.098
MS.297         	7.79           	3.497
MS.298         	7.773          	3.392
MS.299         	7.757          	3.428
MS.300         	7.742          	3.466
MS.301         	7.727          	2.767
MS.302         	7.712          	3.08
MS.303         	7.695          	2.983
MS.304         	7.68           	2.892
MS.305         	7.665          	3.233
MS.306         	7.65           	2.433
MS.307         	7.635          	2.711
MS.308         	7.62           	2.769
MS.309         	7.605          	2.681
MS.310         	7.59           	2.89
MS.311         	7.572          	2.643
MS.312         	7.557          	2.449
MS.313         	7.543          	2.389
MS.314         	7.527          	2.367
MS.315         	7.512          	2.338
MS.316         	7.497          	2.22
MS.317         	7.482          	2.407
MS.318         	7.467          	2.373
MS.319         	7.452          	2.284
MS.320         	7.438          	2.286
MS.321         	7.425          	2.159
MS.322         	7.41           	2.338
MS.323         	7.395          	1.901
MS.324         	7.38           	2.145
MS.325         	7.365          	2.067
MS.326         	7.35           	2.117
MS.327         	7.335          	1.926
MS.328         	7.32           	2.03
MS.329         	7.305          	1.887
MS.330         	7.293          	1.807
MS.331         	7.277          	1.998
MS.332         	7.262          	1.928
MS.333         	7.247          	1.867
MS.334         	7.233          	1.666
MS.335         	7.22           	1.708
MS.336         	7.205          	1.793
MS.337         	7.19           	1.605
MS.338         	7.175          	1.674
MS.339         	7.162          	1.414
MS.340         	7.148          	1.317
MS.341         	7.132          	1.426
MS.342         	7.117          	1.49
MS.343         	7.105          	1.372
MS.344         	7.09           	1.368
MS.345         	7.075          	1.285
MS.346         	7.062          	1.261
MS.347         	7.047          	1.208
MS.348         	7.032          	1.255
MS.349         	7.02           	1.243
MS.350         	7.005          	1.1
MS.351         	6.992          	1.128
MS.352         	6.977          	1.227
MS.353         	6.962          	1.106
MS.354         	6.95           	1.13
MS.355         	6.935          	0.999
MS.356         	6.922          	1.168
MS.357         	6.907          	0.961
MS.358         	6.895          	1.003
MS.359         	6.88           	0.981
MS.360         	6.867          	0.989
MS.361         	6.852          	0.937
MS.362         	6.84           	0.997
MS.363         	6.825          	0.864
MS.364         	6.812          	0.892
MS.365         	6.797          	0.834
MS.366         	6.785          	0.79
MS.367         	6.773          	0.794
MS.368         	6.757          	0.816
MS.369         	6.745          	0.649
MS.370         	6.73           	0.834
MS.371         	6.717          	0.814
MS.372         	6.705          	0.719
MS.373         	6.69           	0.8
MS.374         	6.677          	0.645
MS.375         	6.665          	0.689
MS.376         	6.65           	0.715
MS.377         	6.637          	0.59
MS.378         	6.625          	0.679
MS.379         	6.61           	0.645
MS.380         	6.597          	0.586
MS.381         	6.585          	0.717
MS.382         	6.57           	0.616
MS.383         	6.557          	0.58
MS.384         	6.545          	0.655
MS.385         	6.532          	0.548
MS.386         	6.52           	0.566
MS.387         	6.505          	0.564
MS.388         	6.492          	0.524
MS.389         	6.48           	0.506
MS.390         	6.467          	0.572
MS.391         	6.455          	0.544
MS.392         	6.44           	0.506
MS.393         	6.427          	0.497
MS.394         	6.415          	0.481
MS.395         	6.402          	0.469
MS.396         	6.39           	0.469
MS.397         	6.378          	0.455
MS.398         	6.365          	0.483
MS.399         	6.352          	0.469
MS.400         	6.34           	0.473
MS.401         	6.325          	0.469
MS.402         	6.312          	0.461
MS.403         	6.3            	0.437
MS.404         	6.287          	0.461
MS.405         	6.275          	0.469
MS.406         	6.262          	0.465
MS.407         	6.25           	0.451
MS.408         	6.237          	0.487
MS.409         	6.225          	0.457
MS.410         	6.213          	0.425
MS.411         	6.2            	0.459
MS.412         	6.188          	0.435
MS.413         	6.175          	0.427
MS.414         	6.165          	0.447
MS.415         	6.152          	0.421
MS.416         	6.14           	0.427
MS.417         	6.128          	0.413
MS.418         	6.115          	0.425
MS.419         	6.102          	0.423
MS.420         	6.09           	0.425
MS.421         	6.077          	0.377
MS.422         	6.065          	0.421
MS.423         	6.055          	0.413
MS.424         	6.043          	0.417
MS.425         	6.03           	0.379
MS.426         	6.017          	0.409
MS.427         	6.005          	0.348
MS.428         	5.992          	0.407
MS.429         	5.983          	0.421
MS.430         	5.97           	0.403
MS.431         	5.957          	0.425
MS.432         	5.945          	0.409
MS.433         	5.935          	0.411
MS.434         	5.922          	0.371
MS.435         	5.91           	0.33
MS.436         	5.898          	0.405
MS.437         	5.887          	0.369
MS.438         	5.875          	0.375
MS.439         	5.862          	0.334
MS.440         	5.852          	0.354
MS.441         	5.84           	0.357
MS.442         	5.827          	0.292
MS.443         	5.817          	0.387
MS.444         	5.805          	0.262
MS.445         	5.793          	0.346
MS.446         	5.782          	0.312
MS.447         	5.77           	0.298
MS.448         	5.757          	0.294
MS.449         	5.747          	0.344
MS.450         	5.735          	0.25
MS.451         	5.725          	0.354
MS.452         	5.713          	0.33
MS.453         	5.702          	0.266
MS.454         	5.69           	0.334
MS.455         	5.677          	0.31
MS.456         	5.668          	0.284
MS.457         	5.655          	0.278
MS.458         	5.645          	0.246
MS.459         	5.632          	0.248
MS.460         	5.622          	0.242
MS.461         	5.61           	0.284
MS.462         	5.6            	0.254
MS.463         	5.588          	0.296
MS.464         	5.577          	0.244
MS.465         	5.565          	0.316
MS.466         	5.555          	0.242
MS.467         	5.545          	0.256
MS.468         	5.532          	0.238
MS.469         	5.523          	0.242
MS.470         	5.51           	0.232
MS.471         	5.5            	0.232
MS.472         	5.487          	0.27
MS.473         	5.477          	0.246
MS.474         	5.467          	0.24
MS.475         	5.455          	0.236
MS.476         	5.445          	0.23
MS.477         	5.435          	0.236
MS.478         	5.422          	0.224
MS.479         	5.412          	0.228
MS.480         	5.402          	0.238
MS.481         	5.39           	0.226
MS.482         	5.38           	0.214
MS.483         	5.37           	0.207
MS.484         	5.358          	0.232
MS.485         	5.347          	0.224
MS.486         	5.338          	0.218
MS.487         	5.327          	0.216
MS.488         	5.315          	0.216
MS.489         	5.305          	0.222
MS.490         	5.295          	0.218
MS.491         	5.285          	0.216
MS.492         	5.273          	0.209
MS.493         	5.262          	0.209
MS.494         	5.253          	0.216
MS.495         	5.242          	0.203
MS.496         	5.233          	0.205
MS.497         	5.22           	0.207
MS.498         	5.21           	0.195
MS.499         	5.2            	0.214
MS.500         	5.19           	0.199
