File:              	C:\Qtrac\Data\Daniel M Sørensen\MScan multicentre study\Data from centres\Roskilde\Folders with NC-examinations\ROS_N5a\MBC00416A.QZD
Name:              	DK.ROS.NC.5.1
Protocol:          	MSCAN-R2
Date:              	16/4/20
Start time:        	13:19:32
Age:               	33
Sex:               	m
Temperature:       	36.8
S/R sites:         	Median Wr-APB
NC/disease:        	NC
Operator:          	MB
Comments:
M-SCAN DATA (8.3-1.3m)
Scanpts: 92, 99, 726, 745
Stim. (mA)     	Amp. (mV)
MS.1           	15.5           	9.374
MS.2           	15.5           	9.376
MS.3           	15.5           	9.384
MS.4           	15.5           	9.368
MS.5           	15.5           	9.354
MS.6           	15.5           	9.356
MS.7           	15.5           	9.358
MS.8           	15.5           	9.364
MS.9           	15.5           	9.378
MS.10          	15.5           	9.392
MS.11          	15.5           	9.394
MS.12          	15.5           	9.406
MS.13          	15.5           	9.404
MS.14          	15.5           	9.416
MS.15          	15.5           	9.412
MS.16          	15.5           	9.392
MS.17          	15.5           	9.392
MS.18          	15.5           	9.424
MS.19          	15.5           	9.483
MS.20          	15.5           	9.499
MS.21          	15.5           	9.523
MS.22          	15.5           	9.503
MS.23          	15.5           	9.45
MS.24          	15.438         	9.463
MS.25          	15.407         	9.461
MS.26          	15.377         	9.467
MS.27          	15.345         	9.475
MS.28          	15.315         	9.467
MS.29          	15.285         	9.481
MS.30          	15.255         	9.458
MS.31          	15.222         	9.463
MS.32          	15.193         	9.458
MS.33          	15.162         	9.467
MS.34          	15.132         	9.471
MS.35          	15.102         	9.467
MS.36          	15.072         	9.471
MS.37          	15.042         	9.483
MS.38          	15.012         	9.477
MS.39          	14.983         	9.483
MS.40          	14.952         	9.461
MS.41          	14.922         	9.456
MS.42          	14.892         	9.434
MS.43          	14.862         	9.438
MS.44          	14.832         	9.454
MS.45          	14.802         	9.467
MS.46          	14.773         	9.463
MS.47          	14.745         	9.458
MS.48          	14.715         	9.458
MS.49          	14.685         	9.452
MS.50          	14.655         	9.458
MS.51          	14.627         	9.473
MS.52          	14.597         	9.461
MS.53          	14.568         	9.446
MS.54          	14.54          	9.471
MS.55          	14.51          	9.467
MS.56          	14.48          	9.463
MS.57          	14.452         	9.458
MS.58          	14.422         	9.448
MS.59          	14.395         	9.45
MS.60          	14.365         	9.444
MS.61          	14.337         	9.45
MS.62          	14.307         	9.444
MS.63          	14.28          	9.446
MS.64          	14.25          	9.44
MS.65          	14.222         	9.458
MS.66          	14.195         	9.442
MS.67          	14.165         	9.446
MS.68          	14.137         	9.465
MS.69          	14.11          	9.461
MS.70          	14.08          	9.477
MS.71          	14.052         	9.458
MS.72          	14.025         	9.454
MS.73          	13.997         	9.471
MS.74          	13.97          	9.467
MS.75          	13.94          	9.442
MS.76          	13.912         	9.456
MS.77          	13.885         	9.446
MS.78          	13.858         	9.452
MS.79          	13.83          	9.467
MS.80          	13.802         	9.45
MS.81          	13.775         	9.454
MS.82          	13.747         	9.456
MS.83          	13.72          	9.444
MS.84          	13.693         	9.446
MS.85          	13.665         	9.458
MS.86          	13.637         	9.456
MS.87          	13.61          	9.45
MS.88          	13.582         	9.461
MS.89          	13.555         	9.471
MS.90          	13.53          	9.473
MS.91          	13.502         	9.479
MS.92          	13.475         	9.471
MS.93          	13.447         	9.465
MS.94          	13.42          	9.471
MS.95          	13.395         	9.463
MS.96          	13.367         	9.463
MS.97          	13.34          	9.475
MS.98          	13.315         	9.456
MS.99          	13.287         	9.461
MS.100         	13.26          	9.469
MS.101         	13.235         	9.467
MS.102         	13.207         	9.458
MS.103         	13.182         	9.467
MS.104         	13.155         	9.469
MS.105         	13.13          	9.454
MS.106         	13.102         	9.461
MS.107         	13.077         	9.446
MS.108         	13.05          	9.454
MS.109         	13.025         	9.461
MS.110         	12.997         	9.463
MS.111         	12.972         	9.45
MS.112         	12.947         	9.465
MS.113         	12.92          	9.454
MS.114         	12.895         	9.458
MS.115         	12.87          	9.473
MS.116         	12.842         	9.467
MS.117         	12.818         	9.446
MS.118         	12.792         	9.458
MS.119         	12.767         	9.438
MS.120         	12.74          	9.448
MS.121         	12.715         	9.444
MS.122         	12.69          	9.45
MS.123         	12.665         	9.45
MS.124         	12.64          	9.446
MS.125         	12.615         	9.444
MS.126         	12.59          	9.44
MS.127         	12.565         	9.428
MS.128         	12.54          	9.446
MS.129         	12.515         	9.446
MS.130         	12.49          	9.442
MS.131         	12.465         	9.448
MS.132         	12.44          	9.446
MS.133         	12.415         	9.436
MS.134         	12.39          	9.452
MS.135         	12.365         	9.452
MS.136         	12.34          	9.442
MS.137         	12.315         	9.444
MS.138         	12.29          	9.426
MS.139         	12.265         	9.442
MS.140         	12.242         	9.452
MS.141         	12.217         	9.446
MS.142         	12.193         	9.442
MS.143         	12.167         	9.436
MS.144         	12.145         	9.446
MS.145         	12.12          	9.446
MS.146         	12.095         	9.444
MS.147         	12.072         	9.454
MS.148         	12.047         	9.442
MS.149         	12.023         	9.44
MS.150         	12             	9.448
MS.151         	11.975         	9.44
MS.152         	11.95          	9.408
MS.153         	11.927         	9.446
MS.154         	11.903         	9.432
MS.155         	11.88          	9.434
MS.156         	11.855         	9.442
MS.157         	11.832         	9.444
MS.158         	11.807         	9.438
MS.159         	11.785         	9.436
MS.160         	11.762         	9.448
MS.161         	11.738         	9.446
MS.162         	11.715         	9.436
MS.163         	11.69          	9.404
MS.164         	11.667         	9.448
MS.165         	11.645         	9.446
MS.166         	11.622         	9.448
MS.167         	11.597         	9.44
MS.168         	11.575         	9.402
MS.169         	11.552         	9.4
MS.170         	11.528         	9.458
MS.171         	11.505         	9.404
MS.172         	11.483         	9.436
MS.173         	11.46          	9.394
MS.174         	11.438         	9.38
MS.175         	11.415         	9.404
MS.176         	11.39          	9.396
MS.177         	11.367         	9.386
MS.178         	11.345         	9.412
MS.179         	11.322         	9.384
MS.180         	11.3           	9.408
MS.181         	11.278         	9.39
MS.182         	11.255         	9.37
MS.183         	11.233         	9.376
MS.184         	11.21          	9.374
MS.185         	11.188         	9.384
MS.186         	11.165         	9.39
MS.187         	11.142         	9.315
MS.188         	11.12          	9.376
MS.189         	11.1           	9.368
MS.190         	11.077         	9.392
MS.191         	11.055         	9.352
MS.192         	11.032         	9.328
MS.193         	11.01          	9.388
MS.194         	10.988         	9.32
MS.195         	10.967         	9.37
MS.196         	10.945         	9.36
MS.197         	10.922         	9.35
MS.198         	10.9           	9.354
MS.199         	10.88          	9.352
MS.200         	10.858         	9.336
MS.201         	10.835         	9.382
MS.202         	10.815         	9.33
MS.203         	10.792         	9.352
MS.204         	10.77          	9.34
MS.205         	10.75          	9.348
MS.206         	10.727         	9.37
MS.207         	10.707         	9.336
MS.208         	10.685         	9.374
MS.209         	10.662         	9.362
MS.210         	10.642         	9.354
MS.211         	10.62          	9.344
MS.212         	10.6           	9.342
MS.213         	10.577         	9.35
MS.214         	10.557         	9.34
MS.215         	10.537         	9.32
MS.216         	10.515         	9.346
MS.217         	10.495         	9.293
MS.218         	10.472         	9.305
MS.219         	10.452         	9.338
MS.220         	10.432         	9.313
MS.221         	10.41          	9.293
MS.222         	10.39          	9.299
MS.223         	10.37          	9.281
MS.224         	10.347         	9.315
MS.225         	10.327         	9.303
MS.226         	10.307         	9.273
MS.227         	10.287         	9.299
MS.228         	10.265         	9.279
MS.229         	10.245         	9.289
MS.230         	10.225         	9.253
MS.231         	10.205         	9.279
MS.232         	10.185         	9.231
MS.233         	10.165         	9.215
MS.234         	10.142         	9.277
MS.235         	10.122         	9.269
MS.236         	10.102         	9.271
MS.237         	10.082         	9.267
MS.238         	10.062         	9.297
MS.239         	10.042         	9.229
MS.240         	10.023         	9.044
MS.241         	10.002         	9.203
MS.242         	9.983          	9.072
MS.243         	9.962          	9.215
MS.244         	9.943          	9.245
MS.245         	9.922          	9.058
MS.246         	9.903          	9.229
MS.247         	9.882          	9.271
MS.248         	9.863          	9.048
MS.249         	9.842          	9.205
MS.250         	9.825          	9.042
MS.251         	9.805          	9.048
MS.252         	9.785          	9.046
MS.253         	9.765          	9.05
MS.254         	9.745          	9.066
MS.255         	9.727          	9.036
MS.256         	9.707          	9.062
MS.257         	9.688          	9.04
MS.258         	9.667          	9.023
MS.259         	9.65           	9.058
MS.260         	9.63           	9.056
MS.261         	9.61           	9.015
MS.262         	9.59           	9.019
MS.263         	9.573          	8.995
MS.264         	9.552          	9.201
MS.265         	9.532          	9.046
MS.266         	9.515          	9.036
MS.267         	9.495          	9.029
MS.268         	9.477          	8.983
MS.269         	9.457          	9.001
MS.270         	9.44           	8.935
MS.271         	9.42           	8.923
MS.272         	9.4            	9.023
MS.273         	9.382          	8.818
MS.274         	9.363          	9.011
MS.275         	9.345          	9.003
MS.276         	9.327          	8.963
MS.277         	9.307          	8.917
MS.278         	9.29           	8.967
MS.279         	9.27           	9.052
MS.280         	9.252          	8.907
MS.281         	9.233          	8.613
MS.282         	9.215          	8.923
MS.283         	9.198          	8.697
MS.284         	9.177          	8.699
MS.285         	9.16           	8.876
MS.286         	9.142          	8.776
MS.287         	9.122          	8.739
MS.288         	9.105          	8.806
MS.289         	9.087          	8.695
MS.290         	9.07           	8.443
MS.291         	9.05           	8.693
MS.292         	9.033          	8.707
MS.293         	9.015          	8.58
MS.294         	8.997          	8.345
MS.295         	8.977          	8.272
MS.296         	8.96           	8.6
MS.297         	8.943          	8.371
MS.298         	8.925          	8.54
MS.299         	8.908          	8.655
MS.300         	8.89           	8.308
MS.301         	8.872          	8.58
MS.302         	8.852          	8.25
MS.303         	8.835          	8.276
MS.304         	8.818          	7.914
MS.305         	8.8            	8.302
MS.306         	8.783          	7.936
MS.307         	8.765          	7.823
MS.308         	8.747          	7.607
MS.309         	8.73           	7.759
MS.310         	8.712          	7.744
MS.311         	8.695          	7.646
MS.312         	8.677          	7.92
MS.313         	8.66           	7.62
MS.314         	8.642          	7.491
MS.315         	8.627          	7.928
MS.316         	8.61           	7.795
MS.317         	8.592          	7.956
MS.318         	8.575          	7.597
MS.319         	8.557          	7.513
MS.320         	8.54           	7.527
MS.321         	8.523          	7.414
MS.322         	8.507          	7.225
MS.323         	8.49           	7.162
MS.324         	8.472          	7.281
MS.325         	8.455          	7.08
MS.326         	8.44           	7.303
MS.327         	8.422          	7.066
MS.328         	8.405          	7.056
MS.329         	8.387          	6.973
MS.330         	8.372          	6.989
MS.331         	8.355          	6.894
MS.332         	8.337          	6.939
MS.333         	8.323          	6.76
MS.334         	8.305          	6.711
MS.335         	8.287          	6.568
MS.336         	8.273          	6.453
MS.337         	8.255          	6.407
MS.338         	8.238          	6.512
MS.339         	8.222          	6.713
MS.340         	8.205          	6.615
MS.341         	8.19           	6.453
MS.342         	8.172          	6.417
MS.343         	8.158          	6.024
MS.344         	8.14           	6.296
MS.345         	8.125          	5.91
MS.346         	8.108          	6.222
MS.347         	8.092          	5.958
MS.348         	8.075          	5.64
MS.349         	8.06           	5.744
MS.350         	8.042          	5.978
MS.351         	8.028          	6.111
MS.352         	8.01           	5.708
MS.353         	7.995          	5.638
MS.354         	7.98           	5.495
MS.355         	7.962          	5.815
MS.356         	7.947          	5.732
MS.357         	7.932          	5.533
MS.358         	7.915          	5.434
MS.359         	7.9            	5.12
MS.360         	7.885          	5.287
MS.361         	7.867          	5.493
MS.362         	7.852          	5.597
MS.363         	7.837          	5.581
MS.364         	7.82           	4.983
MS.365         	7.805          	4.876
MS.366         	7.79           	4.876
MS.367         	7.775          	4.745
MS.368         	7.76           	4.687
MS.369         	7.742          	4.868
MS.370         	7.727          	4.488
MS.371         	7.712          	4.653
MS.372         	7.697          	4.661
MS.373         	7.682          	4.814
MS.374         	7.668          	4.355
MS.375         	7.65           	4.33
MS.376         	7.635          	4.343
MS.377         	7.62           	3.974
MS.378         	7.605          	4.165
MS.379         	7.59           	3.686
MS.380         	7.575          	4.232
MS.381         	7.56           	3.815
MS.382         	7.545          	3.976
MS.383         	7.53           	3.652
MS.384         	7.515          	3.726
MS.385         	7.5            	3.406
MS.386         	7.485          	3.819
MS.387         	7.47           	3.615
MS.388         	7.455          	3.4
MS.389         	7.44           	3.307
MS.390         	7.425          	3.178
MS.391         	7.41           	3.13
MS.392         	7.395          	3.124
MS.393         	7.38           	3.142
MS.394         	7.365          	3.053
MS.395         	7.35           	3.001
MS.396         	7.337          	3.084
MS.397         	7.322          	2.8
MS.398         	7.307          	2.796
MS.399         	7.293          	2.896
MS.400         	7.277          	2.633
MS.401         	7.262          	2.673
MS.402         	7.25           	2.55
MS.403         	7.235          	2.759
MS.404         	7.22           	2.584
MS.405         	7.205          	2.427
MS.406         	7.19           	2.552
MS.407         	7.177          	2.377
MS.408         	7.162          	2.405
MS.409         	7.148          	2.274
MS.410         	7.132          	2.391
MS.411         	7.12           	2.346
MS.412         	7.105          	2.203
MS.413         	7.09           	2.145
MS.414         	7.077          	2.002
MS.415         	7.062          	2.203
MS.416         	7.047          	2.087
MS.417         	7.035          	1.922
MS.418         	7.02           	1.932
MS.419         	7.007          	1.96
MS.420         	6.992          	2.028
MS.421         	6.977          	1.942
MS.422         	6.965          	1.968
MS.423         	6.95           	1.873
MS.424         	6.938          	1.791
MS.425         	6.922          	1.605
MS.426         	6.91           	1.764
MS.427         	6.895          	1.539
MS.428         	6.882          	1.656
MS.429         	6.867          	1.642
MS.430         	6.855          	1.501
MS.431         	6.84           	1.565
MS.432         	6.827          	1.406
MS.433         	6.812          	1.362
MS.434         	6.8            	1.44
MS.435         	6.785          	1.273
MS.436         	6.773          	1.333
MS.437         	6.757          	1.349
MS.438         	6.745          	1.277
MS.439         	6.733          	1.285
MS.440         	6.717          	1.122
MS.441         	6.705          	1.13
MS.442         	6.692          	1.124
MS.443         	6.677          	1.323
MS.444         	6.665          	1.144
MS.445         	6.652          	1.08
MS.446         	6.637          	1.043
MS.447         	6.625          	0.914
MS.448         	6.612          	1.09
MS.449         	6.597          	0.854
MS.450         	6.585          	0.87
MS.451         	6.572          	0.92
MS.452         	6.56           	0.864
MS.453         	6.545          	0.902
MS.454         	6.532          	0.82
MS.455         	6.52           	0.874
MS.456         	6.507          	0.792
MS.457         	6.492          	0.794
MS.458         	6.48           	0.757
MS.459         	6.467          	0.773
MS.460         	6.455          	0.786
MS.461         	6.442          	0.755
MS.462         	6.43           	0.677
MS.463         	6.418          	0.677
MS.464         	6.402          	0.719
MS.465         	6.39           	0.693
MS.466         	6.378          	0.683
MS.467         	6.365          	0.737
MS.468         	6.352          	0.661
MS.469         	6.34           	0.685
MS.470         	6.327          	0.604
MS.471         	6.315          	0.661
MS.472         	6.302          	0.655
MS.473         	6.29           	0.636
MS.474         	6.277          	0.636
MS.475         	6.265          	0.63
MS.476         	6.253          	0.592
MS.477         	6.24           	0.574
MS.478         	6.227          	0.641
MS.479         	6.215          	0.56
MS.480         	6.202          	0.534
MS.481         	6.19           	0.526
MS.482         	6.177          	0.534
MS.483         	6.165          	0.524
MS.484         	6.152          	0.552
MS.485         	6.14           	0.431
MS.486         	6.128          	0.5
MS.487         	6.115          	0.479
MS.488         	6.102          	0.516
MS.489         	6.09           	0.504
MS.490         	6.08           	0.54
MS.491         	6.067          	0.491
MS.492         	6.055          	0.514
MS.493         	6.043          	0.391
MS.494         	6.03           	0.485
MS.495         	6.017          	0.391
MS.496         	6.007          	0.439
MS.497         	5.995          	0.359
MS.498         	5.983          	0.377
MS.499         	5.97           	0.352
MS.500         	5.957          	0.461
MS.501         	5.947          	0.371
