File:              	C:\Qtrac\Data\Daniel M Sørensen\MScan multicentre study\Data from centres\Toronto\Processed data\MSCC01126D.QZD
Name:              	CA.TOR.NC.6.2
Protocol:          	MSCAN-R2
Date:              	26/11/20
Start time:        	15:15:27
Age:               	42
Sex:               	F
Temperature:       	31.9
S/R sites:         	APB
NC/disease:        	NC
Operator:          	LP
Comments:          	MFF60ON
M-SCAN DATA (4.4-1.4m)
Scanpts: 76, 79, 309, 315
Stim. (mA)     	Amp. (mV)
MS.1           	9.5            	16.744
MS.2           	9.5            	16.665
MS.3           	9.5            	16.736
MS.4           	9.5            	16.718
MS.5           	9.5            	16.766
MS.6           	9.5            	16.758
MS.7           	9.5            	16.772
MS.8           	9.5            	16.796
MS.9           	9.5            	16.796
MS.10          	9.5            	16.832
MS.11          	9.5            	16.844
MS.12          	9.5            	16.838
MS.13          	9.5            	16.867
MS.14          	9.5            	16.889
MS.15          	9.5            	16.889
MS.16          	9.5            	16.879
MS.17          	9.5            	16.887
MS.18          	9.5            	16.911
MS.19          	9.5            	16.931
MS.20          	9.5            	16.931
MS.21          	9.5            	16.953
MS.22          	9.5            	16.971
MS.23          	9.5            	16.993
MS.24          	9.462          	16.971
MS.25          	9.443          	16.983
MS.26          	9.425          	16.993
MS.27          	9.405          	17.014
MS.28          	9.387          	17.01
MS.29          	9.367          	17.03
MS.30          	9.35           	17.064
MS.31          	9.33           	17.076
MS.32          	9.312          	17.092
MS.33          	9.292          	17.092
MS.34          	9.275          	17.104
MS.35          	9.255          	17.128
MS.36          	9.238          	17.13
MS.37          	9.22           	17.136
MS.38          	9.2            	17.149
MS.39          	9.182          	17.157
MS.40          	9.165          	17.167
MS.41          	9.145          	17.191
MS.42          	9.127          	17.185
MS.43          	9.11           	17.193
MS.44          	9.09           	17.223
MS.45          	9.073          	17.221
MS.46          	9.055          	17.225
MS.47          	9.037          	17.225
MS.48          	9.017          	17.243
MS.49          	9              	17.255
MS.50          	8.983          	17.245
MS.51          	8.965          	17.098
MS.52          	8.948          	17.267
MS.53          	8.93           	17.122
MS.54          	8.91           	17.128
MS.55          	8.892          	17.112
MS.56          	8.875          	17.302
MS.57          	8.858          	17.145
MS.58          	8.84           	17.169
MS.59          	8.823          	17.163
MS.60          	8.805          	17.165
MS.61          	8.787          	17.171
MS.62          	8.77           	17.159
MS.63          	8.752          	17.338
MS.64          	8.735          	17.197
MS.65          	8.717          	17.213
MS.66          	8.7            	17.211
MS.67          	8.682          	17.213
MS.68          	8.665          	17.225
MS.69          	8.648          	17.235
MS.70          	8.63           	17.231
MS.71          	8.613          	17.243
MS.72          	8.595          	17.235
MS.73          	8.577          	17.265
MS.74          	8.562          	17.257
MS.75          	8.545          	17.255
MS.76          	8.528          	17.243
MS.77          	8.51           	17.217
MS.78          	8.492          	17.241
MS.79          	8.477          	17.225
MS.80          	8.46           	17.255
MS.81          	8.443          	17.255
MS.82          	8.425          	17.235
MS.83          	8.41           	17.259
MS.84          	8.392          	17.225
MS.85          	8.375          	17.251
MS.86          	8.358          	17.279
MS.87          	8.342          	17.237
MS.88          	8.325          	17.255
MS.89          	8.307          	17.251
MS.90          	8.292          	17.05
MS.91          	8.275          	17.239
MS.92          	8.26           	17.032
MS.93          	8.242          	17.056
MS.94          	8.225          	17.08
MS.95          	8.21           	17.03
MS.96          	8.193          	17.251
MS.97          	8.177          	17.044
MS.98          	8.16           	17.026
MS.99          	8.145          	17.253
MS.100         	8.127          	17.052
MS.101         	8.113          	17.046
MS.102         	8.095          	17.028
MS.103         	8.08           	16.875
MS.104         	8.062          	16.854
MS.105         	8.047          	17.038
MS.106         	8.03           	17.261
MS.107         	8.015          	17.09
MS.108         	8              	16.836
MS.109         	7.982          	17.094
MS.110         	7.967          	16.959
MS.111         	7.95           	17.006
MS.112         	7.935          	16.935
MS.113         	7.92           	16.915
MS.114         	7.902          	16.713
MS.115         	7.887          	16.933
MS.116         	7.872          	16.913
MS.117         	7.855          	16.905
MS.118         	7.84           	16.724
MS.119         	7.825          	16.822
MS.120         	7.81           	16.85
MS.121         	7.793          	16.848
MS.122         	7.777          	16.802
MS.123         	7.762          	16.651
MS.124         	7.747          	16.893
MS.125         	7.732          	16.734
MS.126         	7.715          	16.413
MS.127         	7.7            	15.831
MS.128         	7.685          	15.845
MS.129         	7.67           	16.709
MS.130         	7.655          	16.49
MS.131         	7.64           	16.56
MS.132         	7.625          	16.454
MS.133         	7.607          	15.408
MS.134         	7.592          	15.805
MS.135         	7.577          	16.069
MS.136         	7.562          	15.35
MS.137         	7.547          	15.932
MS.138         	7.532          	15.523
MS.139         	7.517          	15.739
MS.140         	7.503          	14.536
MS.141         	7.487          	15.092
MS.142         	7.472          	14.732
MS.143         	7.457          	14.717
MS.144         	7.442          	15.074
MS.145         	7.427          	14.254
MS.146         	7.412          	15.048
MS.147         	7.398          	14.192
MS.148         	7.385          	13.853
MS.149         	7.37           	13.892
MS.150         	7.355          	13.253
MS.151         	7.34           	13.553
MS.152         	7.325          	12.862
MS.153         	7.31           	12.727
MS.154         	7.295          	12.891
MS.155         	7.28           	13.316
MS.156         	7.267          	12.832
MS.157         	7.253          	12.895
MS.158         	7.237          	11.757
MS.159         	7.222          	13.479
MS.160         	7.207          	12.133
MS.161         	7.195          	12.113
MS.162         	7.18           	11.982
MS.163         	7.165          	11.964
MS.164         	7.152          	11.469
MS.165         	7.137          	10.798
MS.166         	7.122          	11.326
MS.167         	7.108          	11.747
MS.168         	7.095          	10.155
MS.169         	7.08           	11.412
MS.170         	7.065          	10.683
MS.171         	7.052          	9.632
MS.172         	7.037          	10.317
MS.173         	7.023          	10.619
MS.174         	7.01           	9.404
MS.175         	6.995          	9.259
MS.176         	6.983          	9.837
MS.177         	6.967          	9.267
MS.178         	6.955          	8.675
MS.179         	6.94           	9.177
MS.180         	6.925          	8.568
MS.181         	6.912          	9.416
MS.182         	6.898          	8.822
MS.183         	6.885          	9.315
MS.184         	6.87           	8.77
MS.185         	6.858          	7.626
MS.186         	6.842          	7.978
MS.187         	6.83           	8.121
MS.188         	6.815          	8.345
MS.189         	6.802          	7.75
MS.190         	6.79           	7.767
MS.191         	6.775          	7.714
MS.192         	6.762          	7.154
MS.193         	6.747          	7.323
MS.194         	6.735          	6.929
MS.195         	6.722          	7.191
MS.196         	6.707          	6.687
MS.197         	6.695          	6.715
MS.198         	6.68           	6.294
MS.199         	6.668          	6.145
MS.200         	6.655          	6.04
MS.201         	6.64           	5.696
MS.202         	6.628          	5.688
MS.203         	6.615          	5.847
MS.204         	6.602          	5.396
MS.205         	6.587          	5.531
MS.206         	6.575          	5.599
MS.207         	6.562          	5.67
MS.208         	6.55           	5.696
MS.209         	6.535          	5.4
MS.210         	6.523          	4.985
MS.211         	6.51           	4.945
MS.212         	6.497          	4.902
MS.213         	6.483          	4.9
MS.214         	6.47           	4.52
MS.215         	6.457          	4.596
MS.216         	6.445          	4.181
MS.217         	6.432          	4.409
MS.218         	6.42           	4.304
MS.219         	6.407          	4.137
MS.220         	6.392          	4.282
MS.221         	6.38           	3.911
MS.222         	6.367          	3.845
MS.223         	6.355          	3.533
MS.224         	6.342          	3.013
MS.225         	6.33           	2.989
MS.226         	6.317          	3.144
MS.227         	6.305          	2.876
MS.228         	6.293          	2.88
MS.229         	6.28           	2.78
MS.230         	6.267          	3.041
MS.231         	6.255          	2.61
MS.232         	6.242          	2.004
MS.233         	6.23           	2.282
MS.234         	6.217          	2.165
MS.235         	6.205          	2.284
MS.236         	6.192          	2.028
MS.237         	6.18           	2.085
MS.238         	6.168          	1.801
MS.239         	6.155          	1.291
MS.240         	6.142          	1.545
MS.241         	6.13           	1.569
MS.242         	6.117          	1.094
MS.243         	6.105          	1.625
MS.244         	6.095          	1.392
MS.245         	6.082          	1.38
MS.246         	6.07           	1.378
MS.247         	6.057          	1.134
MS.248         	6.045          	1.11
MS.249         	6.032          	0.645
MS.250         	6.02           	0.743
MS.251         	6.01           	0.598
MS.252         	5.997          	0.604
MS.253         	5.985          	0.596
MS.254         	5.972          	0.941
MS.255         	5.963          	0.584
MS.256         	5.95           	0.489
MS.257         	5.938          	0.33
MS.258         	5.925          	0.288
MS.259         	5.915          	0.51
MS.260         	5.902          	0.334
MS.261         	5.89           	0.169
MS.262         	5.878          	0.28
MS.263         	5.867          	0.352
MS.264         	5.855          	0.248
MS.265         	5.842          	0.169
MS.266         	5.832          	0.143
MS.267         	5.82           	0.256
MS.268         	5.807          	0.244
MS.269         	5.797          	0.211
MS.270         	5.785          	0.26
MS.271         	5.773          	0.141
MS.272         	5.762          	0.175
MS.273         	5.75           	0.101
MS.274         	5.74           	0.07
MS.275         	5.727          	0.079
MS.276         	5.715          	0.276
MS.277         	5.705          	0.222
MS.278         	5.692          	0.073
MS.279         	5.682          	0.117
MS.280         	5.67           	0.075
MS.281         	5.66           	0.077
MS.282         	5.648          	0.085
MS.283         	5.637          	0.091
MS.284         	5.625          	0.125
MS.285         	5.615          	0.109
MS.286         	5.602          	0.087
MS.287         	5.592          	0.087
MS.288         	5.58           	0.026
MS.289         	5.57           	0.091
MS.290         	5.557          	0.083
MS.291         	5.547          	0.081
MS.292         	5.535          	0.07
MS.293         	5.525          	0.077
MS.294         	5.515          	0.089
MS.295         	5.503          	0.091
MS.296         	5.492          	0.028
MS.297         	5.48           	0.087
MS.298         	5.47           	0.087
MS.299         	5.46           	0.083
MS.300         	5.447          	0.081
MS.301         	5.438          	0.083
MS.302         	5.427          	0.075
MS.303         	5.415          	0.02
MS.304         	5.405          	0.077
MS.305         	5.395          	0.07
MS.306         	5.382          	0.077
MS.307         	5.372          	0.079
MS.308         	5.362          	0.016
MS.309         	5.35           	0.075
MS.310         	5.34           	0.02
MS.311         	5.33           	0.018
MS.312         	5.32           	0.014
MS.313         	5.307          	0.02
MS.314         	5.297          	0.085
MS.315         	5.287          	0.02
MS.316         	5.277          	0.018
MS.317         	5.265          	0.024
MS.318         	5.255          	0.018
MS.319         	5.245          	0.024
MS.320         	5.235          	0.02
MS.321         	5.225          	0.014
MS.322         	5.213          	0.018
MS.323         	5.202          	0.083
MS.324         	5.193          	0.077
MS.325         	5.182          	0.012
MS.326         	5.172          	0.016
MS.327         	5.162          	0.014
MS.328         	5.152          	0.02
MS.329         	5.14           	0.018
MS.330         	5.13           	0.018
MS.331         	5.12           	0.018
MS.332         	5.11           	0.018
MS.333         	5.1            	0.018
MS.334         	5.09           	0.02
MS.335         	5.08           	0.02
MS.336         	5.07           	0.024
MS.337         	5.06           	0.02
MS.338         	5.05           	0.022
MS.339         	5.04           	0.022
MS.340         	5.03           	0.022
MS.341         	5.02           	0.024
MS.342         	5.01           	0.022
MS.343         	5              	0.022
MS.344         	4.99           	0.026
MS.345         	4.98           	0.026
MS.346         	4.97           	0.024
DERIVED EXCITABILITY VARIABLES
Program = QTracP 3/4/2020
Threshold method = 6 (optimised for CAP, using data for present condition only)
SR method = 1 (using actual data values)
6.                 	0.000               	Peak response\(mV)
9.                 	31.9                	Temperature ( C)
17.                	42                  	Age (years)
18.                	2                   	Sex (M=1, F=2)

EXTRA VARIABLES

MScPeak(mV) = 16.81
MScS5(mA) = 5.99
MScS50(mA) = 6.87
MScS95(mA) = 7.63
MScNSteps = 7
MScSteps(%) = 17.7
MScStepMax(%) = 3.5
MScD50 = 28
MScSlope = 8.45
MSFPeakAmp(mV) = 17.2
MSFNUnits = 133
MSFMeanUnitAmp(uV) = 129.3
MSFHuntTime(m) = 1.81
MSFError(%) = 7.98
MSFNLarge = 31.7
MSFMedianAmp(%) = 0.518
MSFMedianAmp(mV) = 0.0891
MSFHalfAmpAmp(%) = 0.973
MSFHalfAmpAmp(mV) = 0.167
MSFLargestAmp(%) = 3.45
MSFLargestAmp(mV) = 0.593
MSFMeanRS(%) = 2
MSFOpts = 10106121
MScDuration(min) = 3
MSFTraces = 240
MSFSizeLimit(uV) = 43
MSFLimitType = 1
MSFSmallestAmp(uV) = 46.3

EXTRA WAVEFORMS


!MScan Model
!133
	1	5.38	0.31	2
	2	5.76	0.5	2
	3	5.84	0.49	2
	4	5.89	0.34	2
	5	5.92	0.6	2
	6	5.94	0.37	2
	7	5.96	0.42	2
	8	5.97	0.48	2
	9	5.99	0.53	2
	10	6.01	0.5	2
	11	6.03	0.65	2
	12	6.04	0.61	2
	13	6.06	0.56	2
	14	6.08	0.52	2
	15	6.09	0.6	2
	16	6.11	0.62	2
	17	6.13	0.61	2
	18	6.14	0.68	2
	19	6.16	0.65	2
	20	6.17	0.53	2
	21	6.18	0.32	2
	22	6.19	0.37	2
	23	6.19	0.37	2
	24	6.2	0.35	2
	25	6.21	0.41	2
	26	6.22	0.43	2
	27	6.23	0.43	2
	28	6.23	0.44	2
	29	6.24	0.45	2
	30	6.25	0.45	2
	31	6.26	0.45	2
	32	6.27	0.45	2
	33	6.28	0.41	2
	34	6.28	0.44	2
	35	6.29	0.47	2
	36	6.3	0.41	2
	37	6.31	0.44	2
	38	6.31	0.52	2
	39	6.32	0.49	2
	40	6.33	0.48	2
	41	6.34	0.44	2
	42	6.34	0.44	2
	43	6.35	0.44	2
	44	6.36	0.41	2
	45	6.36	0.37	2
	46	6.37	0.37	2
	47	6.38	0.37	2
	48	6.38	0.37	2
	49	6.39	0.36	2
	50	6.39	0.33	2
	51	6.4	0.29	2
	52	6.41	0.29	2
	53	6.41	0.37	2
	54	6.42	0.37	2
	55	6.43	0.47	2
	56	6.44	0.5	2
	57	6.44	0.54	2
	58	6.45	0.57	2
	59	6.46	0.54	2
	60	6.47	0.42	2
	61	6.47	0.42	2
	62	6.48	0.42	2
	63	6.5	0.78	2
	64	6.51	0.74	2
	65	6.53	0.44	2
	66	6.54	0.53	2
	67	6.56	0.55	2
	68	6.57	0.62	2
	69	6.58	0.74	2
	70	6.59	0.64	2
	71	6.61	0.56	2
	72	6.62	0.36	2
	73	6.62	0.35	2
	74	6.63	0.33	1.6
	75	6.64	0.33	2
	76	6.65	0.31	2
	77	6.66	0.52	2
	78	6.67	0.47	2
	79	6.67	0.27	2
	80	6.68	0.27	2
	81	6.68	0.51	2
	82	6.69	0.63	2
	83	6.7	0.4	2
	84	6.7	0.27	2
	85	6.71	0.27	2
	86	6.71	0.45	2
	87	6.71	0.38	2
	88	6.72	0.44	2
	89	6.73	0.48	2
	90	6.73	0.49	2
	91	6.74	0.49	2
	92	6.75	0.84	2
	93	6.77	0.97	2
	94	6.78	0.94	2
	95	6.8	0.99	2
	96	6.81	1.03	2
	97	6.83	1.51	2
	98	6.86	1.28	2
	99	6.89	1.61	2
	100	6.93	2.28	2
	101	6.96	1.55	2
	102	6.98	0.81	2
	103	7	1.11	2
	104	7.02	1.45	2
	105	7.04	1.54	2
	106	7.05	1.54	2
	107	7.07	1.13	2
	108	7.09	1.33	2
	109	7.12	2.54	2
	110	7.15	2.34	2
	111	7.19	2.07	2
	112	7.22	1.63	2
	113	7.25	1.7	2
	114	7.28	2.37	2
	115	7.31	1.68	2
	116	7.32	0.71	2
	117	7.34	0.71	2
	118	7.35	0.66	2
	119	7.36	0.63	2
	120	7.37	0.69	2
	121	7.39	0.86	2
	122	7.4	1.22	2
	123	7.42	1.13	2
	124	7.44	1.06	2
	125	7.46	1.05	2
	126	7.48	1.34	2
	127	7.5	1.13	2
	128	7.53	1.19	2
	129	7.59	2.57	2
	130	7.67	3.45	2
	131	7.76	1.03	2.4
	132	7.89	1.44	2
	133	8.23	0.94	2

