File:              	C:\Qtrac\Data\Daniel M Sørensen\MScan multicentre study\Data from centres\Toronto\Processed data\MSCC01126A.QZD
Name:              	CA.TOR.NC.3.2
Protocol:          	MSCAN-R2
Date:              	26/11/20
Start time:        	12:20:38
Age:               	25
Sex:               	M
Temperature:       	30.3
S/R sites:         	APB
NC/disease:        	NC
Operator:          	LP
Comments:
M-SCAN DATA (9.3-1.3m)
Scanpts: 8, 17, 402, 451
Stim. (mA)     	Amp. (mV)
MS.1           	13             	12.989
MS.2           	13             	12.931
MS.3           	13             	12.975
MS.4           	13             	12.955
MS.5           	13             	12.939
MS.6           	13             	12.887
MS.7           	13             	12.941
MS.8           	13             	12.931
MS.9           	13             	12.945
MS.10          	13             	12.957
MS.11          	13             	12.941
MS.12          	13             	12.953
MS.13          	13             	12.907
MS.14          	13             	12.953
MS.15          	13             	12.957
MS.16          	13             	12.903
MS.17          	13             	12.961
MS.18          	13             	12.967
MS.19          	13             	12.893
MS.20          	13             	12.893
MS.21          	13             	12.897
MS.22          	13             	12.909
MS.23          	13             	12.768
MS.24          	12.947         	12.915
MS.25          	12.922         	12.852
MS.26          	12.898         	12.84
MS.27          	12.87          	12.798
MS.28          	12.845         	12.951
MS.29          	12.82          	12.772
MS.30          	12.792         	12.768
MS.31          	12.767         	12.872
MS.32          	12.742         	12.673
MS.33          	12.717         	12.558
MS.34          	12.693         	12.816
MS.35          	12.667         	12.578
MS.36          	12.64          	12.617
MS.37          	12.615         	12.572
MS.38          	12.59          	12.897
MS.39          	12.565         	12.774
MS.40          	12.54          	12.621
MS.41          	12.515         	12.56
MS.42          	12.49          	12.586
MS.43          	12.465         	12.78
MS.44          	12.44          	12.48
MS.45          	12.415         	12.552
MS.46          	12.39          	12.425
MS.47          	12.365         	12.584
MS.48          	12.34          	12.679
MS.49          	12.318         	12.576
MS.50          	12.292         	12.576
MS.51          	12.267         	12.462
MS.52          	12.242         	12.582
MS.53          	12.217         	12.452
MS.54          	12.195         	12.454
MS.55          	12.17          	12.456
MS.56          	12.145         	12.476
MS.57          	12.12          	12.466
MS.58          	12.097         	12.595
MS.59          	12.072         	12.454
MS.60          	12.047         	12.458
MS.61          	12.025         	12.47
MS.62          	12             	12.474
MS.63          	11.977         	12.415
MS.64          	11.952         	12.419
MS.65          	11.927         	12.456
MS.66          	11.905         	12.268
MS.67          	11.88          	12.317
MS.68          	11.858         	12.28
MS.69          	11.832         	12.276
MS.70          	11.81          	12.321
MS.71          	11.787         	12.423
MS.72          	11.762         	12.174
MS.73          	11.74          	12.174
MS.74          	11.715         	12.178
MS.75          	11.693         	12.051
MS.76          	11.67          	12.17
MS.77          	11.645         	12.081
MS.78          	11.622         	12.151
MS.79          	11.6           	12.041
MS.80          	11.575         	12.071
MS.81          	11.552         	12.069
MS.82          	11.53          	11.875
MS.83          	11.507         	11.861
MS.84          	11.485         	11.954
MS.85          	11.46          	12.049
MS.86          	11.438         	12.029
MS.87          	11.415         	11.968
MS.88          	11.392         	12.012
MS.89          	11.37          	11.785
MS.90          	11.347         	11.769
MS.91          	11.325         	11.936
MS.92          	11.302         	11.708
MS.93          	11.28          	11.457
MS.94          	11.257         	11.273
MS.95          	11.235         	11.886
MS.96          	11.212         	11.547
MS.97          	11.19          	11.418
MS.98          	11.167         	11.481
MS.99          	11.145         	11.495
MS.100         	11.122         	11.569
MS.101         	11.1           	11.412
MS.102         	11.077         	11.463
MS.103         	11.055         	11.521
MS.104         	11.032         	11.108
MS.105         	11.012         	11.046
MS.106         	10.99          	10.641
MS.107         	10.967         	10.774
MS.108         	10.945         	11.001
MS.109         	10.925         	10.824
MS.110         	10.903         	10.752
MS.111         	10.88          	10.669
MS.112         	10.858         	11.023
MS.113         	10.837         	10.623
MS.114         	10.815         	10.478
MS.115         	10.792         	10.292
MS.116         	10.773         	10.603
MS.117         	10.75          	10.437
MS.118         	10.73          	10.413
MS.119         	10.707         	10.315
MS.120         	10.685         	10.256
MS.121         	10.665         	9.936
MS.122         	10.642         	9.855
MS.123         	10.622         	9.892
MS.124         	10.6           	10.476
MS.125         	10.58          	9.698
MS.126         	10.557         	9.477
MS.127         	10.537         	9.489
MS.128         	10.517         	9.928
MS.129         	10.495         	9.342
MS.130         	10.475         	9.571
MS.131         	10.452         	9.094
MS.132         	10.432         	9.038
MS.133         	10.412         	9.318
MS.134         	10.39          	8.895
MS.135         	10.37          	9.06
MS.136         	10.35          	9.168
MS.137         	10.33          	8.645
MS.138         	10.307         	8.492
MS.139         	10.287         	8.282
MS.140         	10.267         	8.86
MS.141         	10.247         	8.818
MS.142         	10.225         	8.671
MS.143         	10.205         	8.298
MS.144         	10.185         	8.323
MS.145         	10.165         	8.5
MS.146         	10.145         	7.916
MS.147         	10.125         	8.369
MS.148         	10.105         	8.049
MS.149         	10.085         	8.214
MS.150         	10.065         	7.73
MS.151         	10.042         	7.99
MS.152         	10.023         	8.32
MS.153         	10.002         	7.342
MS.154         	9.983          	7.62
MS.155         	9.962          	7.43
MS.156         	9.945          	7.487
MS.157         	9.925          	7.404
MS.158         	9.905          	7.392
MS.159         	9.885          	6.959
MS.160         	9.865          	7.096
MS.161         	9.845          	7.118
MS.162         	9.825          	6.659
MS.163         	9.805          	6.393
MS.164         	9.785          	6.48
MS.165         	9.767          	6.192
MS.166         	9.747          	6.592
MS.167         	9.727          	6.071
MS.168         	9.707          	6.079
MS.169         	9.688          	5.706
MS.170         	9.67           	5.831
MS.171         	9.65           	5.847
MS.172         	9.63           	5.734
MS.173         	9.613          	5.859
MS.174         	9.592          	5.922
MS.175         	9.573          	5.195
MS.176         	9.555          	5.694
MS.177         	9.535          	5.124
MS.178         	9.515          	5.362
MS.179         	9.497          	5.015
MS.180         	9.477          	5.285
MS.181         	9.46           	5.017
MS.182         	9.44           	4.753
MS.183         	9.42           	5.124
MS.184         	9.403          	4.874
MS.185         	9.382          	4.536
MS.186         	9.365          	4.629
MS.187         	9.345          	4.546
MS.188         	9.327          	4.625
MS.189         	9.307          	4.56
MS.190         	9.29           	4.328
MS.191         	9.273          	4.214
MS.192         	9.252          	4.274
MS.193         	9.235          	4.183
MS.194         	9.215          	4.242
MS.195         	9.198          	4.171
MS.196         	9.18           	3.944
MS.197         	9.16           	3.954
MS.198         	9.142          	3.897
MS.199         	9.125          	3.97
MS.200         	9.105          	3.74
MS.201         	9.087          	3.815
MS.202         	9.07           	3.432
MS.203         	9.052          	3.712
MS.204         	9.033          	3.341
MS.205         	9.015          	3.466
MS.206         	8.997          	3.186
MS.207         	8.98           	3.442
MS.208         	8.962          	3.261
MS.209         	8.943          	2.937
MS.210         	8.925          	3.273
MS.211         	8.908          	2.923
MS.212         	8.89           	3.164
MS.213         	8.872          	2.653
MS.214         	8.855          	2.747
MS.215         	8.837          	2.624
MS.216         	8.82           	2.868
MS.217         	8.802          	2.61
MS.218         	8.785          	2.723
MS.219         	8.767          	2.351
MS.220         	8.75           	2.413
MS.221         	8.733          	2.594
MS.222         	8.715          	2.288
MS.223         	8.698          	2.304
MS.224         	8.68           	2.598
MS.225         	8.662          	2.363
MS.226         	8.645          	2.191
MS.227         	8.627          	2.135
MS.228         	8.61           	2.153
MS.229         	8.592          	2.165
MS.230         	8.575          	2.058
MS.231         	8.557          	1.93
MS.232         	8.542          	2.173
MS.233         	8.525          	2.272
MS.234         	8.507          	1.986
MS.235         	8.49           	2.121
MS.236         	8.472          	2.04
MS.237         	8.457          	1.956
MS.238         	8.44           	1.944
MS.239         	8.422          	1.849
MS.240         	8.405          	1.702
MS.241         	8.39           	1.793
MS.242         	8.372          	1.575
MS.243         	8.355          	1.768
MS.244         	8.34           	1.853
MS.245         	8.323          	1.599
MS.246         	8.305          	1.627
MS.247         	8.29           	1.712
MS.248         	8.273          	1.511
MS.249         	8.255          	1.495
MS.250         	8.24           	1.511
MS.251         	8.222          	1.303
MS.252         	8.207          	1.311
MS.253         	8.19           	1.436
MS.254         	8.175          	1.551
MS.255         	8.158          	1.46
MS.256         	8.142          	1.049
MS.257         	8.125          	1.319
MS.258         	8.11           	1.182
MS.259         	8.092          	1.059
MS.260         	8.077          	1.1
MS.261         	8.06           	1.291
MS.262         	8.045          	1.275
MS.263         	8.028          	1.283
MS.264         	8.012          	1.035
MS.265         	7.995          	1.049
MS.266         	7.98           	1.168
MS.267         	7.965          	1.059
MS.268         	7.947          	0.963
MS.269         	7.932          	0.929
MS.270         	7.918          	0.828
MS.271         	7.9            	0.862
MS.272         	7.885          	0.955
MS.273         	7.87           	0.876
MS.274         	7.852          	0.908
MS.275         	7.837          	0.9
MS.276         	7.822          	0.836
MS.277         	7.807          	0.79
MS.278         	7.79           	0.876
MS.279         	7.775          	0.671
MS.280         	7.76           	0.852
MS.281         	7.745          	0.858
MS.282         	7.727          	0.773
MS.283         	7.712          	0.655
MS.284         	7.697          	0.661
MS.285         	7.682          	0.729
MS.286         	7.668          	0.626
MS.287         	7.652          	0.729
MS.288         	7.637          	0.556
MS.289         	7.622          	0.737
MS.290         	7.605          	0.626
MS.291         	7.59           	0.624
MS.292         	7.575          	0.554
MS.293         	7.56           	0.58
MS.294         	7.545          	0.572
MS.295         	7.53           	0.518
MS.296         	7.515          	0.455
MS.297         	7.5            	0.57
MS.298         	7.485          	0.578
MS.299         	7.47           	0.57
MS.300         	7.455          	0.58
MS.301         	7.44           	0.443
MS.302         	7.425          	0.491
MS.303         	7.41           	0.516
MS.304         	7.395          	0.574
MS.305         	7.382          	0.57
MS.306         	7.367          	0.598
MS.307         	7.352          	0.451
MS.308         	7.337          	0.419
MS.309         	7.322          	0.463
MS.310         	7.307          	0.447
MS.311         	7.293          	0.276
MS.312         	7.277          	0.278
MS.313         	7.265          	0.439
MS.314         	7.25           	0.443
MS.315         	7.235          	0.451
MS.316         	7.22           	0.449
MS.317         	7.205          	0.445
MS.318         	7.192          	0.282
MS.319         	7.177          	0.288
MS.320         	7.162          	0.268
MS.321         	7.15           	0.282
MS.322         	7.135          	0.262
MS.323         	7.12           	0.407
MS.324         	7.105          	0.419
MS.325         	7.092          	0.246
MS.326         	7.077          	0.254
MS.327         	7.062          	0.256
MS.328         	7.05           	0.24
MS.329         	7.035          	0.234
MS.330         	7.023          	0.228
MS.331         	7.007          	0.401
MS.332         	6.992          	0.246
MS.333         	6.98           	0.246
MS.334         	6.965          	0.228
MS.335         	6.952          	0.24
MS.336         	6.938          	0.236
MS.337         	6.922          	0.23
MS.338         	6.91           	0.236
MS.339         	6.895          	0.238
MS.340         	6.882          	0.195
MS.341         	6.867          	0.244
MS.342         	6.855          	0.228
MS.343         	6.84           	0.193
MS.344         	6.827          	0.226
MS.345         	6.815          	0.246
MS.346         	6.8            	0.244
MS.347         	6.787          	0.195
MS.348         	6.773          	0.23
MS.349         	6.76           	0.218
MS.350         	6.745          	0.187
MS.351         	6.733          	0.189
MS.352         	6.72           	0.189
MS.353         	6.705          	0.189
MS.354         	6.692          	0.244
MS.355         	6.68           	0.189
MS.356         	6.665          	0.189
MS.357         	6.652          	0.191
MS.358         	6.64           	0.153
MS.359         	6.625          	0.187
MS.360         	6.612          	0.187
MS.361         	6.6            	0.149
MS.362         	6.585          	0.151
MS.363         	6.572          	0.191
MS.364         	6.56           	0.153
MS.365         	6.547          	0.155
MS.366         	6.532          	0.149
MS.367         	6.52           	0.161
MS.368         	6.507          	0.161
MS.369         	6.495          	0.151
MS.370         	6.483          	0.161
MS.371         	6.467          	0.155
MS.372         	6.455          	0.153
MS.373         	6.442          	0.159
MS.374         	6.43           	0.155
MS.375         	6.418          	0.149
MS.376         	6.405          	0.155
MS.377         	6.392          	0.163
MS.378         	6.378          	0.157
MS.379         	6.365          	0.151
MS.380         	6.352          	0.159
MS.381         	6.34           	0.159
MS.382         	6.327          	0.155
MS.383         	6.315          	0.161
MS.384         	6.302          	0.167
MS.385         	6.29           	0.157
MS.386         	6.277          	0.169
MS.387         	6.265          	0.155
MS.388         	6.253          	0.159
MS.389         	6.24           	0.159
MS.390         	6.227          	0.157
MS.391         	6.215          	0.163
MS.392         	6.202          	0.163
MS.393         	6.19           	0.151
MS.394         	6.177          	0.153
MS.395         	6.165          	0.165
MS.396         	6.152          	0.167
MS.397         	6.14           	0.171
MS.398         	6.128          	0.163
MS.399         	6.115          	0.177
MS.400         	6.105          	0.153
MS.401         	6.092          	0.155
MS.402         	6.08           	0.159
MS.403         	6.067          	0.153
MS.404         	6.055          	0.159
MS.405         	6.043          	0.173
MS.406         	6.03           	0.165
MS.407         	6.02           	0.171
MS.408         	6.007          	0.173
MS.409         	5.995          	0.167
MS.410         	5.983          	0.177
MS.411         	5.97           	0.179
MS.412         	5.96           	0.181
MS.413         	5.947          	0.169
MS.414         	5.935          	0.179
MS.415         	5.922          	0.169
MS.416         	5.912          	0.167
MS.417         	5.9            	0.175
MS.418         	5.887          	0.167
MS.419         	5.878          	0.177
MS.420         	5.865          	0.171
MS.421         	5.852          	0.169
MS.422         	5.842          	0.159
MS.423         	5.83           	0.165
MS.424         	5.817          	0.181
MS.425         	5.807          	0.149
MS.426         	5.795          	0.167
MS.427         	5.782          	0.147
MS.428         	5.773          	0.147
MS.429         	5.76           	0.147
MS.430         	5.747          	0.167
MS.431         	5.737          	0.153
MS.432         	5.725          	0.171
MS.433         	5.715          	0.147
MS.434         	5.702          	0.153
MS.435         	5.692          	0.149
MS.436         	5.68           	0.151
MS.437         	5.668          	0.157
MS.438         	5.657          	0.179
MS.439         	5.645          	0.143
MS.440         	5.635          	0.161
MS.441         	5.622          	0.159
MS.442         	5.612          	0.153
MS.443         	5.6            	0.167
MS.444         	5.59           	0.149
MS.445         	5.577          	0.149
MS.446         	5.567          	0.163
MS.447         	5.557          	0.159
MS.448         	5.545          	0.163
MS.449         	5.535          	0.157
MS.450         	5.523          	0.163
MS.451         	5.512          	0.165
MS.452         	5.5            	0.165
MS.453         	5.49           	0.149
MS.454         	5.48           	0.159
MS.455         	5.467          	0.161
MS.456         	5.457          	0.163
MS.457         	5.447          	0.165
MS.458         	5.435          	0.167
MS.459         	5.425          	0.155
MS.460         	5.415          	0.163
MS.461         	5.402          	0.161
MS.462         	5.392          	0.159
MS.463         	5.382          	0.159
MS.464         	5.37           	0.157
MS.465         	5.36           	0.165
MS.466         	5.35           	0.159
MS.467         	5.338          	0.151
MS.468         	5.327          	0.161
MS.469         	5.318          	0.155
MS.470         	5.307          	0.159
MS.471         	5.295          	0.155
MS.472         	5.285          	0.157
MS.473         	5.275          	0.159
MS.474         	5.265          	0.165
MS.475         	5.255          	0.159
MS.476         	5.242          	0.151
MS.477         	5.233          	0.159
MS.478         	5.222          	0.159
MS.479         	5.213          	0.159
MS.480         	5.202          	0.157
MS.481         	5.19           	0.161
MS.482         	5.18           	0.163
MS.483         	5.17           	0.163
MS.484         	5.16           	0.155
MS.485         	5.15           	0.163
MS.486         	5.14           	0.157
MS.487         	5.13           	0.161
MS.488         	5.12           	0.163
MS.489         	5.108          	0.157
MS.490         	5.097          	0.165
MS.491         	5.088          	0.159
MS.492         	5.077          	0.161
MS.493         	5.068          	0.165
MS.494         	5.057          	0.157
MS.495         	5.047          	0.155
MS.496         	5.037          	0.163
MS.497         	5.027          	0.157
MS.498         	5.017          	0.161
