File:              	C:\Qtrac\Data\Daniel M Sørensen\MScan multicentre study\Data from centres\Toronto\Processed data\MSCC01113A.QZD
Name:              	CA.TOR.NC.4.1
Protocol:          	MSCAN-R2
Date:              	13/11/20
Start time:        	10:09:39
Age:               	30
Sex:               	M
Temperature:       	32.2
S/R sites:         	APB
NC/disease:        	NC
Operator:          	LP
Comments:          	use 2nd trial
M-SCAN DATA (Repeat 2/2, 17.4-11.6m)
Scanpts: 69, 78, 609, 631
Stim. (mA)     	Amp. (mV)
MS.1           	15.5           	11.753
MS.2           	15.5           	11.777
MS.3           	15.5           	11.757
MS.4           	15.5           	11.749
MS.5           	15.5           	11.753
MS.6           	15.5           	11.753
MS.7           	15.5           	11.773
MS.8           	15.5           	11.777
MS.9           	15.5           	11.769
MS.10          	15.5           	11.787
MS.11          	15.5           	11.791
MS.12          	15.5           	11.797
MS.13          	15.5           	11.817
MS.14          	15.5           	11.785
MS.15          	15.5           	11.803
MS.16          	15.5           	11.777
MS.17          	15.5           	11.803
MS.18          	15.5           	11.795
MS.19          	15.5           	11.813
MS.20          	15.5           	11.813
MS.21          	15.5           	11.811
MS.22          	15.5           	11.809
MS.23          	15.5           	11.829
MS.24          	15.47          	11.839
MS.25          	15.438         	11.817
MS.26          	15.407         	11.827
MS.27          	15.377         	11.843
MS.28          	15.345         	11.841
MS.29          	15.315         	11.821
MS.30          	15.285         	11.829
MS.31          	15.255         	11.837
MS.32          	15.222         	11.863
MS.33          	15.193         	11.829
MS.34          	15.162         	11.839
MS.35          	15.132         	11.833
MS.36          	15.102         	11.869
MS.37          	15.072         	11.853
MS.38          	15.042         	11.851
MS.39          	15.012         	11.861
MS.40          	14.983         	11.863
MS.41          	14.952         	11.869
MS.42          	14.922         	11.884
MS.43          	14.892         	11.827
MS.44          	14.862         	11.827
MS.45          	14.832         	11.884
MS.46          	14.802         	11.875
MS.47          	14.773         	11.928
MS.48          	14.745         	11.878
MS.49          	14.715         	11.904
MS.50          	14.685         	11.9
MS.51          	14.655         	11.924
MS.52          	14.627         	11.904
MS.53          	14.597         	11.904
MS.54          	14.568         	11.906
MS.55          	14.54          	11.918
MS.56          	14.51          	11.861
MS.57          	14.48          	11.962
MS.58          	14.452         	11.892
MS.59          	14.422         	11.912
MS.60          	14.395         	11.869
MS.61          	14.365         	11.956
MS.62          	14.337         	11.96
MS.63          	14.307         	11.958
MS.64          	14.28          	11.875
MS.65          	14.25          	11.898
MS.66          	14.222         	11.894
MS.67          	14.195         	11.886
MS.68          	14.165         	11.865
MS.69          	14.137         	11.849
MS.70          	14.11          	11.932
MS.71          	14.08          	11.89
MS.72          	14.052         	11.884
MS.73          	14.025         	11.88
MS.74          	13.997         	11.9
MS.75          	13.97          	11.944
MS.76          	13.94          	11.896
MS.77          	13.912         	11.886
MS.78          	13.885         	11.926
MS.79          	13.858         	11.908
MS.80          	13.83          	11.924
MS.81          	13.802         	11.918
MS.82          	13.775         	11.92
MS.83          	13.747         	11.908
MS.84          	13.72          	11.9
MS.85          	13.693         	11.922
MS.86          	13.665         	11.741
MS.87          	13.637         	11.741
MS.88          	13.61          	11.751
MS.89          	13.582         	11.882
MS.90          	13.555         	11.94
MS.91          	13.53          	11.753
MS.92          	13.502         	11.916
MS.93          	13.475         	11.716
MS.94          	13.447         	11.95
MS.95          	13.422         	11.94
MS.96          	13.395         	11.775
MS.97          	13.367         	11.944
MS.98          	13.34          	11.898
MS.99          	13.315         	11.773
MS.100         	13.287         	11.767
MS.101         	13.26          	11.869
MS.102         	13.235         	11.66
MS.103         	13.207         	11.871
MS.104         	13.182         	11.737
MS.105         	13.155         	11.471
MS.106         	13.13          	11.718
MS.107         	13.102         	11.489
MS.108         	13.077         	11.724
MS.109         	13.05          	11.479
MS.110         	13.025         	11.684
MS.111         	12.997         	11.479
MS.112         	12.972         	11.444
MS.113         	12.947         	11.406
MS.114         	12.92          	11.511
MS.115         	12.895         	11.714
MS.116         	12.87          	11.684
MS.117         	12.842         	11.624
MS.118         	12.818         	11.457
MS.119         	12.792         	11.42
MS.120         	12.767         	11.41
MS.121         	12.74          	11.402
MS.122         	12.715         	11.301
MS.123         	12.69          	11.63
MS.124         	12.665         	11.469
MS.125         	12.64          	11.334
MS.126         	12.615         	11.247
MS.127         	12.59          	11.334
MS.128         	12.565         	11.463
MS.129         	12.54          	11.434
MS.130         	12.515         	11.316
MS.131         	12.49          	11.479
MS.132         	12.465         	11.314
MS.133         	12.44          	11.255
MS.134         	12.415         	11.473
MS.135         	12.39          	11.211
MS.136         	12.365         	11.376
MS.137         	12.34          	11.181
MS.138         	12.315         	11.316
MS.139         	12.29          	11.261
MS.140         	12.265         	11.352
MS.141         	12.242         	11.185
MS.142         	12.217         	11.138
MS.143         	12.193         	11.042
MS.144         	12.167         	11.08
MS.145         	12.145         	10.909
MS.146         	12.12          	11.132
MS.147         	12.095         	11.098
MS.148         	12.072         	11.122
MS.149         	12.047         	10.675
MS.150         	12.023         	10.691
MS.151         	12             	10.411
MS.152         	11.975         	10.584
MS.153         	11.952         	10.788
MS.154         	11.927         	10.54
MS.155         	11.903         	10.639
MS.156         	11.88          	10.361
MS.157         	11.855         	10.333
MS.158         	11.832         	9.906
MS.159         	11.807         	10.109
MS.160         	11.785         	10.006
MS.161         	11.762         	9.883
MS.162         	11.738         	9.585
MS.163         	11.715         	9.841
MS.164         	11.69          	9.585
MS.165         	11.667         	9.38
MS.166         	11.645         	9.704
MS.167         	11.622         	9.501
MS.168         	11.597         	9.757
MS.169         	11.575         	9.378
MS.170         	11.552         	9.404
MS.171         	11.528         	9.442
MS.172         	11.505         	9.106
MS.173         	11.483         	8.544
MS.174         	11.46          	8.768
MS.175         	11.438         	9.164
MS.176         	11.415         	9.16
MS.177         	11.39          	8.222
MS.178         	11.367         	8.689
MS.179         	11.345         	7.765
MS.180         	11.322         	8.145
MS.181         	11.3           	7.199
MS.182         	11.278         	8.039
MS.183         	11.255         	8.047
MS.184         	11.233         	8.018
MS.185         	11.21          	7.275
MS.186         	11.188         	7.477
MS.187         	11.165         	7.134
MS.188         	11.142         	7.408
MS.189         	11.12          	6.927
MS.190         	11.1           	6.945
MS.191         	11.077         	6.619
MS.192         	11.055         	6.52
MS.193         	11.032         	6.81
MS.194         	11.01          	5.863
MS.195         	10.988         	6.28
MS.196         	10.967         	5.66
MS.197         	10.945         	5.785
MS.198         	10.922         	5.7
MS.199         	10.9           	5.579
MS.200         	10.88          	5.468
MS.201         	10.858         	5.581
MS.202         	10.835         	5.501
MS.203         	10.815         	5.422
MS.204         	10.792         	5.561
MS.205         	10.77          	5.464
MS.206         	10.75          	5.493
MS.207         	10.727         	5.466
MS.208         	10.707         	5.426
MS.209         	10.685         	5.253
MS.210         	10.662         	5.168
MS.211         	10.642         	5.066
MS.212         	10.62          	4.935
MS.213         	10.6           	4.782
MS.214         	10.577         	4.933
MS.215         	10.557         	4.691
MS.216         	10.537         	4.592
MS.217         	10.515         	4.778
MS.218         	10.495         	4.397
MS.219         	10.472         	4.153
MS.220         	10.452         	4.526
MS.221         	10.432         	4.336
MS.222         	10.41          	3.905
MS.223         	10.39          	3.696
MS.224         	10.37          	3.569
MS.225         	10.347         	3.738
MS.226         	10.327         	3.45
MS.227         	10.307         	3.48
MS.228         	10.287         	3.628
MS.229         	10.265         	3.436
MS.230         	10.245         	3.448
MS.231         	10.225         	3.436
MS.232         	10.205         	3.192
MS.233         	10.185         	3.152
MS.234         	10.165         	3.192
MS.235         	10.142         	3.122
MS.236         	10.122         	2.945
MS.237         	10.102         	3.142
MS.238         	10.082         	2.965
MS.239         	10.062         	3.017
MS.240         	10.042         	2.914
MS.241         	10.023         	2.695
MS.242         	10.002         	2.965
MS.243         	9.983          	2.981
MS.244         	9.962          	2.624
MS.245         	9.943          	2.85
MS.246         	9.922          	2.606
MS.247         	9.903          	2.78
MS.248         	9.882          	2.669
MS.249         	9.863          	2.391
MS.250         	9.845          	2.554
MS.251         	9.825          	2.614
MS.252         	9.805          	2.175
MS.253         	9.785          	2.518
MS.254         	9.765          	2.439
MS.255         	9.745          	2.127
MS.256         	9.727          	2.155
MS.257         	9.707          	2.185
MS.258         	9.688          	2.167
MS.259         	9.667          	2.32
MS.260         	9.65           	2.238
MS.261         	9.63           	2.195
MS.262         	9.61           	2.044
MS.263         	9.59           	2.038
MS.264         	9.573          	2.062
MS.265         	9.552          	2.018
MS.266         	9.535          	2.038
MS.267         	9.515          	2.125
MS.268         	9.495          	1.869
MS.269         	9.477          	1.934
MS.270         	9.457          	1.736
MS.271         	9.44           	1.809
MS.272         	9.42           	1.756
MS.273         	9.4            	1.877
MS.274         	9.382          	1.756
MS.275         	9.363          	1.815
MS.276         	9.345          	1.881
MS.277         	9.327          	1.835
MS.278         	9.307          	1.593
MS.279         	9.29           	1.722
MS.280         	9.27           	1.627
MS.281         	9.252          	1.601
MS.282         	9.233          	1.702
MS.283         	9.215          	1.619
MS.284         	9.198          	1.64
MS.285         	9.177          	1.652
MS.286         	9.16           	1.394
MS.287         	9.142          	1.364
MS.288         	9.122          	1.388
MS.289         	9.105          	1.541
MS.290         	9.087          	1.539
MS.291         	9.07           	1.271
MS.292         	9.05           	1.418
MS.293         	9.033          	1.482
MS.294         	9.015          	1.235
MS.295         	8.997          	1.311
MS.296         	8.977          	1.206
MS.297         	8.96           	1.215
MS.298         	8.943          	1.259
MS.299         	8.925          	1.112
MS.300         	8.908          	1.152
MS.301         	8.89           	1.116
MS.302         	8.872          	1.104
MS.303         	8.852          	1.194
MS.304         	8.835          	1.164
MS.305         	8.818          	1.172
MS.306         	8.8            	1.166
MS.307         	8.783          	1.253
MS.308         	8.765          	1.146
MS.309         	8.747          	1.082
MS.310         	8.73           	1.08
MS.311         	8.712          	1.229
MS.312         	8.695          	1.082
MS.313         	8.677          	1.009
MS.314         	8.66           	1.007
MS.315         	8.645          	1.041
MS.316         	8.627          	1.043
MS.317         	8.61           	0.965
MS.318         	8.592          	0.995
MS.319         	8.575          	1.003
MS.320         	8.557          	0.979
MS.321         	8.54           	0.993
MS.322         	8.523          	0.957
MS.323         	8.507          	0.933
MS.324         	8.49           	0.931
MS.325         	8.472          	0.933
MS.326         	8.455          	0.951
MS.327         	8.44           	0.92
MS.328         	8.422          	0.963
MS.329         	8.405          	0.931
MS.330         	8.387          	0.92
MS.331         	8.372          	0.947
MS.332         	8.355          	0.949
MS.333         	8.337          	0.924
MS.334         	8.323          	0.927
MS.335         	8.305          	0.894
MS.336         	8.287          	0.9
MS.337         	8.273          	0.918
MS.338         	8.255          	0.957
MS.339         	8.238          	0.906
MS.340         	8.222          	0.902
MS.341         	8.205          	0.916
MS.342         	8.19           	0.91
MS.343         	8.172          	0.908
MS.344         	8.158          	0.896
MS.345         	8.14           	0.912
MS.346         	8.125          	0.884
MS.347         	8.108          	0.88
MS.348         	8.092          	0.898
MS.349         	8.075          	0.89
MS.350         	8.06           	0.906
MS.351         	8.042          	0.902
MS.352         	8.028          	0.884
MS.353         	8.01           	0.886
MS.354         	7.995          	0.902
MS.355         	7.98           	0.88
MS.356         	7.962          	0.878
MS.357         	7.947          	0.892
MS.358         	7.932          	0.882
MS.359         	7.915          	0.878
MS.360         	7.9            	0.88
MS.361         	7.885          	0.88
MS.362         	7.867          	0.878
MS.363         	7.852          	0.878
MS.364         	7.837          	0.878
MS.365         	7.82           	0.882
MS.366         	7.805          	0.88
MS.367         	7.79           	0.878
MS.368         	7.775          	0.88
MS.369         	7.76           	0.88
MS.370         	7.742          	0.771
MS.371         	7.727          	0.846
MS.372         	7.712          	0.779
MS.373         	7.697          	0.745
MS.374         	7.682          	0.775
MS.375         	7.668          	0.886
MS.376         	7.65           	0.784
MS.377         	7.635          	0.781
MS.378         	7.62           	0.856
MS.379         	7.605          	0.884
MS.380         	7.59           	0.755
MS.381         	7.575          	0.755
MS.382         	7.56           	0.763
MS.383         	7.545          	0.751
MS.384         	7.53           	0.85
MS.385         	7.515          	0.751
MS.386         	7.5            	0.846
MS.387         	7.485          	0.767
MS.388         	7.47           	0.755
MS.389         	7.455          	0.753
MS.390         	7.44           	0.487
MS.391         	7.425          	0.548
MS.392         	7.41           	0.495
MS.393         	7.395          	0.493
MS.394         	7.38           	0.731
MS.395         	7.365          	0.483
MS.396         	7.35           	0.711
MS.397         	7.337          	0.487
MS.398         	7.322          	0.497
MS.399         	7.307          	0.514
MS.400         	7.293          	0.479
MS.401         	7.277          	0.502
MS.402         	7.262          	0.479
MS.403         	7.25           	0.483
MS.404         	7.235          	0.713
MS.405         	7.22           	0.479
MS.406         	7.205          	0.481
MS.407         	7.19           	0.6
MS.408         	7.177          	0.361
MS.409         	7.162          	0.371
MS.410         	7.148          	0.485
MS.411         	7.135          	0.495
MS.412         	7.12           	0.481
MS.413         	7.105          	0.365
MS.414         	7.09           	0.489
MS.415         	7.077          	0.369
MS.416         	7.062          	0.485
MS.417         	7.047          	0.5
MS.418         	7.035          	0.306
MS.419         	7.02           	0.487
MS.420         	7.007          	0.357
MS.421         	6.992          	0.421
MS.422         	6.977          	0.312
MS.423         	6.965          	0.371
MS.424         	6.95           	0.429
MS.425         	6.938          	0.306
MS.426         	6.922          	0.312
MS.427         	6.91           	0.359
MS.428         	6.895          	0.3
MS.429         	6.882          	0.31
MS.430         	6.867          	0.357
MS.431         	6.855          	0.367
MS.432         	6.84           	0.312
MS.433         	6.827          	0.268
MS.434         	6.812          	0.306
MS.435         	6.8            	0.27
MS.436         	6.785          	0.276
MS.437         	6.773          	0.268
MS.438         	6.76           	0.268
MS.439         	6.745          	0.258
MS.440         	6.733          	0.306
MS.441         	6.717          	0.334
MS.442         	6.705          	0.314
MS.443         	6.692          	0.272
MS.444         	6.677          	0.244
MS.445         	6.665          	0.268
MS.446         	6.652          	0.228
MS.447         	6.637          	0.23
MS.448         	6.625          	0.222
MS.449         	6.612          	0.197
MS.450         	6.597          	0.26
MS.451         	6.585          	0.26
MS.452         	6.572          	0.197
MS.453         	6.56           	0.197
MS.454         	6.545          	0.189
MS.455         	6.532          	0.27
MS.456         	6.52           	0.226
MS.457         	6.507          	0.201
MS.458         	6.492          	0.195
MS.459         	6.48           	0.201
MS.460         	6.467          	0.205
MS.461         	6.455          	0.23
MS.462         	6.442          	0.199
MS.463         	6.43           	0.22
MS.464         	6.418          	0.197
MS.465         	6.402          	0.203
MS.466         	6.39           	0.214
MS.467         	6.378          	0.23
MS.468         	6.365          	0.169
MS.469         	6.352          	0.191
MS.470         	6.34           	0.165
MS.471         	6.327          	0.169
MS.472         	6.315          	0.199
MS.473         	6.302          	0.137
MS.474         	6.29           	0.129
MS.475         	6.277          	0.169
MS.476         	6.265          	0.159
MS.477         	6.253          	0.117
MS.478         	6.24           	0.161
MS.479         	6.227          	0.123
MS.480         	6.215          	0.185
MS.481         	6.202          	0.119
MS.482         	6.19           	0.139
MS.483         	6.177          	0.117
MS.484         	6.165          	0.119
MS.485         	6.152          	0.091
MS.486         	6.14           	0.095
MS.487         	6.128          	0.058
MS.488         	6.115          	0.06
MS.489         	6.102          	0.135
MS.490         	6.09           	0.06
MS.491         	6.08           	0.064
MS.492         	6.067          	0.095
MS.493         	6.055          	0.06
MS.494         	6.043          	0.064
MS.495         	6.03           	0.056
MS.496         	6.017          	0.066
