File:              	C:\Qtrac\Data\Daniel M Sørensen\MScan multicentre study\Data from centres\Toronto\Processed data\MSCC01110B.QZD
Name:              	CA.TOR.NC.2.1
Protocol:          	MSCAN-R2
Date:              	10/11/20
Start time:        	11:01:01
Age:               	25
Sex:               	F
Temperature:       	29.7
S/R sites:         	APB
NC/disease:        	NC
Operator:          	LP
Comments:          	Okay but too cool
M-SCAN DATA (7.9-1.3m)
Scanpts: 42, 50, 680, 699
Stim. (mA)     	Amp. (mV)
MS.1           	24             	11.162
MS.2           	24             	11.152
MS.3           	24             	11.152
MS.4           	24             	11.152
MS.5           	24             	11.142
MS.6           	24             	11.146
MS.7           	24             	11.138
MS.8           	24             	11.144
MS.9           	24             	11.15
MS.10          	24             	11.148
MS.11          	24             	11.156
MS.12          	24             	11.152
MS.13          	24             	11.169
MS.14          	24             	11.171
MS.15          	24             	11.181
MS.16          	24             	11.179
MS.17          	24             	11.175
MS.18          	24             	11.162
MS.19          	24             	11.167
MS.20          	24             	11.169
MS.21          	24             	11.173
MS.22          	24             	11.179
MS.23          	24             	11.167
MS.24          	23.905         	11.183
MS.25          	23.858         	11.173
MS.26          	23.807         	11.183
MS.27          	23.76          	11.173
MS.28          	23.712         	11.195
MS.29          	23.665         	11.191
MS.30          	23.62          	11.175
MS.31          	23.573         	11.181
MS.32          	23.525         	11.187
MS.33          	23.477         	11.177
MS.34          	23.43          	11.195
MS.35          	23.385         	11.197
MS.36          	23.337         	11.191
MS.37          	23.29          	11.195
MS.38          	23.245         	11.203
MS.39          	23.198         	11.199
MS.40          	23.153         	11.173
MS.41          	23.105         	11.195
MS.42          	23.06          	11.195
MS.43          	23.012         	11.211
MS.44          	22.967         	11.199
MS.45          	22.92          	11.197
MS.46          	22.875         	11.195
MS.47          	22.83          	11.195
MS.48          	22.785         	11.185
MS.49          	22.737         	11.195
MS.50          	22.692         	11.199
MS.51          	22.647         	11.191
MS.52          	22.602         	11.203
MS.53          	22.557         	11.205
MS.54          	22.512         	11.12
MS.55          	22.467         	11.205
MS.56          	22.422         	11.197
MS.57          	22.377         	11.203
MS.58          	22.332         	11.215
MS.59          	22.288         	11.207
MS.60          	22.243         	11.187
MS.61          	22.2           	11.193
MS.62          	22.155         	11.213
MS.63          	22.11          	11.217
MS.64          	22.067         	11.106
MS.65          	22.022         	11.11
MS.66          	21.977         	11.096
MS.67          	21.935         	11.108
MS.68          	21.89          	11.211
MS.69          	21.847         	11.235
MS.70          	21.802         	11.118
MS.71          	21.76          	11.126
MS.72          	21.715         	10.959
MS.73          	21.672         	11.124
MS.74          	21.63          	11.122
MS.75          	21.585         	11.132
MS.76          	21.542         	11.136
MS.77          	21.5           	11.138
MS.78          	21.458         	11.114
MS.79          	21.415         	11.13
MS.80          	21.372         	11.134
MS.81          	21.327         	11.134
MS.82          	21.285         	11.138
MS.83          	21.243         	10.979
MS.84          	21.2           	10.985
MS.85          	21.157         	11.158
MS.86          	21.118         	11.144
MS.87          	21.075         	11.144
MS.88          	21.032         	11.148
MS.89          	20.99          	10.999
MS.90          	20.948         	11.007
MS.91          	20.907         	11.056
MS.92          	20.865         	11.148
MS.93          	20.823         	11.003
MS.94          	20.78          	11.003
MS.95          	20.74          	10.999
MS.96          	20.698         	10.999
MS.97          	20.657         	10.991
MS.98          	20.615         	11.171
MS.99          	20.575         	11.007
MS.100         	20.532         	10.993
MS.101         	20.493         	10.943
MS.102         	20.452         	11.019
MS.103         	20.41          	10.939
MS.104         	20.37          	10.953
MS.105         	20.33          	10.931
MS.106         	20.288         	10.953
MS.107         	20.247         	11.023
MS.108         	20.208         	10.951
MS.109         	20.167         	10.951
MS.110         	20.127         	10.943
MS.111         	20.087         	10.953
MS.112         	20.047         	10.949
MS.113         	20.007         	10.955
MS.114         	19.967         	10.963
MS.115         	19.927         	10.955
MS.116         	19.887         	10.961
MS.117         	19.847         	10.957
MS.118         	19.807         	10.75
MS.119         	19.767         	10.961
MS.120         	19.727         	10.878
MS.121         	19.69          	10.971
MS.122         	19.65          	10.681
MS.123         	19.61          	10.641
MS.124         	19.57          	10.953
MS.125         	19.532         	10.627
MS.126         	19.493         	10.655
MS.127         	19.455         	10.381
MS.128         	19.415         	10.296
MS.129         	19.377         	10.315
MS.130         	19.337         	10.369
MS.131         	19.3           	10.377
MS.132         	19.26          	10.53
MS.133         	19.222         	10.256
MS.134         	19.182         	10.176
MS.135         	19.145         	10.449
MS.136         	19.108         	10.321
MS.137         	19.067         	10.371
MS.138         	19.03          	10.192
MS.139         	18.993         	10.327
MS.140         	18.955         	10.139
MS.141         	18.917         	10.145
MS.142         	18.88          	9.847
MS.143         	18.842         	10.093
MS.144         	18.802         	9.89
MS.145         	18.765         	9.869
MS.146         	18.727         	9.924
MS.147         	18.69          	9.724
MS.148         	18.655         	9.984
MS.149         	18.618         	9.918
MS.150         	18.58          	9.543
MS.151         	18.542         	9.686
MS.152         	18.505         	9.549
MS.153         	18.467         	9.545
MS.154         	18.432         	9.712
MS.155         	18.395         	9.616
MS.156         	18.358         	9.859
MS.157         	18.32          	9.408
MS.158         	18.285         	9.473
MS.159         	18.247         	9.511
MS.160         	18.212         	9.418
MS.161         	18.175         	9.463
MS.162         	18.137         	9.434
MS.163         	18.102         	9.479
MS.164         	18.067         	9.112
MS.165         	18.03          	9.342
MS.166         	17.995         	9.211
MS.167         	17.958         	9.148
MS.168         	17.922         	9.197
MS.169         	17.887         	8.949
MS.170         	17.85          	9.279
MS.171         	17.815         	9.072
MS.172         	17.78          	8.957
MS.173         	17.745         	8.745
MS.174         	17.708         	8.747
MS.175         	17.672         	8.868
MS.176         	17.637         	8.78
MS.177         	17.602         	8.737
MS.178         	17.567         	8.697
MS.179         	17.532         	8.625
MS.180         	17.497         	8.854
MS.181         	17.462         	9.048
MS.182         	17.427         	8.745
MS.183         	17.392         	8.882
MS.184         	17.358         	8.649
MS.185         	17.323         	8.85
MS.186         	17.288         	8.661
MS.187         	17.255         	8.443
MS.188         	17.22          	8.687
MS.189         	17.185         	8.647
MS.190         	17.15          	8.405
MS.191         	17.118         	8.647
MS.192         	17.083         	8.333
MS.193         	17.047         	8.447
MS.194         	17.015         	8.2
MS.195         	16.98          	8.224
MS.196         	16.948         	8.182
MS.197         	16.913         	8.077
MS.198         	16.878         	8.121
MS.199         	16.845         	8.008
MS.200         	16.812         	7.94
MS.201         	16.778         	7.799
MS.202         	16.745         	7.944
MS.203         	16.71          	8.123
MS.204         	16.677         	7.652
MS.205         	16.645         	7.865
MS.206         	16.61          	7.434
MS.207         	16.577         	7.481
MS.208         	16.545         	8.036
MS.209         	16.512         	6.977
MS.210         	16.477         	6.965
MS.211         	16.445         	7.261
MS.212         	16.413         	6.892
MS.213         	16.38          	7.164
MS.214         	16.347         	6.909
MS.215         	16.315         	6.905
MS.216         	16.282         	6.56
MS.217         	16.25          	6.87
MS.218         	16.217         	6.417
MS.219         	16.185         	6.413
MS.220         	16.153         	6.429
MS.221         	16.12          	6.548
MS.222         	16.087         	6.592
MS.223         	16.055         	6.141
MS.224         	16.022         	6.457
MS.225         	15.992         	6.163
MS.226         	15.96          	6.3
MS.227         	15.927         	5.785
MS.228         	15.895         	6.133
MS.229         	15.865         	6.103
MS.230         	15.832         	6.141
MS.231         	15.8           	6.23
MS.232         	15.77          	5.567
MS.233         	15.737         	5.71
MS.234         	15.705         	6.206
MS.235         	15.675         	5.734
MS.236         	15.642         	5.831
MS.237         	15.612         	5.521
MS.238         	15.58          	5.44
MS.239         	15.55          	5.092
MS.240         	15.52          	5.233
MS.241         	15.487         	5.003
MS.242         	15.457         	5.372
MS.243         	15.425         	5.047
MS.244         	15.395         	4.961
MS.245         	15.365         	5.037
MS.246         	15.332         	5.233
MS.247         	15.302         	5.37
MS.248         	15.273         	5.076
MS.249         	15.242         	4.774
MS.250         	15.212         	4.955
MS.251         	15.18          	4.862
MS.252         	15.15          	4.806
MS.253         	15.12          	4.906
MS.254         	15.09          	4.884
MS.255         	15.06          	4.729
MS.256         	15.03          	4.556
MS.257         	15             	4.608
MS.258         	14.97          	4.659
MS.259         	14.94          	4.365
MS.260         	14.91          	4.631
MS.261         	14.88          	4.415
MS.262         	14.85          	4.365
MS.263         	14.82          	4.552
MS.264         	14.792         	4.463
MS.265         	14.762         	4.28
MS.266         	14.733         	4.339
MS.267         	14.702         	4.185
MS.268         	14.672         	4.252
MS.269         	14.645         	4.081
MS.270         	14.615         	4.24
MS.271         	14.585         	4.032
MS.272         	14.557         	4.105
MS.273         	14.527         	4.204
MS.274         	14.497         	4.198
MS.275         	14.47          	4.083
MS.276         	14.44          	4.026
MS.277         	14.412         	3.914
MS.278         	14.382         	3.871
MS.279         	14.355         	3.901
MS.280         	14.325         	3.95
MS.281         	14.297         	3.918
MS.282         	14.267         	4.01
MS.283         	14.24          	3.859
MS.284         	14.212         	3.73
MS.285         	14.182         	3.736
MS.286         	14.155         	3.815
MS.287         	14.127         	3.595
MS.288         	14.097         	3.571
MS.289         	14.07          	3.607
MS.290         	14.042         	3.555
MS.291         	14.015         	3.646
MS.292         	13.985         	3.688
MS.293         	13.957         	3.581
MS.294         	13.93          	3.434
MS.295         	13.903         	3.577
MS.296         	13.875         	3.335
MS.297         	13.847         	3.406
MS.298         	13.82          	3.253
MS.299         	13.792         	3.362
MS.300         	13.765         	3.267
MS.301         	13.737         	3.325
MS.302         	13.71          	3.305
MS.303         	13.682         	3.243
MS.304         	13.655         	3.132
MS.305         	13.627         	3.257
MS.306         	13.6           	3.17
MS.307         	13.572         	3.106
MS.308         	13.545         	3.154
MS.309         	13.517         	3.053
MS.310         	13.492         	3.225
MS.311         	13.465         	3.055
MS.312         	13.438         	3.124
MS.313         	13.41          	3.12
MS.314         	13.385         	3.1
MS.315         	13.358         	3.027
MS.316         	13.33          	2.88
MS.317         	13.305         	2.981
MS.318         	13.278         	3.074
MS.319         	13.25          	2.985
MS.320         	13.225         	2.914
MS.321         	13.197         	2.808
MS.322         	13.172         	2.584
MS.323         	13.145         	2.721
MS.324         	13.12          	2.822
MS.325         	13.092         	2.685
MS.326         	13.068         	2.725
MS.327         	13.04          	2.679
MS.328         	13.015         	2.705
MS.329         	12.987         	2.639
MS.330         	12.962         	2.83
MS.331         	12.938         	2.542
MS.332         	12.91          	2.546
MS.333         	12.885         	2.548
MS.334         	12.86          	2.733
MS.335         	12.832         	2.49
MS.336         	12.807         	2.566
MS.337         	12.782         	2.534
MS.338         	12.757         	2.481
MS.339         	12.73          	2.475
MS.340         	12.705         	2.149
MS.341         	12.68          	2.492
MS.342         	12.655         	2.427
MS.343         	12.63          	2.183
MS.344         	12.605         	2.103
MS.345         	12.58          	2.089
MS.346         	12.555         	2.421
MS.347         	12.53          	2.558
MS.348         	12.505         	1.74
MS.349         	12.48          	2.405
MS.350         	12.455         	2.105
MS.351         	12.43          	2.091
MS.352         	12.405         	2.036
MS.353         	12.38          	2.397
MS.354         	12.355         	2.445
MS.355         	12.33          	2.06
MS.356         	12.305         	2.016
MS.357         	12.28          	2.373
MS.358         	12.257         	2.431
MS.359         	12.233         	1.708
MS.360         	12.207         	2.004
MS.361         	12.182         	1.708
MS.362         	12.16          	2.01
MS.363         	12.135         	1.684
MS.364         	12.11          	2.365
MS.365         	12.085         	2.006
MS.366         	12.062         	1.96
MS.367         	12.037         	1.926
MS.368         	12.012         	1.962
MS.369         	11.99          	1.958
MS.370         	11.965         	1.948
MS.371         	11.943         	1.71
MS.372         	11.917         	1.635
MS.373         	11.895         	1.674
MS.374         	11.87          	1.714
MS.375         	11.847         	1.656
MS.376         	11.822         	1.382
MS.377         	11.8           	1.615
MS.378         	11.775         	1.386
MS.379         	11.752         	1.343
MS.380         	11.73          	1.321
MS.381         	11.705         	1.635
MS.382         	11.682         	1.617
MS.383         	11.657         	1.313
MS.384         	11.635         	1.339
MS.385         	11.613         	1.349
MS.386         	11.59          	1.339
MS.387         	11.565         	1.589
MS.388         	11.542         	1.287
MS.389         	11.52          	1.321
MS.390         	11.497         	1.599
MS.391         	11.472         	1.255
MS.392         	11.45          	1.263
MS.393         	11.427         	1.595
MS.394         	11.405         	1.211
MS.395         	11.382         	1.251
MS.396         	11.36          	1.257
MS.397         	11.337         	1.188
MS.398         	11.315         	1.142
MS.399         	11.292         	1.241
MS.400         	11.27          	1.182
MS.401         	11.247         	1.297
MS.402         	11.225         	1.261
MS.403         	11.202         	1.146
MS.404         	11.18          	1.106
MS.405         	11.157         	1.128
MS.406         	11.135         	1.12
MS.407         	11.113         	1.152
MS.408         	11.09          	1.126
MS.409         	11.068         	1.07
MS.410         	11.045         	1.166
MS.411         	11.023         	1.12
MS.412         	11.002         	1.039
MS.413         	10.98          	1.092
MS.414         	10.957         	0.997
MS.415         	10.935         	1.029
MS.416         	10.915         	0.977
MS.417         	10.892         	0.981
MS.418         	10.87          	1.033
MS.419         	10.85          	0.983
MS.420         	10.827         	1.023
MS.421         	10.805         	0.904
MS.422         	10.785         	0.828
MS.423         	10.762         	0.784
MS.424         	10.74          	0.872
MS.425         	10.72          	0.81
MS.426         	10.698         	0.802
MS.427         	10.677         	0.677
MS.428         	10.655         	0.727
MS.429         	10.635         	0.755
MS.430         	10.613         	0.737
MS.431         	10.592         	0.786
MS.432         	10.57          	0.693
MS.433         	10.55          	0.759
MS.434         	10.528         	0.659
MS.435         	10.507         	0.731
MS.436         	10.485         	0.649
MS.437         	10.465         	0.723
MS.438         	10.445         	0.671
MS.439         	10.422         	0.691
MS.440         	10.403         	0.699
MS.441         	10.382         	0.804
MS.442         	10.36          	0.643
MS.443         	10.34          	0.659
MS.444         	10.32          	0.661
MS.445         	10.3           	0.645
MS.446         	10.278         	0.641
MS.447         	10.257         	0.717
MS.448         	10.238         	0.661
MS.449         	10.217         	0.645
MS.450         	10.198         	0.624
MS.451         	10.175         	0.645
MS.452         	10.155         	0.653
MS.453         	10.135         	0.653
MS.454         	10.115         	0.439
MS.455         	10.095         	0.58
MS.456         	10.075         	0.643
MS.457         	10.055         	0.598
MS.458         	10.035         	0.606
MS.459         	10.015         	0.622
MS.460         	9.995          	0.51
MS.461         	9.975          	0.542
MS.462         	9.955          	0.538
MS.463         	9.935          	0.596
MS.464         	9.915          	0.504
MS.465         	9.895          	0.508
MS.466         	9.875          	0.268
MS.467         	9.855          	0.463
MS.468         	9.835          	0.336
MS.469         	9.818          	0.296
MS.470         	9.797          	0.312
MS.471         	9.778          	0.252
MS.472         	9.757          	0.441
MS.473         	9.738          	0.338
MS.474         	9.717          	0.34
MS.475         	9.7            	0.342
MS.476         	9.68           	0.218
MS.477         	9.66           	0.298
MS.478         	9.64           	0.361
MS.479         	9.622          	0.216
MS.480         	9.602          	0.214
MS.481         	9.582          	0.216
MS.482         	9.565          	0.161
MS.483         	9.545          	0.163
MS.484         	9.525          	0.161
MS.485         	9.507          	0.216
MS.486         	9.488          	0.119
MS.487         	9.47           	0.109
MS.488         	9.45           	0.173
MS.489         	9.432          	0.123
MS.490         	9.412          	0.068
MS.491         	9.395          	0.119
MS.492         	9.375          	0.161
MS.493         	9.358          	0.127
MS.494         	9.337          	0.115
MS.495         	9.32           	0.068
MS.496         	9.3            	0.068
