File:              	C:\Qtrac\Data\Daniel M Sørensen\MScan multicentre study\Data from centres\Toronto\Processed data\MSCC01210A.QZD
Name:              	CA.TOR.NC.8.2
Protocol:          	MSCAN-R2
Date:              	10/12/20
Start time:        	15:22:24
Age:               	29
Sex:               	F
Temperature:       	31.2
S/R sites:         	APB
NC/disease:        	NC
Operator:          	LP
Comments:          	MFF60ON
M-SCAN DATA (7.2-1.2m)
Scanpts: 26, 37, 629, 651
Stim. (mA)     	Amp. (mV)
MS.1           	17             	13.779
MS.2           	17             	13.785
MS.3           	17             	13.793
MS.4           	17             	13.751
MS.5           	17             	13.749
MS.6           	17             	13.775
MS.7           	17             	13.795
MS.8           	17             	13.811
MS.9           	17             	13.805
MS.10          	17             	13.809
MS.11          	17             	13.799
MS.12          	17             	13.821
MS.13          	17             	13.823
MS.14          	17             	13.811
MS.15          	17             	13.785
MS.16          	17             	13.819
MS.17          	17             	13.807
MS.18          	17             	13.807
MS.19          	17             	13.799
MS.20          	17             	13.785
MS.21          	17             	13.783
MS.22          	17             	13.769
MS.23          	17             	13.801
MS.24          	16.932         	13.787
MS.25          	16.897         	13.797
MS.26          	16.865         	13.809
MS.27          	16.83          	13.807
MS.28          	16.797         	13.805
MS.29          	16.762         	13.769
MS.30          	16.73          	13.805
MS.31          	16.698         	13.839
MS.32          	16.663         	13.825
MS.33          	16.63          	13.837
MS.34          	16.597         	13.807
MS.35          	16.562         	13.849
MS.36          	16.53          	13.845
MS.37          	16.497         	13.835
MS.38          	16.465         	13.843
MS.39          	16.432         	13.841
MS.40          	16.4           	13.845
MS.41          	16.365         	13.839
MS.42          	16.333         	13.841
MS.43          	16.3           	13.833
MS.44          	16.267         	13.837
MS.45          	16.235         	13.845
MS.46          	16.202         	13.855
MS.47          	16.17          	13.855
MS.48          	16.137         	13.861
MS.49          	16.108         	13.855
MS.50          	16.075         	13.843
MS.51          	16.042         	13.87
MS.52          	16.01          	13.882
MS.53          	15.977         	13.872
MS.54          	15.945         	13.785
MS.55          	15.915         	13.783
MS.56          	15.882         	13.684
MS.57          	15.85          	13.809
MS.58          	15.82          	13.863
MS.59          	15.787         	13.785
MS.60          	15.755         	13.743
MS.61          	15.725         	13.563
MS.62          	15.693         	13.66
MS.63          	15.662         	13.769
MS.64          	15.63          	13.749
MS.65          	15.6           	13.751
MS.66          	15.568         	13.726
MS.67          	15.537         	13.567
MS.68          	15.505         	13.712
MS.69          	15.475         	13.531
MS.70          	15.445         	13.753
MS.71          	15.412         	13.714
MS.72          	15.382         	13.724
MS.73          	15.352         	13.72
MS.74          	15.32          	13.438
MS.75          	15.29          	13.445
MS.76          	15.26          	13.372
MS.77          	15.23          	13.275
MS.78          	15.197         	13.497
MS.79          	15.167         	13.344
MS.80          	15.137         	13.064
MS.81          	15.108         	13.056
MS.82          	15.077         	13.247
MS.83          	15.047         	13.247
MS.84          	15.017         	13.191
MS.85          	14.987         	13.03
MS.86          	14.957         	13.04
MS.87          	14.927         	13.086
MS.88          	14.898         	13.175
MS.89          	14.867         	13.016
MS.90          	14.837         	12.983
MS.91          	14.807         	13.036
MS.92          	14.78          	13.013
MS.93          	14.75          	13.003
MS.94          	14.72          	13.05
MS.95          	14.69          	12.923
MS.96          	14.662         	12.828
MS.97          	14.632         	12.951
MS.98          	14.602         	13.024
MS.99          	14.572         	12.81
MS.100         	14.545         	12.86
MS.101         	14.515         	12.792
MS.102         	14.487         	12.826
MS.103         	14.457         	12.842
MS.104         	14.427         	12.83
MS.105         	14.4           	12.782
MS.106         	14.37          	12.766
MS.107         	14.342         	12.774
MS.108         	14.312         	12.748
MS.109         	14.285         	12.75
MS.110         	14.257         	12.951
MS.111         	14.227         	12.774
MS.112         	14.2           	12.715
MS.113         	14.17          	12.695
MS.114         	14.142         	12.605
MS.115         	14.115         	12.746
MS.116         	14.087         	12.57
MS.117         	14.057         	12.723
MS.118         	14.03          	12.719
MS.119         	14.002         	12.715
MS.120         	13.975         	12.548
MS.121         	13.945         	12.518
MS.122         	13.917         	12.657
MS.123         	13.89          	12.435
MS.124         	13.862         	12.564
MS.125         	13.835         	12.48
MS.126         	13.807         	12.679
MS.127         	13.78          	12.351
MS.128         	13.752         	12.317
MS.129         	13.725         	12.351
MS.130         	13.697         	12.409
MS.131         	13.67          	12.488
MS.132         	13.642         	12.435
MS.133         	13.615         	12.26
MS.134         	13.587         	12.264
MS.135         	13.56          	12.264
MS.136         	13.535         	12.429
MS.137         	13.507         	12.121
MS.138         	13.48          	12.19
MS.139         	13.452         	12.131
MS.140         	13.425         	12.363
MS.141         	13.4           	12.474
MS.142         	13.372         	12.254
MS.143         	13.345         	12.21
MS.144         	13.32          	12.055
MS.145         	13.292         	12.059
MS.146         	13.265         	12.111
MS.147         	13.24          	12.049
MS.148         	13.212         	12.004
MS.149         	13.188         	12.018
MS.150         	13.16          	11.859
MS.151         	13.135         	12.23
MS.152         	13.108         	12.083
MS.153         	13.082         	11.745
MS.154         	13.055         	11.926
MS.155         	13.03          	11.871
MS.156         	13.002         	11.835
MS.157         	12.977         	12.033
MS.158         	12.952         	11.896
MS.159         	12.925         	11.813
MS.160         	12.9           	11.863
MS.161         	12.875         	11.835
MS.162         	12.847         	11.759
MS.163         	12.822         	11.863
MS.164         	12.797         	11.732
MS.165         	12.773         	11.841
MS.166         	12.745         	11.712
MS.167         	12.72          	11.698
MS.168         	12.695         	11.732
MS.169         	12.67          	11.825
MS.170         	12.645         	11.843
MS.171         	12.62          	11.765
MS.172         	12.595         	11.686
MS.173         	12.568         	11.829
MS.174         	12.542         	11.743
MS.175         	12.517         	11.672
MS.176         	12.492         	11.704
MS.177         	12.467         	11.672
MS.178         	12.443         	11.706
MS.179         	12.42          	11.626
MS.180         	12.395         	11.644
MS.181         	12.37          	11.674
MS.182         	12.345         	11.678
MS.183         	12.32          	11.71
MS.184         	12.295         	11.644
MS.185         	12.27          	11.62
MS.186         	12.245         	11.577
MS.187         	12.222         	11.585
MS.188         	12.197         	11.61
MS.189         	12.172         	11.608
MS.190         	12.148         	11.614
MS.191         	12.125         	11.573
MS.192         	12.1           	11.591
MS.193         	12.075         	11.585
MS.194         	12.052         	11.575
MS.195         	12.028         	11.585
MS.196         	12.002         	11.583
MS.197         	11.98          	11.485
MS.198         	11.955         	11.598
MS.199         	11.932         	11.457
MS.200         	11.907         	11.583
MS.201         	11.885         	11.559
MS.202         	11.86          	11.475
MS.203         	11.837         	11.225
MS.204         	11.812         	11.356
MS.205         	11.79          	11.235
MS.206         	11.765         	11.225
MS.207         	11.742         	10.955
MS.208         	11.72          	11.215
MS.209         	11.695         	11.199
MS.210         	11.672         	11.04
MS.211         	11.65          	11.013
MS.212         	11.625         	10.965
MS.213         	11.602         	11.219
MS.214         	11.58          	11.324
MS.215         	11.555         	10.985
MS.216         	11.532         	10.983
MS.217         	11.51          	11.019
MS.218         	11.488         	11.207
MS.219         	11.465         	11.001
MS.220         	11.44          	10.953
MS.221         	11.417         	10.899
MS.222         	11.395         	10.677
MS.223         	11.372         	10.816
MS.224         	11.35          	10.77
MS.225         	11.327         	10.814
MS.226         	11.305         	10.752
MS.227         	11.282         	10.721
MS.228         	11.26          	10.909
MS.229         	11.238         	10.818
MS.230         	11.215         	10.683
MS.231         	11.193         	10.762
MS.232         	11.17          	10.764
MS.233         	11.148         	10.727
MS.234         	11.125         	10.669
MS.235         	11.102         	10.834
MS.236         	11.08          	10.731
MS.237         	11.057         	10.625
MS.238         	11.037         	10.607
MS.239         	11.015         	10.603
MS.240         	10.992         	10.75
MS.241         	10.97          	10.601
MS.242         	10.948         	10.611
MS.243         	10.927         	10.601
MS.244         	10.905         	10.752
MS.245         	10.882         	10.611
MS.246         	10.863         	10.607
MS.247         	10.84          	10.605
MS.248         	10.818         	10.617
MS.249         	10.797         	10.711
MS.250         	10.775         	10.596
MS.251         	10.752         	10.548
MS.252         	10.733         	10.607
MS.253         	10.71          	10.373
MS.254         	10.69          	10.613
MS.255         	10.667         	10.55
MS.256         	10.648         	10.59
MS.257         	10.625         	10.576
MS.258         	10.605         	10.242
MS.259         	10.582         	10.403
MS.260         	10.562         	10.099
MS.261         	10.54          	10.288
MS.262         	10.52          	10.218
MS.263         	10.497         	10.572
MS.264         	10.477         	10.288
MS.265         	10.457         	10.516
MS.266         	10.435         	10.131
MS.267         	10.415         	10.163
MS.268         	10.395         	10.113
MS.269         	10.372         	10.157
MS.270         	10.352         	10.174
MS.271         	10.332         	9.9
MS.272         	10.31          	10.057
MS.273         	10.29          	10.194
MS.274         	10.27          	10.057
MS.275         	10.25          	10.047
MS.276         	10.23          	9.863
MS.277         	10.207         	9.879
MS.278         	10.188         	9.964
MS.279         	10.167         	9.94
MS.280         	10.148         	9.829
MS.281         	10.127         	9.728
MS.282         	10.108         	9.791
MS.283         	10.087         	9.922
MS.284         	10.068         	9.885
MS.285         	10.047         	9.342
MS.286         	10.028         	9.74
MS.287         	10.005         	9.567
MS.288         	9.988          	9.577
MS.289         	9.967          	9.591
MS.290         	9.948          	9.479
MS.291         	9.927          	9.475
MS.292         	9.907          	9.239
MS.293         	9.887          	9.406
MS.294         	9.867          	9.412
MS.295         	9.847          	9.199
MS.296         	9.827          	9.17
MS.297         	9.807          	9.402
MS.298         	9.787          	9.106
MS.299         	9.77           	9.017
MS.300         	9.75           	9.122
MS.301         	9.73           	9.001
MS.302         	9.71           	9.126
MS.303         	9.69           	9.126
MS.304         	9.672          	9.108
MS.305         	9.653          	8.838
MS.306         	9.632          	9.017
MS.307         	9.615          	8.931
MS.308         	9.595          	8.607
MS.309         	9.575          	8.494
MS.310         	9.557          	8.327
MS.311         	9.537          	8.141
MS.312         	9.517          	8.218
MS.313         	9.5            	8.272
MS.314         	9.48           	8.556
MS.315         	9.462          	8.194
MS.316         	9.443          	7.404
MS.317         	9.422          	7.293
MS.318         	9.405          	7.257
MS.319         	9.385          	6.798
MS.320         	9.367          	7.517
MS.321         	9.347          	7.501
MS.322         	9.33           	6.949
MS.323         	9.31           	6.969
MS.324         	9.292          	7.058
MS.325         	9.275          	7.368
MS.326         	9.255          	6.977
MS.327         	9.238          	6.723
MS.328         	9.217          	6.649
MS.329         	9.2            	6.709
MS.330         	9.182          	6.649
MS.331         	9.162          	6.61
MS.332         	9.145          	6.635
MS.333         	9.127          	6.474
MS.334         	9.108          	6.399
MS.335         	9.09           	6.457
MS.336         	9.073          	6.345
MS.337         	9.055          	6.27
MS.338         	9.035          	5.938
MS.339         	9.017          	5.531
MS.340         	9              	4.828
MS.341         	8.983          	5.001
MS.342         	8.965          	4.749
MS.343         	8.945          	4.383
MS.344         	8.927          	4.54
MS.345         	8.91           	4.471
MS.346         	8.892          	4.042
MS.347         	8.875          	4.357
MS.348         	8.858          	4.202
MS.349         	8.84           	4.135
MS.350         	8.823          	4.383
MS.351         	8.805          	4.367
MS.352         	8.787          	4.077
MS.353         	8.77           	4.083
MS.354         	8.752          	3.98
MS.355         	8.735          	4.052
MS.356         	8.717          	3.968
MS.357         	8.7            	3.873
MS.358         	8.682          	3.801
MS.359         	8.665          	3.533
MS.360         	8.648          	3.632
MS.361         	8.63           	3.748
MS.362         	8.613          	3.754
MS.363         	8.595          	3.402
MS.364         	8.577          	3.625
MS.365         	8.56           	3.766
MS.366         	8.545          	3.547
MS.367         	8.528          	3.247
MS.368         	8.51           	3.348
MS.369         	8.492          	3.184
MS.370         	8.475          	3.221
MS.371         	8.46           	3.16
MS.372         	8.443          	3.239
MS.373         	8.425          	3.416
MS.374         	8.408          	3.019
MS.375         	8.392          	2.941
MS.376         	8.375          	3.078
MS.377         	8.358          	3.227
MS.378         	8.34           	3.066
MS.379         	8.325          	3.011
MS.380         	8.307          	2.671
MS.381         	8.292          	3.354
MS.382         	8.275          	3.062
MS.383         	8.257          	2.699
MS.384         	8.242          	2.782
MS.385         	8.225          	3.108
MS.386         	8.21           	2.669
MS.387         	8.193          	2.705
MS.388         	8.175          	2.441
MS.389         	8.16           	2.649
MS.390         	8.142          	2.463
MS.391         	8.127          	2.443
MS.392         	8.11           	2.411
MS.393         	8.095          	2.715
MS.394         	8.077          	2.54
MS.395         	8.062          	2.395
MS.396         	8.047          	2.266
MS.397         	8.03           	2.157
MS.398         	8.015          	2.02
MS.399         	7.997          	2.441
MS.400         	7.982          	2.189
MS.401         	7.965          	2.089
MS.402         	7.95           	2.171
MS.403         	7.935          	1.976
MS.404         	7.918          	1.805
MS.405         	7.902          	1.919
MS.406         	7.887          	2.065
MS.407         	7.87           	1.901
MS.408         	7.855          	1.903
MS.409         	7.84           	1.744
MS.410         	7.825          	1.77
MS.411         	7.807          	1.756
MS.412         	7.793          	1.766
MS.413         	7.777          	1.785
MS.414         	7.762          	1.785
MS.415         	7.747          	1.702
MS.416         	7.73           	1.746
MS.417         	7.715          	1.682
MS.418         	7.7            	1.684
MS.419         	7.685          	1.595
MS.420         	7.67           	1.668
MS.421         	7.655          	1.587
MS.422         	7.637          	1.696
MS.423         	7.622          	1.515
MS.424         	7.607          	1.706
MS.425         	7.592          	1.529
MS.426         	7.577          	1.638
MS.427         	7.562          	1.577
MS.428         	7.547          	1.478
MS.429         	7.532          	1.579
MS.430         	7.517          	1.599
MS.431         	7.503          	1.575
MS.432         	7.487          	1.436
MS.433         	7.472          	1.543
MS.434         	7.457          	1.617
MS.435         	7.442          	1.543
MS.436         	7.427          	1.462
MS.437         	7.412          	1.468
MS.438         	7.398          	1.388
MS.439         	7.382          	1.497
MS.440         	7.367          	1.472
MS.441         	7.352          	1.442
MS.442         	7.34           	1.454
MS.443         	7.325          	1.384
MS.444         	7.31           	1.452
MS.445         	7.295          	1.382
MS.446         	7.28           	1.412
MS.447         	7.265          	1.396
MS.448         	7.253          	1.394
MS.449         	7.237          	1.402
MS.450         	7.222          	1.36
MS.451         	7.207          	1.426
MS.452         	7.192          	1.335
MS.453         	7.18           	1.42
MS.454         	7.165          	1.257
MS.455         	7.15           	1.327
MS.456         	7.137          	1.343
MS.457         	7.122          	1.273
MS.458         	7.108          	1.208
MS.459         	7.092          	1.017
MS.460         	7.08           	1.4
MS.461         	7.065          	1.327
MS.462         	7.052          	1.104
MS.463         	7.037          	1.265
MS.464         	7.023          	1.096
MS.465         	7.01           	0.733
MS.466         	6.995          	1.261
MS.467         	6.98           	1.166
MS.468         	6.967          	0.824
MS.469         	6.952          	1.076
MS.470         	6.94           	1.237
MS.471         	6.925          	1.259
MS.472         	6.912          	1.11
MS.473         	6.898          	1.168
MS.474         	6.885          	0.594
MS.475         	6.87           	0.856
MS.476         	6.858          	1.019
MS.477         	6.842          	0.898
MS.478         	6.83           	0.892
MS.479         	6.815          	0.884
MS.480         	6.802          	0.878
MS.481         	6.787          	0.596
MS.482         	6.775          	0.574
MS.483         	6.762          	0.594
MS.484         	6.747          	0.876
MS.485         	6.735          	0.57
MS.486         	6.72           	0.9
MS.487         	6.707          	0.576
MS.488         	6.695          	0.725
MS.489         	6.68           	0.85
MS.490         	6.668          	0.487
MS.491         	6.655          	0.578
MS.492         	6.64           	0.483
MS.493         	6.628          	0.427
