File:              	C:\Qtrac\Data\Daniel M Sørensen\MScan multicentre study\Data from centres\Toronto\Processed data\MSCC01209G.QZD
Name:              	CA.TOR.NC.10.1
Protocol:          	MSCAN-R2
Date:              	9/12/20
Start time:        	14:30:41
Age:               	49
Sex:               	M
Temperature:       	31.5
S/R sites:         	APB
NC/disease:        	NC
Operator:          	LP
Comments:          	MFF60ON, 2nd trial OK
M-SCAN DATA (8.8-2.9m)
Scanpts: 25, 37, 546, 551
Stim. (mA)     	Amp. (mV)
MS.1           	26             	14.635
MS.2           	26             	14.695
MS.3           	25.948         	14.701
MS.4           	25.895         	14.693
MS.5           	25.845         	14.627
MS.6           	25.792         	14.599
MS.7           	25.743         	14.675
MS.8           	25.69          	14.589
MS.9           	25.637         	14.669
MS.10          	25.587         	14.625
MS.11          	25.535         	14.675
MS.12          	25.485         	14.617
MS.13          	25.435         	14.605
MS.14          	25.382         	14.73
MS.15          	25.332         	14.721
MS.16          	25.282         	14.643
MS.17          	25.233         	14.578
MS.18          	25.18          	14.619
MS.19          	25.13          	14.699
MS.20          	25.08          	14.691
MS.21          	25.03          	14.683
MS.22          	24.98          	14.615
MS.23          	24.93          	14.544
MS.24          	24.88          	14.599
MS.25          	24.83          	14.581
MS.26          	24.782         	14.581
MS.27          	24.733         	14.647
MS.28          	24.682         	14.581
MS.29          	24.632         	14.597
MS.30          	24.585         	14.609
MS.31          	24.535         	14.605
MS.32          	24.485         	14.585
MS.33          	24.438         	14.583
MS.34          	24.387         	14.655
MS.35          	24.34          	14.585
MS.36          	24.29          	14.556
MS.37          	24.243         	14.562
MS.38          	24.195         	14.562
MS.39          	24.145         	14.546
MS.40          	24.097         	14.562
MS.41          	24.05          	14.548
MS.42          	24             	14.301
MS.43          	23.952         	14.538
MS.44          	23.905         	14.576
MS.45          	23.858         	14.585
MS.46          	23.81          	14.578
MS.47          	23.762         	14.566
MS.48          	23.715         	14.359
MS.49          	23.667         	14.353
MS.50          	23.62          	14.578
MS.51          	23.573         	14.603
MS.52          	23.525         	14.379
MS.53          	23.48          	14.389
MS.54          	23.432         	14.399
MS.55          	23.385         	14.381
MS.56          	23.337         	14.393
MS.57          	23.292         	14.395
MS.58          	23.245         	14.397
MS.59          	23.198         	14.377
MS.60          	23.153         	14.403
MS.61          	23.105         	14.395
MS.62          	23.06          	14.363
MS.63          	23.015         	14.371
MS.64          	22.967         	14.236
MS.65          	22.922         	14.077
MS.66          	22.875         	14.365
MS.67          	22.83          	14.359
MS.68          	22.785         	14.361
MS.69          	22.74          	14.383
MS.70          	22.695         	14.379
MS.71          	22.647         	14.389
MS.72          	22.602         	14.345
MS.73          	22.557         	14.383
MS.74          	22.512         	14.329
MS.75          	22.467         	14.214
MS.76          	22.422         	14.214
MS.77          	22.377         	13.66
MS.78          	22.332         	13.928
MS.79          	22.29          	13.954
MS.80          	22.245         	13.926
MS.81          	22.2           	14.276
MS.82          	22.155         	13.924
MS.83          	22.112         	14.228
MS.84          	22.067         	13.912
MS.85          	22.022         	13.908
MS.86          	21.98          	14.222
MS.87          	21.935         	13.914
MS.88          	21.892         	13.898
MS.89          	21.847         	13.872
MS.90          	21.805         	13.874
MS.91          	21.76          	13.394
MS.92          	21.717         	13.124
MS.93          	21.672         	13.386
MS.94          	21.63          	13.674
MS.95          	21.587         	13.277
MS.96          	21.545         	12.212
MS.97          	21.5           	13.128
MS.98          	21.458         	12.85
MS.99          	21.415         	13.336
MS.100         	21.372         	11.942
MS.101         	21.33          	11.902
MS.102         	21.288         	11.918
MS.103         	21.245         	12.016
MS.104         	21.202         	12.161
MS.105         	21.16          	11.815
MS.106         	21.118         	11.795
MS.107         	21.075         	11.749
MS.108         	21.032         	11.175
MS.109         	20.99          	11.35
MS.110         	20.95          	11.718
MS.111         	20.907         	11.658
MS.112         	20.865         	11.672
MS.113         	20.825         	10.911
MS.114         	20.782         	10.883
MS.115         	20.74          	10.588
MS.116         	20.7           	10.737
MS.117         	20.657         	11.281
MS.118         	20.618         	10.913
MS.119         	20.575         	11.12
MS.120         	20.535         	10.264
MS.121         	20.493         	10.492
MS.122         	20.452         	9.944
MS.123         	20.413         	10.357
MS.124         	20.37          	10.337
MS.125         	20.33          	9.924
MS.126         	20.29          	10.389
MS.127         	20.25          	10.347
MS.128         	20.208         	10.002
MS.129         	20.167         	10.073
MS.130         	20.127         	9.91
MS.131         	20.087         	9.888
MS.132         	20.047         	9.622
MS.133         	20.007         	9.696
MS.134         	19.967         	9.577
MS.135         	19.927         	9.595
MS.136         	19.887         	9.199
MS.137         	19.847         	9.356
MS.138         	19.807         	9.313
MS.139         	19.767         	9.138
MS.140         	19.73          	9.217
MS.141         	19.69          	9.074
MS.142         	19.65          	9.517
MS.143         	19.61          	9.191
MS.144         	19.573         	8.824
MS.145         	19.532         	8.625
MS.146         	19.495         	8.854
MS.147         	19.455         	9.237
MS.148         	19.415         	9.054
MS.149         	19.377         	8.466
MS.150         	19.337         	8.661
MS.151         	19.3           	8.665
MS.152         	19.262         	9.056
MS.153         	19.222         	8.312
MS.154         	19.185         	8.292
MS.155         	19.145         	8.379
MS.156         	19.108         	8.272
MS.157         	19.07          	8.089
MS.158         	19.032         	7.998
MS.159         	18.993         	7.801
MS.160         	18.955         	7.843
MS.161         	18.917         	7.94
MS.162         	18.88          	7.464
MS.163         	18.842         	7.648
MS.164         	18.805         	7.714
MS.165         	18.767         	7.567
MS.166         	18.73          	7.404
MS.167         	18.692         	7.414
MS.168         	18.655         	7.515
MS.169         	18.618         	7.414
MS.170         	18.58          	6.971
MS.171         	18.542         	7.13
MS.172         	18.505         	7.174
MS.173         	18.47          	7.114
MS.174         	18.432         	7.297
MS.175         	18.395         	6.758
MS.176         	18.358         	7.315
MS.177         	18.323         	7.172
MS.178         	18.285         	6.667
MS.179         	18.25          	6.957
MS.180         	18.212         	6.802
MS.181         	18.175         	6.56
MS.182         	18.14          	6.903
MS.183         	18.102         	6.796
MS.184         	18.067         	7.17
MS.185         	18.03          	6.864
MS.186         	17.995         	6.806
MS.187         	17.96          	6.28
MS.188         	17.922         	6.125
MS.189         	17.887         	6.457
MS.190         	17.852         	6.252
MS.191         	17.815         	6.486
MS.192         	17.78          	6.254
MS.193         	17.745         	6.206
MS.194         	17.71          	6.087
MS.195         	17.675         	5.714
MS.196         	17.637         	5.765
MS.197         	17.602         	5.736
MS.198         	17.567         	5.883
MS.199         	17.532         	5.746
MS.200         	17.497         	5.624
MS.201         	17.462         	5.503
MS.202         	17.427         	5.148
MS.203         	17.392         	4.477
MS.204         	17.36          	5.233
MS.205         	17.325         	4.627
MS.206         	17.29          	5.305
MS.207         	17.255         	5.134
MS.208         	17.22          	5.182
MS.209         	17.185         	4.141
MS.210         	17.153         	5.225
MS.211         	17.118         	4.153
MS.212         	17.083         	3.891
MS.213         	17.05          	4.685
MS.214         	17.015         	3.871
MS.215         	16.98          	4.034
MS.216         	16.948         	3.895
MS.217         	16.913         	3.793
MS.218         	16.88          	3.726
MS.219         	16.845         	3.491
MS.220         	16.812         	3.513
MS.221         	16.778         	3.517
MS.222         	16.745         	3.398
MS.223         	16.712         	3.541
MS.224         	16.677         	4.083
MS.225         	16.645         	3.378
MS.226         	16.612         	3.305
MS.227         	16.577         	3.074
MS.228         	16.545         	2.965
MS.229         	16.512         	2.995
MS.230         	16.48          	2.82
MS.231         	16.445         	3.007
MS.232         	16.413         	2.786
MS.233         	16.38          	2.62
MS.234         	16.347         	2.862
MS.235         	16.315         	2.784
MS.236         	16.282         	2.651
MS.237         	16.25          	2.556
MS.238         	16.217         	2.614
MS.239         	16.185         	2.401
MS.240         	16.153         	2.409
MS.241         	16.12          	2.411
MS.242         	16.087         	2.492
MS.243         	16.055         	2.266
MS.244         	16.025         	2.342
MS.245         	15.992         	2.199
MS.246         	15.96          	2.274
MS.247         	15.927         	2.286
MS.248         	15.898         	2.135
MS.249         	15.865         	2.036
MS.250         	15.832         	2.105
MS.251         	15.802         	1.978
MS.252         	15.77          	1.865
MS.253         	15.737         	1.849
MS.254         	15.707         	1.93
MS.255         	15.675         	1.867
MS.256         	15.645         	1.95
MS.257         	15.612         	1.96
MS.258         	15.582         	1.897
MS.259         	15.55          	1.809
MS.260         	15.52          	1.756
MS.261         	15.487         	1.736
MS.262         	15.457         	1.613
MS.263         	15.427         	1.682
MS.264         	15.395         	1.698
MS.265         	15.365         	1.64
MS.266         	15.335         	1.69
MS.267         	15.302         	1.341
MS.268         	15.273         	1.531
MS.269         	15.242         	1.466
MS.270         	15.212         	1.511
MS.271         	15.182         	1.466
MS.272         	15.152         	1.227
MS.273         	15.12          	1.293
MS.274         	15.09          	1.172
MS.275         	15.06          	1.174
MS.276         	15.03          	1.17
MS.277         	15             	1.329
MS.278         	14.97          	1.094
MS.279         	14.94          	1.017
MS.280         	14.91          	1.094
MS.281         	14.88          	1.247
MS.282         	14.852         	1.065
MS.283         	14.822         	1.102
MS.284         	14.792         	1.068
MS.285         	14.762         	1.134
MS.286         	14.733         	1.11
MS.287         	14.702         	0.993
MS.288         	14.675         	0.933
MS.289         	14.645         	0.912
MS.290         	14.615         	0.894
MS.291         	14.587         	0.975
MS.292         	14.557         	0.933
MS.293         	14.527         	0.858
MS.294         	14.5           	0.87
MS.295         	14.47          	0.868
MS.296         	14.443         	0.866
MS.297         	14.412         	0.904
MS.298         	14.382         	0.874
MS.299         	14.355         	0.794
MS.300         	14.327         	0.882
MS.301         	14.297         	0.775
MS.302         	14.27          	0.838
MS.303         	14.24          	0.822
MS.304         	14.212         	0.85
MS.305         	14.185         	0.792
MS.306         	14.155         	0.812
MS.307         	14.127         	0.796
MS.308         	14.1           	0.749
MS.309         	14.07          	0.753
MS.310         	14.042         	0.761
MS.311         	14.015         	0.719
MS.312         	13.987         	0.723
MS.313         	13.957         	0.767
MS.314         	13.93          	0.784
MS.315         	13.903         	0.745
MS.316         	13.875         	0.761
MS.317         	13.847         	0.729
MS.318         	13.82          	0.769
MS.319         	13.792         	0.749
MS.320         	13.765         	0.725
MS.321         	13.737         	0.745
MS.322         	13.71          	0.753
MS.323         	13.682         	0.737
MS.324         	13.655         	0.753
MS.325         	13.627         	0.763
MS.326         	13.6           	0.763
MS.327         	13.572         	0.741
MS.328         	13.545         	0.745
MS.329         	13.52          	0.739
MS.330         	13.492         	0.755
MS.331         	13.465         	0.683
MS.332         	13.438         	0.687
MS.333         	13.412         	0.753
MS.334         	13.385         	0.703
MS.335         	13.358         	0.719
MS.336         	13.33          	0.693
MS.337         	13.305         	0.683
MS.338         	13.278         	0.719
MS.339         	13.252         	0.687
MS.340         	13.225         	0.693
MS.341         	13.197         	0.757
MS.342         	13.172         	0.713
MS.343         	13.145         	0.701
MS.344         	13.12          	0.675
MS.345         	13.092         	0.735
MS.346         	13.068         	0.711
MS.347         	13.04          	0.683
MS.348         	13.015         	0.707
MS.349         	12.99          	0.681
MS.350         	12.962         	0.693
MS.351         	12.938         	0.697
MS.352         	12.91          	0.687
MS.353         	12.885         	0.697
MS.354         	12.86          	0.689
MS.355         	12.835         	0.697
MS.356         	12.807         	0.725
MS.357         	12.782         	0.689
MS.358         	12.757         	0.689
MS.359         	12.733         	0.691
MS.360         	12.707         	0.689
MS.361         	12.68          	0.618
MS.362         	12.655         	0.701
MS.363         	12.63          	0.697
MS.364         	12.605         	0.693
MS.365         	12.58          	0.63
MS.366         	12.555         	0.695
MS.367         	12.53          	0.691
MS.368         	12.505         	0.638
MS.369         	12.48          	0.626
MS.370         	12.455         	0.703
MS.371         	12.43          	0.638
MS.372         	12.405         	0.638
MS.373         	12.38          	0.638
MS.374         	12.355         	0.643
MS.375         	12.33          	0.645
MS.376         	12.305         	0.643
MS.377         	12.282         	0.634
MS.378         	12.257         	0.636
MS.379         	12.233         	0.634
MS.380         	12.207         	0.657
MS.381         	12.182         	0.649
MS.382         	12.16          	0.641
MS.383         	12.135         	0.649
MS.384         	12.11          	0.645
MS.385         	12.087         	0.645
MS.386         	12.062         	0.636
MS.387         	12.037         	0.653
MS.388         	12.015         	0.653
MS.389         	11.99          	0.643
MS.390         	11.967         	0.653
MS.391         	11.943         	0.657
MS.392         	11.917         	0.649
MS.393         	11.895         	0.645
MS.394         	11.87          	0.659
MS.395         	11.847         	0.651
MS.396         	11.822         	0.63
MS.397         	11.8           	0.669
MS.398         	11.778         	0.671
MS.399         	11.752         	0.671
MS.400         	11.73          	0.677
MS.401         	11.705         	0.671
MS.402         	11.682         	0.677
MS.403         	11.66          	0.673
MS.404         	11.635         	0.683
MS.405         	11.613         	0.681
MS.406         	11.59          	0.665
MS.407         	11.568         	0.647
MS.408         	11.542         	0.681
MS.409         	11.52          	0.679
MS.410         	11.497         	0.697
MS.411         	11.475         	0.689
MS.412         	11.45          	0.685
MS.413         	11.427         	0.697
MS.414         	11.405         	0.711
MS.415         	11.382         	0.709
MS.416         	11.36          	0.673
MS.417         	11.337         	0.697
MS.418         	11.315         	0.665
MS.419         	11.292         	0.661
MS.420         	11.27          	0.667
MS.421         	11.247         	0.681
MS.422         	11.225         	0.711
MS.423         	11.202         	0.719
MS.424         	11.18          	0.673
MS.425         	11.157         	0.663
MS.426         	11.135         	0.675
MS.427         	11.113         	0.685
MS.428         	11.09          	0.663
MS.429         	11.068         	0.657
MS.430         	11.047         	0.659
MS.431         	11.025         	0.667
MS.432         	11.002         	0.665
MS.433         	10.98          	0.665
MS.434         	10.957         	0.673
MS.435         	10.938         	0.669
MS.436         	10.915         	0.675
MS.437         	10.892         	0.663
MS.438         	10.87          	0.673
MS.439         	10.85          	0.679
MS.440         	10.827         	0.671
MS.441         	10.805         	0.665
MS.442         	10.785         	0.675
MS.443         	10.762         	0.683
MS.444         	10.742         	0.675
MS.445         	10.72          	0.687
MS.446         	10.698         	0.27
MS.447         	10.677         	0.673
MS.448         	10.655         	0.677
MS.449         	10.635         	0.264
MS.450         	10.613         	0.181
MS.451         	10.592         	0.274
MS.452         	10.57          	0.258
MS.453         	10.55          	0.284
MS.454         	10.528         	0.26
MS.455         	10.507         	0.272
MS.456         	10.488         	0.264
MS.457         	10.465         	0.187
MS.458         	10.445         	0.27
MS.459         	10.425         	0.189
MS.460         	10.403         	0.256
MS.461         	10.382         	0.199
MS.462         	10.363         	0.197
MS.463         	10.34          	0.195
MS.464         	10.32          	0.199
MS.465         	10.3           	0.195
MS.466         	10.28          	0.193
MS.467         	10.257         	0.183
MS.468         	10.238         	0.199
MS.469         	10.217         	0.189
MS.470         	10.198         	0.197
MS.471         	10.177         	0.207
MS.472         	10.157         	0.197
MS.473         	10.135         	0.167
MS.474         	10.115         	0.187
MS.475         	10.095         	0.209
MS.476         	10.075         	0.203
MS.477         	10.055         	0.153
MS.478         	10.035         	0.199
MS.479         	10.015         	0.177
MS.480         	9.995          	0.209
MS.481         	9.975          	0.177
MS.482         	9.955          	0.163
MS.483         	9.935          	0.207
MS.484         	9.915          	0.161
MS.485         	9.895          	0.167
MS.486         	9.875          	0.161
MS.487         	9.855          	0.191
MS.488         	9.837          	0.195
MS.489         	9.818          	0.181
MS.490         	9.797          	0.169
MS.491         	9.778          	0.159
MS.492         	9.757          	0.195
MS.493         	9.738          	0.171
MS.494         	9.72           	0.179
MS.495         	9.7            	0.175
MS.496         	9.68           	0.171
