File:              	C:\Qtrac\Data\Daniel M Sørensen\MScan multicentre study\Data from centres\Toronto\Processed data\MSCC01202A.QZD
Name:              	CA.TOR.NC.7.1
Protocol:          	MSCAN-R2
Date:              	2/12/20
Start time:        	10:39:18
Age:               	43
Sex:               	F
Temperature:       	31.3
S/R sites:         	APB
NC/disease:        	NC
Operator:          	LP
Comments:          	MFF60ON
M-SCAN DATA (4.8-1.8m)
Scanpts: 6, 10, 317, 338
Stim. (mA)     	Amp. (mV)
MS.1           	17.5           	16.683
MS.2           	17.5           	16.677
MS.3           	17.5           	16.677
MS.4           	17.5           	16.635
MS.5           	17.5           	16.643
MS.6           	17.5           	16.631
MS.7           	17.5           	16.665
MS.8           	17.5           	16.663
MS.9           	17.5           	16.675
MS.10          	17.5           	16.621
MS.11          	17.5           	16.599
MS.12          	17.5           	16.603
MS.13          	17.5           	16.603
MS.14          	17.5           	16.601
MS.15          	17.5           	16.585
MS.16          	17.5           	16.619
MS.17          	17.5           	16.566
MS.18          	17.5           	16.516
MS.19          	17.5           	16.458
MS.20          	17.5           	16.369
MS.21          	17.5           	16.421
MS.22          	17.5           	16.415
MS.23          	17.5           	16.399
MS.24          	17.43          	16.45
MS.25          	17.395         	16.434
MS.26          	17.36          	16.474
MS.27          	17.325         	16.297
MS.28          	17.29          	16.307
MS.29          	17.257         	16.331
MS.30          	17.222         	16.315
MS.31          	17.188         	16.466
MS.32          	17.153         	16.256
MS.33          	17.12          	16.351
MS.34          	17.085         	16.282
MS.35          	17.05          	16.365
MS.36          	17.017         	16.299
MS.37          	16.983         	16.365
MS.38          	16.95          	16.353
MS.39          	16.915         	16.28
MS.40          	16.88          	16.295
MS.41          	16.847         	16.198
MS.42          	16.812         	16.347
MS.43          	16.78          	16.206
MS.44          	16.747         	16.278
MS.45          	16.712         	16.387
MS.46          	16.68          	16.266
MS.47          	16.647         	16.198
MS.48          	16.612         	16.258
MS.49          	16.58          	16.174
MS.50          	16.547         	16.127
MS.51          	16.515         	16.26
MS.52          	16.48          	16.063
MS.53          	16.448         	16.194
MS.54          	16.415         	16.143
MS.55          	16.382         	16.148
MS.56          	16.35          	16.067
MS.57          	16.317         	16.214
MS.58          	16.285         	16.15
MS.59          	16.253         	16.164
MS.60          	16.22          	16.16
MS.61          	16.188         	16.152
MS.62          	16.155         	16.067
MS.63          	16.122         	16.146
MS.64          	16.09          	16.146
MS.65          	16.057         	16.139
MS.66          	16.025         	16.146
MS.67          	15.992         	16.043
MS.68          	15.962         	16.073
MS.69          	15.93          	15.914
MS.70          	15.898         	15.823
MS.71          	15.867         	15.811
MS.72          	15.835         	15.843
MS.73          	15.802         	15.843
MS.74          	15.773         	16.105
MS.75          	15.74          	15.02
MS.76          	15.707         	15.596
MS.77          	15.677         	15.706
MS.78          	15.645         	15.704
MS.79          	15.615         	15.491
MS.80          	15.582         	15.404
MS.81          	15.552         	15.283
MS.82          	15.52          	15.449
MS.83          	15.49          	14.719
MS.84          	15.46          	15.171
MS.85          	15.427         	14.728
MS.86          	15.398         	14.766
MS.87          	15.367         	14.653
MS.88          	15.335         	14.989
MS.89          	15.305         	14.431
MS.90          	15.275         	14.75
MS.91          	15.245         	14.651
MS.92          	15.212         	14.738
MS.93          	15.182         	15.132
MS.94          	15.152         	14.657
MS.95          	15.122         	14.544
MS.96          	15.092         	15.018
MS.97          	15.062         	14.581
MS.98          	15.032         	14.254
MS.99          	15.002         	14.576
MS.100         	14.972         	14.236
MS.101         	14.943         	14.272
MS.102         	14.912         	13.878
MS.103         	14.882         	13.984
MS.104         	14.852         	14.411
MS.105         	14.822         	13.567
MS.106         	14.792         	13.612
MS.107         	14.765         	13.259
MS.108         	14.735         	13.517
MS.109         	14.705         	13.634
MS.110         	14.675         	13.791
MS.111         	14.648         	13.642
MS.112         	14.617         	13.374
MS.113         	14.587         	13.255
MS.114         	14.56          	13.225
MS.115         	14.53          	13.156
MS.116         	14.5           	13.267
MS.117         	14.472         	13.032
MS.118         	14.443         	12.999
MS.119         	14.415         	12.856
MS.120         	14.385         	13.042
MS.121         	14.358         	12.752
MS.122         	14.327         	12.891
MS.123         	14.3           	12.184
MS.124         	14.27          	12.298
MS.125         	14.242         	12.804
MS.126         	14.212         	12.228
MS.127         	14.185         	12.145
MS.128         	14.157         	12.339
MS.129         	14.127         	12.071
MS.130         	14.1           	12.192
MS.131         	14.072         	11.213
MS.132         	14.045         	11.674
MS.133         	14.015         	11.261
MS.134         	13.987         	11.249
MS.135         	13.96          	11.221
MS.136         	13.932         	10.864
MS.137         	13.905         	11.305
MS.138         	13.877         	11.352
MS.139         	13.85          	10.214
MS.140         	13.82          	11.106
MS.141         	13.792         	10.363
MS.142         	13.765         	10.327
MS.143         	13.737         	9.817
MS.144         	13.71          	10.123
MS.145         	13.682         	10.039
MS.146         	13.655         	9.599
MS.147         	13.63          	9.434
MS.148         	13.602         	9.388
MS.149         	13.575         	8.534
MS.150         	13.547         	8.713
MS.151         	13.52          	9.082
MS.152         	13.492         	9.148
MS.153         	13.467         	8.552
MS.154         	13.44          	8.53
MS.155         	13.412         	8.772
MS.156         	13.385         	8.486
MS.157         	13.36          	8.266
MS.158         	13.332         	8.25
MS.159         	13.305         	7.817
MS.160         	13.28          	8.036
MS.161         	13.252         	8.161
MS.162         	13.225         	8.161
MS.163         	13.2           	7.942
MS.164         	13.172         	7.462
MS.165         	13.148         	7.904
MS.166         	13.12          	7.386
MS.167         	13.095         	7.773
MS.168         	13.068         	7.374
MS.169         	13.042         	7.676
MS.170         	13.015         	7.521
MS.171         	12.99          	7.44
MS.172         	12.965         	7.076
MS.173         	12.938         	7.251
MS.174         	12.912         	7.005
MS.175         	12.887         	6.989
MS.176         	12.86          	6.397
MS.177         	12.835         	6.469
MS.178         	12.81          	6.333
MS.179         	12.785         	6.619
MS.180         	12.757         	6.923
MS.181         	12.733         	6.3
MS.182         	12.707         	5.825
MS.183         	12.682         	6.234
MS.184         	12.657         	5.714
MS.185         	12.632         	5.899
MS.186         	12.608         	5.549
MS.187         	12.58          	5.146
MS.188         	12.555         	4.86
MS.189         	12.53          	5.11
MS.190         	12.505         	4.967
MS.191         	12.48          	4.761
MS.192         	12.455         	5.074
MS.193         	12.43          	4.725
MS.194         	12.405         	4.413
MS.195         	12.382         	4.651
MS.196         	12.358         	4.55
MS.197         	12.332         	4.528
MS.198         	12.307         	4.399
MS.199         	12.282         	4.53
MS.200         	12.257         	4.061
MS.201         	12.233         	4.276
MS.202         	12.21          	4.288
MS.203         	12.185         	3.799
MS.204         	12.16          	3.968
MS.205         	12.135         	3.914
MS.206         	12.113         	3.656
MS.207         	12.087         	3.589
MS.208         	12.062         	3.442
MS.209         	12.04          	3.783
MS.210         	12.015         	3.801
MS.211         	11.992         	3.527
MS.212         	11.967         	3.636
MS.213         	11.943         	3.545
MS.214         	11.92          	2.937
MS.215         	11.895         	3.013
MS.216         	11.872         	2.888
MS.217         	11.847         	2.917
MS.218         	11.825         	2.945
MS.219         	11.8           	2.665
MS.220         	11.778         	2.506
MS.221         	11.755         	2.397
MS.222         	11.73          	2.683
MS.223         	11.707         	2.649
MS.224         	11.682         	2.383
MS.225         	11.66          	2.334
MS.226         	11.637         	2.111
MS.227         	11.615         	2.353
MS.228         	11.59          	2.133
MS.229         	11.568         	2.377
MS.230         	11.545         	2.203
MS.231         	11.523         	2.014
MS.232         	11.497         	1.994
MS.233         	11.475         	2.113
MS.234         	11.452         	1.932
MS.235         	11.43          	1.76
MS.236         	11.407         	1.938
MS.237         	11.385         	1.819
MS.238         	11.36          	1.648
MS.239         	11.337         	1.656
MS.240         	11.315         	1.803
MS.241         	11.292         	1.035
MS.242         	11.27          	1.247
MS.243         	11.247         	1.587
MS.244         	11.225         	1.533
MS.245         	11.202         	1.086
MS.246         	11.18          	1.2
MS.247         	11.157         	1.009
MS.248         	11.135         	0.955
MS.249         	11.115         	0.947
MS.250         	11.092         	0.981
MS.251         	11.07          	0.82
MS.252         	11.047         	0.838
MS.253         	11.025         	0.848
MS.254         	11.002         	0.753
MS.255         	10.983         	0.779
MS.256         	10.96          	1.164
MS.257         	10.938         	0.538
MS.258         	10.915         	0.717
MS.259         	10.895         	0.55
MS.260         	10.872         	0.544
MS.261         	10.85          	0.322
MS.262         	10.827         	0.526
MS.263         	10.807         	0.516
MS.264         	10.785         	0.296
MS.265         	10.765         	0.536
MS.266         	10.742         	0.25
MS.267         	10.72          	0.379
MS.268         	10.7           	0.427
MS.269         	10.677         	0.159
MS.270         	10.657         	0.171
MS.271         	10.635         	0.264
MS.272         	10.615         	0.153
MS.273         	10.592         	0.161
MS.274         	10.573         	0.119
MS.275         	10.55          	0.062
MS.276         	10.53          	0.089
MS.277         	10.507         	0.109
MS.278         	10.488         	0.062
MS.279         	10.467         	0.064
MS.280         	10.445         	0.077
MS.281         	10.425         	0.085
MS.282         	10.405         	0.052
MS.283         	10.382         	0.103
MS.284         	10.363         	0.032
MS.285         	10.342         	0.024
MS.286         	10.32          	0.044
MS.287         	10.3           	0.022
MS.288         	10.28          	0.058
MS.289         	10.26          	0.062
MS.290         	10.24          	0.06
MS.291         	10.217         	0.022
MS.292         	10.198         	0.024
MS.293         	10.177         	0.052
MS.294         	10.157         	0.026
MS.295         	10.137         	0.03
MS.296         	10.117         	0.054
MS.297         	10.097         	0.026
MS.298         	10.077         	0.034
MS.299         	10.057         	0.056
MS.300         	10.035         	0.028
MS.301         	10.015         	0.026
MS.302         	9.995          	0.024
MS.303         	9.975          	0.026
MS.304         	9.955          	0.024
MS.305         	9.938          	0.032
MS.306         	9.917          	0.022
MS.307         	9.898          	0.028
MS.308         	9.877          	0.026
MS.309         	9.858          	0.026
MS.310         	9.837          	0.028
MS.311         	9.818          	0.022
MS.312         	9.797          	0.028
MS.313         	9.778          	0.028
MS.314         	9.76           	0.03
MS.315         	9.74           	0.026
MS.316         	9.72           	0.024
MS.317         	9.7            	0.018
MS.318         	9.682          	0.01
MS.319         	9.662          	0.012
MS.320         	9.642          	0.01
MS.321         	9.622          	0.008
MS.322         	9.605          	0.024
MS.323         	9.585          	0.014
MS.324         	9.565          	0.012
MS.325         	9.547          	0.03
MS.326         	9.528          	0.016
MS.327         	9.507          	0.006
MS.328         	9.49           	0.026
MS.329         	9.47           	0.012
MS.330         	9.452          	0.014
MS.331         	9.432          	0.006
MS.332         	9.415          	0.002
MS.333         	9.395          	0.012
MS.334         	9.377          	0.012
MS.335         	9.358          	0.006
MS.336         	9.34           	0.012
MS.337         	9.32           	0.03
MS.338         	9.302          	0.01
DERIVED EXCITABILITY VARIABLES
Program = QTracP 3/4/2020
Threshold method = 6 (optimised for CAP, using data for present condition only)
SR method = 1 (using actual data values)
6.                 	0.000               	Peak response\(mV)
9.                 	31.3                	Temperature ( C)
17.                	43                  	Age (years)
18.                	2                   	Sex (M=1, F=2)

EXTRA VARIABLES

MScPeak(mV) = 16.57
MScS5(mA) = 11.02
MScS50(mA) = 13.36
MScS95(mA) = 15.76
MScNSteps = 4
MScSteps(%) = 9.5
MScStepMax(%) = 2.6
MScD50 = 38
MScSlope = 6.59
MSFPeakAmp(mV) = 16.6
MSFNUnits = 146
MSFMeanUnitAmp(uV) = 114
MSFHuntTime(m) = 2.17
MSFError(%) = 6.79
MSFNLarge = 47.48
MSFMedianAmp(%) = 0.603
MSFMedianAmp(mV) = 0.1
MSFHalfAmpAmp(%) = 0.735
MSFHalfAmpAmp(mV) = 0.122
MSFLargestAmp(%) = 2.53
MSFLargestAmp(mV) = 0.422
MSFMeanRS(%) = 2
MSFOpts = 10106121
MScDuration(min) = 3
MSFTraces = 333
MSFSizeLimit(uV) = 41.6
MSFLimitType = 1
MSFSmallestAmp(uV) = 51

EXTRA WAVEFORMS


!MScan Model
!146
	1	10.49	0.41	2
	2	10.6	0.4	2
	3	10.65	0.37	2
	4	10.73	0.62	2
	5	10.8	0.86	2
	6	10.88	0.8	2
	7	10.95	0.65	2
	8	11.05	1.12	2
	9	11.12	0.67	2
	10	11.17	0.64	2
	11	11.2	0.42	2
	12	11.24	0.78	2
	13	11.27	0.63	2
	14	11.31	0.75	2
	15	11.34	0.52	2
	16	11.38	0.65	2
	17	11.41	0.47	2
	18	11.44	0.49	2
	19	11.47	0.45	2
	20	11.49	0.34	2
	21	11.53	0.49	2
	22	11.57	0.68	2
	23	11.62	0.6	2
	24	11.68	0.53	2
	25	11.7	0.31	2
	26	11.72	0.35	2
	27	11.74	0.32	2
	28	11.76	0.31	2
	29	11.78	0.31	2
	30	11.8	0.47	2
	31	11.81	0.44	2
	32	11.83	0.43	2
	33	11.85	0.51	2
	34	11.89	0.81	2
	35	11.92	0.72	2
	36	11.96	0.53	2
	37	12.02	1.41	2
	38	12.09	1.46	2
	39	12.12	0.42	2
	40	12.17	0.35	2
	41	12.18	0.36	2
	42	12.2	0.36	2
	43	12.21	0.4	2
	44	12.24	0.58	2
	45	12.27	0.52	2
	46	12.29	0.41	2
	47	12.32	0.45	2
	48	12.34	0.45	2
	49	12.37	0.46	2
	50	12.39	0.44	2
	51	12.42	0.46	2
	52	12.45	0.49	2
	53	12.46	0.31	2
	54	12.49	0.61	2
	55	12.52	0.61	2
	56	12.53	0.51	2
	57	12.54	0.41	2
	58	12.56	0.41	2
	59	12.57	0.41	2
	60	12.59	0.53	2
	61	12.62	0.87	2
	62	12.64	0.8	2
	63	12.67	0.78	2
	64	12.7	0.87	2
	65	12.74	1.15	2
	66	12.78	1.55	2
	67	12.82	1.13	2
	68	12.85	0.69	2
	69	12.87	0.48	2
	70	12.89	0.48	2
	71	12.93	0.55	2
	72	12.95	0.52	2
	73	12.97	0.61	2
	74	13.01	1.07	2
	75	13.06	1.07	2
	76	13.1	0.7	2
	77	13.14	0.79	2
	78	13.22	0.81	2
	79	13.24	0.47	2
	80	13.27	0.41	2
	81	13.29	0.59	2
	82	13.32	0.65	2
	83	13.34	0.5	2
	84	13.36	0.54	2
	85	13.4	0.72	2
	86	13.43	0.5	2
	87	13.47	0.67	2
	88	13.5	0.64	2
	89	13.51	0.38	2
	90	13.53	0.38	2
	91	13.55	0.4	2
	92	13.57	0.58	2
	93	13.58	0.58	2
	94	13.6	0.57	2
	95	13.62	0.57	2
	96	13.64	0.62	2
	97	13.66	0.72	2
	98	13.68	0.72	2
	99	13.7	1.02	2
	100	13.72	0.85	2
	101	13.75	0.74	2
	102	13.77	0.81	2
	103	13.82	1.7	2
	104	13.87	1.3	2
	105	13.92	0.93	2
	106	13.96	1	2
	107	14	1.86	2
	108	14.04	0.95	2
	109	14.07	0.87	2
	110	14.11	0.8	2
	111	14.15	0.79	2
	112	14.18	0.87	2
	113	14.22	0.92	2
	114	14.26	0.99	2
	115	14.3	0.77	2
	116	14.33	0.61	2
	117	14.36	0.43	2
	118	14.38	0.56	2
	119	14.43	0.48	2
	120	14.46	0.41	2
	121	14.5	0.8	2
	122	14.59	1.12	2
	123	14.69	1.08	2
	124	14.77	1.31	2
	125	14.81	0.46	2
	126	14.87	0.85	2
	127	14.91	0.81	2
	128	14.95	1.07	2
	129	15	0.61	2
	130	15.05	0.7	2
	131	15.37	2.53	2
	132	15.43	0.46	2
	133	15.46	0.46	2
	134	15.49	0.53	2
	135	15.53	0.67	2
	136	15.64	1.33	2
	137	15.78	1.72	2
	138	15.88	0.91	2
	139	15.92	0.5	2
	140	16.21	0.76	2
	141	16.58	0.64	2
	142	16.95	0.6	2
	143	17.35	0.48	2
	144	17.5	0.33	2
	145	17.62	0.39	2
	146	17.76	0.41	2

