File:              	C:\Qtrac\Data\Daniel M Sørensen\MScan multicentre study\Data from centres\Oulu\Processed data\OUHC01125A.QZD
Name:              	FL.OUL.NC.6.1
Protocol:          	MSCAN-R2
Date:              	25/11/20
Start time:        	09:13:00
Age:               	34
Sex:               	M
Temperature:       	34,2
S/R sites:         	APB
NC/disease:        	NC
Operator:          	MK
Comments:
M-SCAN DATA (4.3-0.0m)
Scanpts: 46, 54, 467, 494
Stim. (mA)     	Amp. (mV)
MS.1           	24             	10.312
MS.2           	23.952         	10.29
MS.3           	23.905         	10.214
MS.4           	23.858         	10.19
MS.5           	23.81          	10.172
MS.6           	23.76          	10.228
MS.7           	23.712         	10.153
MS.8           	23.667         	10.165
MS.9           	23.62          	10.248
MS.10          	23.573         	10.246
MS.11          	23.525         	10.178
MS.12          	23.477         	10.176
MS.13          	23.43          	10.25
MS.14          	23.385         	10.186
MS.15          	23.337         	10.258
MS.16          	23.29          	10.176
MS.17          	23.245         	10.21
MS.18          	23.198         	10.264
MS.19          	23.153         	10.188
MS.20          	23.105         	10.2
MS.21          	23.06          	10.22
MS.22          	23.012         	10.196
MS.23          	22.967         	10.159
MS.24          	22.92          	10.119
MS.25          	22.875         	10.131
MS.26          	22.83          	10.24
MS.27          	22.785         	10.157
MS.28          	22.737         	10.19
MS.29          	22.692         	10.178
MS.30          	22.647         	10.169
MS.31          	22.602         	10.143
MS.32          	22.557         	10.147
MS.33          	22.512         	10.145
MS.34          	22.467         	10.174
MS.35          	22.422         	10.19
MS.36          	22.377         	10.157
MS.37          	22.332         	10.202
MS.38          	22.288         	10.157
MS.39          	22.243         	10.178
MS.40          	22.2           	10.165
MS.41          	22.155         	10.131
MS.42          	22.11          	10.196
MS.43          	22.067         	10.159
MS.44          	22.022         	10.159
MS.45          	21.977         	10.169
MS.46          	21.935         	10.147
MS.47          	21.89          	10.157
MS.48          	21.847         	10.182
MS.49          	21.802         	10.178
MS.50          	21.76          	10.165
MS.51          	21.715         	10.172
MS.52          	21.672         	10.157
MS.53          	21.63          	10.184
MS.54          	21.585         	10.151
MS.55          	21.542         	10.167
MS.56          	21.5           	10.147
MS.57          	21.458         	10.167
MS.58          	21.415         	10.172
MS.59          	21.372         	10.165
MS.60          	21.327         	10.147
MS.61          	21.285         	10.139
MS.62          	21.243         	10.204
MS.63          	21.2           	10.202
MS.64          	21.16          	10.169
MS.65          	21.118         	10.172
MS.66          	21.075         	10.198
MS.67          	21.032         	10.18
MS.68          	20.99          	10.186
MS.69          	20.948         	10.161
MS.70          	20.907         	10.165
MS.71          	20.865         	10.155
MS.72          	20.823         	10.169
MS.73          	20.782         	10.145
MS.74          	20.74          	10.178
MS.75          	20.698         	9.998
MS.76          	20.657         	10.176
MS.77          	20.615         	10.2
MS.78          	20.575         	10.174
MS.79          	20.532         	10.18
MS.80          	20.493         	10.182
MS.81          	20.452         	10.016
MS.82          	20.41          	10.018
MS.83          	20.37          	10.012
MS.84          	20.33          	10.022
MS.85          	20.288         	10.202
MS.86          	20.247         	10.008
MS.87          	20.208         	10.024
MS.88          	20.167         	10.024
MS.89          	20.127         	10.045
MS.90          	20.087         	10.045
MS.91          	20.047         	10.041
MS.92          	20.007         	10.024
MS.93          	19.967         	10.045
MS.94          	19.927         	10.041
MS.95          	19.887         	10.014
MS.96          	19.847         	9.91
MS.97          	19.807         	9.968
MS.98          	19.767         	9.974
MS.99          	19.727         	9.984
MS.100         	19.69          	9.936
MS.101         	19.65          	10.024
MS.102         	19.61          	9.803
MS.103         	19.57          	9.926
MS.104         	19.532         	9.765
MS.105         	19.493         	9.938
MS.106         	19.455         	9.853
MS.107         	19.415         	9.896
MS.108         	19.377         	9.825
MS.109         	19.337         	9.94
MS.110         	19.3           	9.634
MS.111         	19.26          	9.793
MS.112         	19.222         	9.728
MS.113         	19.182         	9.569
MS.114         	19.145         	9.575
MS.115         	19.108         	9.718
MS.116         	19.07          	9.515
MS.117         	19.03          	9.561
MS.118         	18.993         	9.448
MS.119         	18.955         	9.543
MS.120         	18.917         	9.366
MS.121         	18.88          	9.448
MS.122         	18.842         	9.37
MS.123         	18.802         	9.241
MS.124         	18.765         	9.249
MS.125         	18.727         	9.342
MS.126         	18.69          	9.37
MS.127         	18.655         	9.243
MS.128         	18.618         	9.211
MS.129         	18.58          	9.32
MS.130         	18.542         	9.217
MS.131         	18.505         	9.122
MS.132         	18.467         	9.106
MS.133         	18.432         	9.044
MS.134         	18.395         	9.052
MS.135         	18.358         	9.179
MS.136         	18.32          	8.812
MS.137         	18.285         	8.852
MS.138         	18.247         	9.136
MS.139         	18.212         	8.929
MS.140         	18.175         	8.856
MS.141         	18.14          	8.707
MS.142         	18.102         	8.687
MS.143         	18.067         	8.75
MS.144         	18.03          	8.661
MS.145         	17.995         	8.681
MS.146         	17.958         	8.715
MS.147         	17.922         	8.534
MS.148         	17.887         	8.484
MS.149         	17.85          	8.407
MS.150         	17.815         	8.143
MS.151         	17.78          	8.472
MS.152         	17.745         	8.278
MS.153         	17.708         	8.323
MS.154         	17.672         	8.032
MS.155         	17.637         	8.361
MS.156         	17.602         	7.994
MS.157         	17.567         	7.902
MS.158         	17.532         	7.986
MS.159         	17.497         	7.891
MS.160         	17.462         	7.938
MS.161         	17.427         	8.018
MS.162         	17.392         	7.871
MS.163         	17.358         	7.793
MS.164         	17.323         	7.873
MS.165         	17.288         	7.767
MS.166         	17.255         	7.759
MS.167         	17.22          	7.992
MS.168         	17.185         	7.904
MS.169         	17.15          	7.785
MS.170         	17.118         	7.819
MS.171         	17.083         	7.726
MS.172         	17.047         	7.446
MS.173         	17.015         	7.636
MS.174         	16.98          	7.767
MS.175         	16.948         	7.537
MS.176         	16.913         	7.529
MS.177         	16.878         	7.638
MS.178         	16.845         	7.601
MS.179         	16.812         	7.356
MS.180         	16.778         	7.573
MS.181         	16.745         	7.348
MS.182         	16.71          	7.336
MS.183         	16.677         	7.044
MS.184         	16.645         	7.172
MS.185         	16.61          	7.064
MS.186         	16.577         	6.947
MS.187         	16.545         	6.999
MS.188         	16.512         	6.747
MS.189         	16.477         	6.695
MS.190         	16.445         	6.747
MS.191         	16.413         	6.951
MS.192         	16.38          	6.927
MS.193         	16.347         	6.681
MS.194         	16.315         	6.574
MS.195         	16.282         	6.48
MS.196         	16.25          	6.526
MS.197         	16.217         	6.236
MS.198         	16.185         	6.369
MS.199         	16.153         	6.077
MS.200         	16.12          	6.185
MS.201         	16.087         	6.177
MS.202         	16.055         	6.059
MS.203         	16.022         	6.042
MS.204         	15.992         	5.938
MS.205         	15.96          	5.865
MS.206         	15.927         	5.658
MS.207         	15.895         	6.087
MS.208         	15.865         	5.722
MS.209         	15.832         	5.781
MS.210         	15.8           	5.509
MS.211         	15.77          	5.541
MS.212         	15.737         	5.342
MS.213         	15.705         	5.537
MS.214         	15.675         	5.184
MS.215         	15.642         	5.569
MS.216         	15.612         	5.541
MS.217         	15.58          	5.327
MS.218         	15.55          	5.088
MS.219         	15.52          	5.263
MS.220         	15.487         	5.275
MS.221         	15.457         	4.941
MS.222         	15.425         	4.84
MS.223         	15.395         	4.888
MS.224         	15.365         	4.848
MS.225         	15.332         	4.731
MS.226         	15.302         	5.104
MS.227         	15.273         	4.671
MS.228         	15.242         	4.677
MS.229         	15.212         	4.681
MS.230         	15.18          	4.707
MS.231         	15.15          	4.592
MS.232         	15.12          	4.526
MS.233         	15.09          	4.516
MS.234         	15.06          	4.596
MS.235         	15.03          	4.463
MS.236         	15             	4.604
MS.237         	14.97          	4.506
MS.238         	14.94          	4.479
MS.239         	14.91          	4.56
MS.240         	14.88          	4.403
MS.241         	14.85          	4.482
MS.242         	14.82          	4.524
MS.243         	14.792         	4.369
MS.244         	14.762         	4.363
MS.245         	14.733         	4.282
MS.246         	14.702         	4.274
MS.247         	14.672         	4.417
MS.248         	14.645         	4.31
MS.249         	14.615         	4.189
MS.250         	14.585         	4.151
MS.251         	14.557         	4.052
MS.252         	14.527         	4.137
MS.253         	14.497         	4.004
MS.254         	14.47          	4.081
MS.255         	14.44          	4.165
MS.256         	14.412         	4.002
MS.257         	14.382         	3.996
MS.258         	14.355         	3.863
MS.259         	14.325         	3.879
MS.260         	14.297         	3.664
MS.261         	14.267         	3.863
MS.262         	14.24          	3.609
MS.263         	14.212         	3.603
MS.264         	14.182         	3.758
MS.265         	14.155         	3.617
MS.266         	14.127         	3.458
MS.267         	14.097         	3.521
MS.268         	14.07          	3.507
MS.269         	14.042         	3.505
MS.270         	14.015         	3.358
MS.271         	13.985         	3.112
MS.272         	13.957         	3.198
MS.273         	13.93          	3.213
MS.274         	13.903         	3.192
MS.275         	13.875         	2.759
MS.276         	13.847         	2.896
MS.277         	13.82          	2.695
MS.278         	13.792         	2.431
MS.279         	13.765         	3.037
MS.280         	13.737         	2.703
MS.281         	13.71          	2.562
MS.282         	13.682         	2.504
MS.283         	13.655         	2.592
MS.284         	13.627         	2.49
MS.285         	13.6           	2.222
MS.286         	13.572         	2.379
MS.287         	13.545         	2.302
MS.288         	13.517         	1.972
MS.289         	13.492         	2.246
MS.290         	13.465         	1.803
MS.291         	13.438         	2.105
MS.292         	13.41          	1.688
MS.293         	13.385         	1.664
MS.294         	13.358         	1.795
MS.295         	13.33          	1.529
MS.296         	13.305         	1.517
MS.297         	13.278         	1.738
MS.298         	13.25          	1.521
MS.299         	13.225         	1.7
MS.300         	13.197         	1.587
MS.301         	13.172         	1.581
MS.302         	13.145         	1.551
MS.303         	13.12          	1.349
MS.304         	13.092         	1.307
MS.305         	13.068         	1.352
MS.306         	13.04          	1.285
MS.307         	13.015         	1.291
MS.308         	12.987         	1.285
MS.309         	12.962         	1.211
MS.310         	12.938         	1.354
MS.311         	12.91          	1.15
MS.312         	12.885         	1.247
MS.313         	12.86          	1.162
MS.314         	12.832         	1.204
MS.315         	12.807         	1.198
MS.316         	12.782         	0.997
MS.317         	12.757         	1.156
MS.318         	12.73          	1.243
MS.319         	12.705         	0.991
MS.320         	12.68          	0.987
MS.321         	12.655         	1.118
MS.322         	12.63          	1.007
MS.323         	12.605         	0.971
MS.324         	12.58          	0.991
MS.325         	12.555         	0.997
MS.326         	12.53          	0.955
MS.327         	12.505         	0.971
MS.328         	12.48          	0.979
MS.329         	12.455         	0.977
MS.330         	12.43          	0.983
MS.331         	12.405         	0.892
MS.332         	12.38          	0.931
MS.333         	12.355         	0.983
MS.334         	12.33          	0.969
MS.335         	12.305         	0.88
MS.336         	12.28          	0.856
MS.337         	12.257         	0.788
MS.338         	12.233         	0.947
MS.339         	12.207         	0.933
MS.340         	12.182         	0.949
MS.341         	12.16          	0.584
MS.342         	12.135         	0.971
MS.343         	12.11          	0.914
MS.344         	12.085         	0.941
MS.345         	12.062         	0.959
MS.346         	12.037         	0.777
MS.347         	12.015         	0.88
MS.348         	11.99          	0.792
MS.349         	11.965         	0.695
MS.350         	11.943         	0.57
MS.351         	11.917         	0.769
MS.352         	11.895         	0.594
MS.353         	11.87          	0.665
MS.354         	11.847         	0.534
MS.355         	11.822         	0.667
MS.356         	11.8           	0.411
MS.357         	11.775         	0.461
MS.358         	11.752         	0.459
MS.359         	11.73          	0.475
MS.360         	11.705         	0.169
MS.361         	11.682         	0.33
MS.362         	11.657         	0.167
MS.363         	11.635         	0.389
MS.364         	11.613         	0.211
MS.365         	11.59          	0.332
MS.366         	11.565         	0.141
MS.367         	11.542         	0.399
MS.368         	11.52          	0.131
MS.369         	11.497         	0.089
MS.370         	11.472         	0.191
MS.371         	11.45          	0.167
MS.372         	11.427         	0.171
MS.373         	11.405         	0.169
MS.374         	11.382         	0.169
MS.375         	11.36          	0.169
MS.376         	11.337         	0.081
MS.377         	11.315         	0.129
MS.378         	11.292         	0.04
MS.379         	11.27          	0.135
MS.380         	11.247         	0.083
MS.381         	11.225         	0.127
MS.382         	11.202         	0.085
MS.383         	11.18          	0.083
MS.384         	11.157         	0.042
MS.385         	11.135         	0.085
MS.386         	11.113         	0.085
MS.387         	11.09          	0.087
MS.388         	11.068         	0.133
MS.389         	11.045         	0.087
MS.390         	11.025         	0.042
MS.391         	11.002         	0.04
MS.392         	10.98          	0.046
MS.393         	10.957         	0.042
MS.394         	10.935         	0.089
MS.395         	10.915         	0.042
MS.396         	10.892         	0.042
MS.397         	10.87          	0.044
MS.398         	10.85          	0.085
MS.399         	10.827         	0.044
MS.400         	10.805         	0.044
MS.401         	10.785         	0.042
MS.402         	10.762         	0.04
MS.403         	10.74          	0.04
MS.404         	10.72          	0.042
MS.405         	10.698         	0.042
MS.406         	10.677         	0.042
MS.407         	10.655         	0.044
MS.408         	10.635         	0.042
MS.409         	10.613         	0.038
MS.410         	10.592         	0.042
MS.411         	10.57          	0.04
MS.412         	10.55          	0.044
MS.413         	10.528         	0.04
MS.414         	10.507         	0.042
MS.415         	10.485         	0.044
MS.416         	10.465         	0.042
MS.417         	10.445         	0.044
MS.418         	10.422         	0.044
MS.419         	10.403         	0.042
MS.420         	10.382         	0.042
MS.421         	10.36          	0.04
MS.422         	10.34          	0.042
MS.423         	10.32          	0.042
MS.424         	10.3           	0.044
MS.425         	10.278         	0.044
MS.426         	10.257         	0.04
MS.427         	10.238         	0.044
MS.428         	10.217         	0.044
MS.429         	10.198         	0.042
MS.430         	10.175         	0.046
MS.431         	10.155         	0.042
MS.432         	10.135         	0.044
MS.433         	10.115         	0.042
MS.434         	10.095         	0.044
MS.435         	10.075         	0.042
MS.436         	10.055         	0.044
MS.437         	10.035         	0.042
MS.438         	10.015         	0.042
MS.439         	9.995          	0.022
MS.440         	9.975          	0.04
MS.441         	9.955          	0.044
MS.442         	9.935          	0.042
MS.443         	9.915          	0.02
MS.444         	9.895          	0.024
MS.445         	9.875          	0.018
MS.446         	9.855          	0.016
MS.447         	9.835          	0.02
MS.448         	9.818          	0.042
MS.449         	9.797          	0.022
MS.450         	9.778          	0.02
MS.451         	9.757          	0.022
MS.452         	9.738          	0.022
MS.453         	9.717          	0.02
MS.454         	9.7            	0.024
MS.455         	9.68           	0.02
MS.456         	9.66           	0.02
MS.457         	9.642          	0.022
MS.458         	9.622          	0.022
MS.459         	9.602          	0.02
MS.460         	9.582          	0.022
MS.461         	9.565          	0.024
MS.462         	9.545          	0.024
MS.463         	9.528          	0.02
MS.464         	9.507          	0.018
MS.465         	9.488          	0.022
MS.466         	9.47           	0.02
MS.467         	9.45           	0.02
MS.468         	9.432          	0.022
MS.469         	9.412          	0.02
MS.470         	9.395          	0.02
MS.471         	9.375          	0.018
MS.472         	9.358          	0.022
MS.473         	9.337          	0.018
MS.474         	9.32           	0.02
MS.475         	9.3            	0.022
MS.476         	9.283          	0.024
MS.477         	9.262          	0.022
MS.478         	9.245          	0.02
MS.479         	9.227          	0.02
MS.480         	9.207          	0.022
MS.481         	9.19           	0.02
MS.482         	9.17           	0.022
MS.483         	9.153          	0.022
MS.484         	9.135          	0.022
MS.485         	9.115          	0.024
MS.486         	9.097          	0.024
MS.487         	9.08           	0.02
MS.488         	9.062          	0.02
MS.489         	9.042          	0.022
MS.490         	9.025          	0.02
MS.491         	9.007          	0.02
MS.492         	8.99           	0.02
MS.493         	8.972          	0.024
MS.494         	8.952          	0.018
MS.495         	8.935          	0.024
MS.496         	8.917          	0.022
MS.497         	8.9            	0.024
MS.498         	8.882          	0.02
MS.499         	8.865          	0.022
