File:              	C:\Qtrac\Data\CKMC01104A.QZD
Name:              	DK.COP.NC.5.2
Protocol:          	MSCAN-R2
Date:              	4/11/20
Start time:        	09:26:26
Age:               	44
Sex:               	F
Temperature:       	37.8
S/R sites:         	RMedian Wr-APB
NC/disease:        	NC
Operator:          	CK
Comments:          	CG
M-SCAN DATA (6.2-1.7m)
Scanpts: 46, 55, 477, 497
Stim. (mA)     	Amp. (mV)
MS.1           	12             	10.04
MS.2           	12             	10.033
MS.3           	12             	9.978
MS.4           	12             	10.104
MS.5           	12             	10.068
MS.6           	12             	10.046
MS.7           	12             	10.086
MS.8           	12             	10.057
MS.9           	12             	10.048
MS.10          	12             	10.063
MS.11          	12             	10.123
MS.12          	12             	10.049
MS.13          	12             	10.057
MS.14          	12             	10.156
MS.15          	12             	10.036
MS.16          	12             	10.094
MS.17          	12             	10.013
MS.18          	12             	10.072
MS.19          	12             	10.139
MS.20          	12             	10.165
MS.21          	12             	10.167
MS.22          	12             	10.153
MS.23          	12             	10.036
MS.24          	11.95          	10.052
MS.25          	11.93          	10.143
MS.26          	11.905         	10.136
MS.27          	11.88          	10.014
MS.28          	11.855         	10.002
MS.29          	11.835         	10.007
MS.30          	11.81          	10.056
MS.31          	11.785         	10.028
MS.32          	11.76          	10.059
MS.33          	11.74          	10.046
MS.34          	11.715         	10.03
MS.35          	11.69          	9.978
MS.36          	11.67          	10.037
MS.37          	11.645         	9.975
MS.38          	11.62          	10.037
MS.39          	11.6           	10.097
MS.40          	11.575         	10.06
MS.41          	11.555         	10.069
MS.42          	11.53          	10.059
MS.43          	11.505         	10.03
MS.44          	11.485         	10.065
MS.45          	11.46          	9.976
MS.46          	11.44          	10.04
MS.47          	11.415         	10.089
MS.48          	11.39          	10.075
MS.49          	11.37          	10.075
MS.50          	11.345         	10.065
MS.51          	11.325         	10.092
MS.52          	11.3           	10.045
MS.53          	11.28          	10.04
MS.54          	11.255         	10.077
MS.55          	11.235         	10.022
MS.56          	11.21          	10.007
MS.57          	11.19          	10.109
MS.58          	11.165         	10.081
MS.59          	11.145         	10.019
MS.60          	11.12          	10.103
MS.61          	11.1           	10.039
MS.62          	11.075         	10.075
MS.63          	11.055         	10.062
MS.64          	11.035         	10.022
MS.65          	11.01          	10.089
MS.66          	10.99          	10.066
MS.67          	10.965         	10.008
MS.68          	10.945         	10.062
MS.69          	10.925         	10.039
MS.70          	10.9           	10.025
MS.71          	10.88          	9.999
MS.72          	10.86          	10.039
MS.73          	10.835         	10.033
MS.74          	10.815         	10.1
MS.75          	10.795         	10.022
MS.76          	10.77          	10.086
MS.77          	10.75          	10.112
MS.78          	10.73          	10.083
MS.79          	10.705         	10.042
MS.80          	10.685         	10.086
MS.81          	10.665         	10.129
MS.82          	10.645         	10.094
MS.83          	10.62          	10.056
MS.84          	10.6           	10.078
MS.85          	10.58          	10.019
MS.86          	10.56          	10.056
MS.87          	10.535         	10.02
MS.88          	10.515         	10.095
MS.89          	10.495         	10.1
MS.90          	10.475         	10.081
MS.91          	10.455         	10.124
MS.92          	10.43          	10.129
MS.93          	10.41          	10.077
MS.94          	10.39          	10.085
MS.95          	10.37          	10.098
MS.96          	10.35          	10.118
MS.97          	10.33          	10.094
MS.98          	10.31          	10.051
MS.99          	10.285         	9.988
MS.100         	10.265         	10.049
MS.101         	10.245         	10.063
MS.102         	10.225         	9.981
MS.103         	10.205         	10.051
MS.104         	10.185         	9.996
MS.105         	10.165         	9.991
MS.106         	10.145         	10.011
MS.107         	10.125         	9.993
MS.108         	10.105         	9.999
MS.109         	10.085         	10.014
MS.110         	10.065         	9.987
MS.111         	10.045         	10.056
MS.112         	10.025         	9.998
MS.113         	10.005         	10.051
MS.114         	9.985          	9.969
MS.115         	9.965          	9.637
MS.116         	9.945          	9.624
MS.117         	9.925          	9.715
MS.118         	9.905          	9.705
MS.119         	9.885          	9.692
MS.120         	9.865          	9.657
MS.121         	9.845          	9.627
MS.122         	9.825          	9.627
MS.123         	9.805          	9.68
MS.124         	9.785          	10.034
MS.125         	9.765          	9.581
MS.126         	9.745          	9.888
MS.127         	9.725          	9.633
MS.128         	9.71           	9.436
MS.129         	9.69           	10.013
MS.130         	9.67           	9.552
MS.131         	9.65           	9.328
MS.132         	9.63           	9.663
MS.133         	9.61           	9.537
MS.134         	9.59           	9.535
MS.135         	9.575          	9.512
MS.136         	9.555          	9.483
MS.137         	9.535          	9.459
MS.138         	9.515          	9.589
MS.139         	9.495          	9.372
MS.140         	9.475          	9.32
MS.141         	9.46           	9.294
MS.142         	9.44           	9.25
MS.143         	9.42           	9.309
MS.144         	9.4            	9.323
MS.145         	9.385          	9.282
MS.146         	9.365          	9.357
MS.147         	9.345          	9.45
MS.148         	9.325          	9.294
MS.149         	9.31           	9.363
MS.150         	9.29           	9.291
MS.151         	9.27           	9.193
MS.152         	9.255          	9.325
MS.153         	9.235          	9.322
MS.154         	9.215          	9.242
MS.155         	9.195          	9.271
MS.156         	9.18           	9.102
MS.157         	9.16           	9.242
MS.158         	9.14           	9.181
MS.159         	9.125          	9.235
MS.160         	9.105          	9.294
MS.161         	9.09           	9.291
MS.162         	9.07           	9.232
MS.163         	9.05           	8.847
MS.164         	9.035          	9.186
MS.165         	9.015          	9.192
MS.166         	8.995          	9.079
MS.167         	8.98           	9.175
MS.168         	8.96           	9.026
MS.169         	8.945          	9.119
MS.170         	8.925          	9.14
MS.171         	8.91           	8.984
MS.172         	8.89           	8.971
MS.173         	8.87           	8.56
MS.174         	8.855          	8.45
MS.175         	8.835          	8.548
MS.176         	8.82           	8.556
MS.177         	8.8            	8.531
MS.178         	8.785          	8.74
MS.179         	8.765          	8.356
MS.180         	8.75           	8.498
MS.181         	8.73           	8.333
MS.182         	8.715          	8.466
MS.183         	8.695          	8.527
MS.184         	8.68           	8.546
MS.185         	8.66           	8.603
MS.186         	8.645          	8.397
MS.187         	8.625          	8.372
MS.188         	8.61           	8.247
MS.189         	8.595          	8.401
MS.190         	8.575          	8.334
MS.191         	8.56           	8.336
MS.192         	8.54           	8.272
MS.193         	8.525          	8.046
MS.194         	8.505          	8.284
MS.195         	8.49           	8.057
MS.196         	8.475          	8.06
MS.197         	8.455          	7.919
MS.198         	8.44           	7.898
MS.199         	8.42           	7.881
MS.200         	8.405          	7.716
MS.201         	8.39           	7.932
MS.202         	8.37           	8.035
MS.203         	8.355          	7.84
MS.204         	8.34           	7.741
MS.205         	8.32           	7.87
MS.206         	8.305          	7.805
MS.207         	8.29           	7.776
MS.208         	8.27           	7.649
MS.209         	8.255          	7.535
MS.210         	8.24           	7.751
MS.211         	8.225          	7.48
MS.212         	8.205          	7.43
MS.213         	8.19           	7.527
MS.214         	8.175          	7.487
MS.215         	8.155          	7.512
MS.216         	8.14           	7.245
MS.217         	8.125          	7.507
MS.218         	8.11           	7.153
MS.219         	8.09           	7.181
MS.220         	8.075          	7.268
MS.221         	8.06           	7.213
MS.222         	8.045          	7.301
MS.223         	8.03           	7.135
MS.224         	8.01           	6.931
MS.225         	7.995          	7.199
MS.226         	7.98           	7.158
MS.227         	7.965          	7.069
MS.228         	7.95           	7.016
MS.229         	7.93           	7.066
MS.230         	7.915          	6.943
MS.231         	7.9            	6.638
MS.232         	7.885          	6.801
MS.233         	7.87           	6.799
MS.234         	7.855          	6.573
MS.235         	7.835          	6.891
MS.236         	7.82           	6.531
MS.237         	7.805          	6.471
MS.238         	7.79           	6.436
MS.239         	7.775          	6.628
MS.240         	7.76           	6.255
MS.241         	7.745          	6.358
MS.242         	7.73           	6.024
MS.243         	7.715          	6.393
MS.244         	7.7            	6.746
MS.245         	7.68           	6.094
MS.246         	7.665          	5.974
MS.247         	7.65           	6.262
MS.248         	7.635          	5.878
MS.249         	7.62           	6.027
MS.250         	7.605          	5.684
MS.251         	7.59           	5.573
MS.252         	7.575          	5.647
MS.253         	7.56           	5.383
MS.254         	7.545          	5.47
MS.255         	7.53           	5.325
MS.256         	7.515          	5.116
MS.257         	7.5            	5.089
MS.258         	7.485          	4.99
MS.259         	7.47           	5.373
MS.260         	7.455          	4.794
MS.261         	7.44           	4.709
MS.262         	7.425          	4.948
MS.263         	7.41           	4.758
MS.264         	7.395          	4.723
MS.265         	7.38           	4.39
MS.266         	7.365          	4.092
MS.267         	7.35           	4.726
MS.268         	7.335          	3.981
MS.269         	7.32           	4.262
MS.270         	7.31           	3.816
MS.271         	7.295          	3.934
MS.272         	7.28           	4.12
MS.273         	7.265          	4.082
MS.274         	7.25           	3.816
MS.275         	7.235          	3.206
MS.276         	7.22           	3.574
MS.277         	7.205          	2.953
MS.278         	7.19           	3.738
MS.279         	7.175          	2.982
MS.280         	7.165          	3.731
MS.281         	7.15           	2.977
MS.282         	7.135          	2.905
MS.283         	7.12           	2.646
MS.284         	7.105          	2.477
MS.285         	7.09           	2.663
MS.286         	7.075          	2.576
MS.287         	7.065          	2.176
MS.288         	7.05           	2.486
MS.289         	7.035          	2.249
MS.290         	7.02           	2.226
MS.291         	7.005          	2.216
MS.292         	6.995          	2.042
MS.293         	6.98           	2.094
MS.294         	6.965          	1.918
MS.295         	6.95           	1.859
MS.296         	6.935          	2.129
MS.297         	6.925          	2.034
MS.298         	6.91           	1.99
MS.299         	6.895          	1.997
MS.300         	6.88           	1.802
MS.301         	6.87           	1.744
MS.302         	6.855          	1.768
MS.303         	6.84           	1.633
MS.304         	6.825          	1.907
MS.305         	6.815          	1.637
MS.306         	6.8            	1.488
MS.307         	6.785          	1.466
MS.308         	6.775          	1.646
MS.309         	6.76           	1.495
MS.310         	6.745          	1.529
MS.311         	6.73           	1.459
MS.312         	6.72           	1.468
MS.313         	6.705          	1.457
MS.314         	6.69           	1.361
MS.315         	6.68           	1.375
MS.316         	6.665          	1.308
MS.317         	6.65           	1.389
MS.318         	6.64           	1.26
MS.319         	6.625          	1.295
MS.320         	6.61           	1.195
MS.321         	6.6            	1.152
MS.322         	6.585          	1.283
MS.323         	6.575          	1.17
MS.324         	6.56           	1.193
MS.325         	6.545          	1.146
MS.326         	6.535          	1.218
MS.327         	6.52           	1.141
MS.328         	6.505          	1.062
MS.329         	6.495          	1.013
MS.330         	6.48           	1.054
MS.331         	6.47           	1.031
MS.332         	6.455          	1.056
MS.333         	6.44           	0.793
MS.334         	6.43           	0.822
MS.335         	6.415          	0.787
MS.336         	6.405          	1.004
MS.337         	6.39           	0.908
MS.338         	6.38           	0.693
MS.339         	6.365          	0.659
MS.340         	6.355          	0.894
MS.341         	6.34           	0.603
MS.342         	6.325          	0.597
MS.343         	6.315          	0.674
MS.344         	6.3            	0.694
MS.345         	6.29           	0.659
MS.346         	6.275          	0.491
MS.347         	6.265          	0.629
MS.348         	6.25           	0.572
MS.349         	6.24           	0.505
MS.350         	6.225          	0.519
MS.351         	6.215          	0.407
MS.352         	6.2            	0.497
MS.353         	6.19           	0.497
MS.354         	6.175          	0.319
MS.355         	6.165          	0.452
MS.356         	6.155          	0.349
MS.357         	6.14           	0.511
MS.358         	6.13           	0.407
MS.359         	6.115          	0.34
MS.360         	6.105          	0.394
MS.361         	6.09           	0.288
MS.362         	6.08           	0.298
MS.363         	6.065          	0.305
MS.364         	6.055          	0.253
MS.365         	6.045          	0.34
MS.366         	6.03           	0.298
MS.367         	6.02           	0.258
MS.368         	6.005          	0.226
MS.369         	5.995          	0.279
MS.370         	5.985          	0.255
MS.371         	5.97           	0.25
MS.372         	5.96           	0.264
MS.373         	5.945          	0.278
MS.374         	5.935          	0.165
MS.375         	5.925          	0.273
MS.376         	5.91           	0.156
MS.377         	5.9            	0.105
MS.378         	5.89           	0.101
MS.379         	5.875          	0.122
MS.380         	5.865          	0.197
MS.381         	5.855          	0.214
MS.382         	5.84           	0.185
MS.383         	5.83           	0.092
MS.384         	5.82           	0.075
MS.385         	5.805          	0.131
MS.386         	5.795          	0.058
MS.387         	5.785          	0.104
MS.388         	5.77           	0.119
MS.389         	5.76           	0.101
MS.390         	5.75           	0.043
MS.391         	5.735          	0.031
MS.392         	5.725          	0.087
MS.393         	5.715          	0.043
MS.394         	5.7            	0.041
MS.395         	5.69           	0.047
MS.396         	5.68           	0.032
MS.397         	5.67           	0.017
MS.398         	5.655          	0.005
MS.399         	5.645          	0.023
MS.400         	5.635          	0.055
MS.401         	5.625          	-0.009
MS.402         	5.61           	0.046
MS.403         	5.6            	0.026
MS.404         	5.59           	0.012
MS.405         	5.58           	0.021
MS.406         	5.565          	0.05
MS.407         	5.555          	0.02
MS.408         	5.545          	0.002
MS.409         	5.535          	0.023
MS.410         	5.525          	0.009
MS.411         	5.51           	-0.009
MS.412         	5.5            	0.008
MS.413         	5.49           	-0.026
MS.414         	5.48           	0.003
MS.415         	5.47           	-0.009
MS.416         	5.455          	-0.015
MS.417         	5.445          	-0.002
MS.418         	5.435          	-0.02
MS.419         	5.425          	-0.032
MS.420         	5.415          	-0.029
MS.421         	5.405          	-0.035
MS.422         	5.39           	-0.012
MS.423         	5.38           	-0.037
MS.424         	5.37           	-0.038
MS.425         	5.36           	-0.027
MS.426         	5.35           	-0.041
MS.427         	5.34           	-0.049
MS.428         	5.33           	-0.043
MS.429         	5.315          	-0.053
MS.430         	5.305          	-0.072
MS.431         	5.295          	-0.035
MS.432         	5.285          	-0.046
MS.433         	5.275          	-0.046
MS.434         	5.265          	-0.058
MS.435         	5.255          	-0.053
MS.436         	5.245          	-0.067
MS.437         	5.235          	-0.067
MS.438         	5.22           	-0.067
MS.439         	5.21           	-0.066
MS.440         	5.2            	-0.063
MS.441         	5.19           	-0.066
MS.442         	5.18           	-0.073
MS.443         	5.17           	-0.073
MS.444         	5.16           	-0.06
MS.445         	5.15           	-0.07
MS.446         	5.14           	-0.067
MS.447         	5.13           	-0.052
MS.448         	5.12           	-0.072
MS.449         	5.11           	-0.061
MS.450         	5.1            	-0.055
MS.451         	5.09           	-0.055
MS.452         	5.08           	-0.055
MS.453         	5.07           	-0.07
MS.454         	5.06           	-0.073
MS.455         	5.05           	-0.064
MS.456         	5.035          	-0.07
MS.457         	5.025          	-0.066
MS.458         	5.015          	-0.06
MS.459         	5.005          	-0.067
MS.460         	4.995          	-0.058
MS.461         	4.985          	-0.072
MS.462         	4.975          	-0.069
MS.463         	4.965          	-0.063
MS.464         	4.96           	-0.07
MS.465         	4.95           	-0.066
MS.466         	4.94           	-0.058
MS.467         	4.93           	-0.067
MS.468         	4.92           	-0.069
MS.469         	4.91           	-0.07
MS.470         	4.9            	-0.07
MS.471         	4.89           	-0.061
MS.472         	4.88           	-0.063
MS.473         	4.87           	-0.067
MS.474         	4.86           	-0.063
MS.475         	4.85           	-0.064
MS.476         	4.84           	-0.058
MS.477         	4.83           	-0.064
MS.478         	4.82           	-0.058
MS.479         	4.81           	-0.064
MS.480         	4.8            	-0.058
MS.481         	4.79           	-0.061
MS.482         	4.78           	-0.055
MS.483         	4.775          	-0.067
MS.484         	4.765          	-0.07
MS.485         	4.755          	-0.066
MS.486         	4.745          	-0.053
MS.487         	4.735          	-0.052
MS.488         	4.725          	-0.052
MS.489         	4.715          	-0.055
MS.490         	4.705          	-0.058
MS.491         	4.695          	-0.056
MS.492         	4.69           	-0.06
MS.493         	4.68           	-0.061
MS.494         	4.67           	-0.058
MS.495         	4.66           	-0.069
MS.496         	4.65           	-0.072
MS.497         	4.64           	-0.063
DERIVED EXCITABILITY VARIABLES
