File:              	C:\Qtrac\Data\Daniel M Sørensen\MScan multicentre study\Data from centres\Copenhagen\Processed data\RHS01MED02.QZD
Name:              	DK.COP.NC.1.2
Protocol:          	MSCAN-R2
Date:              	5/10/20
Start time:        	14:10:27
Age:               	58
Sex:               	M
Temperature:       	39.0
S/R sites:         	APB
NC/disease:        	NC
Operator:          	CK
Comments:          	MScan2 CK
M-SCAN DATA (8.2-1.3m)
Scanpts: 145, 149, 717, 738
Stim. (mA)     	Amp. (mV)
MS.1           	26             	10.666
MS.2           	26             	10.628
MS.3           	26             	10.606
MS.4           	26             	10.573
MS.5           	26             	10.568
MS.6           	26             	10.59
MS.7           	26             	10.577
MS.8           	26             	10.617
MS.9           	26             	10.635
MS.10          	26             	10.681
MS.11          	26             	10.599
MS.12          	26             	10.678
MS.13          	26             	10.625
MS.14          	26             	10.664
MS.15          	26             	10.689
MS.16          	26             	10.733
MS.17          	26             	10.669
MS.18          	26             	10.678
MS.19          	26             	10.64
MS.20          	26             	10.663
MS.21          	26             	10.602
MS.22          	26             	10.616
MS.23          	26             	10.611
MS.24          	25.895         	10.608
MS.25          	25.845         	10.651
MS.26          	25.795         	10.638
MS.27          	25.74          	10.658
MS.28          	25.69          	10.641
MS.29          	25.64          	10.594
MS.30          	25.585         	10.629
MS.31          	25.535         	10.646
MS.32          	25.485         	10.649
MS.33          	25.435         	10.663
MS.34          	25.385         	10.738
MS.35          	25.335         	10.748
MS.36          	25.28          	10.712
MS.37          	25.23          	10.695
MS.38          	25.18          	10.744
MS.39          	25.13          	10.629
MS.40          	25.08          	10.582
MS.41          	25.03          	10.626
MS.42          	24.98          	10.712
MS.43          	24.93          	10.692
MS.44          	24.88          	10.695
MS.45          	24.83          	10.736
MS.46          	24.78          	10.672
MS.47          	24.73          	10.742
MS.48          	24.68          	10.756
MS.49          	24.635         	10.785
MS.50          	24.585         	10.858
MS.51          	24.535         	10.918
MS.52          	24.485         	10.864
MS.53          	24.435         	10.892
MS.54          	24.39          	10.818
MS.55          	24.34          	10.783
MS.56          	24.29          	10.732
MS.57          	24.24          	10.84
MS.58          	24.195         	10.8
MS.59          	24.145         	10.797
MS.60          	24.095         	10.797
MS.61          	24.05          	10.767
MS.62          	24             	10.884
MS.63          	23.955         	10.704
MS.64          	23.905         	10.841
MS.65          	23.855         	10.82
MS.66          	23.81          	10.823
MS.67          	23.76          	10.774
MS.68          	23.715         	10.649
MS.69          	23.665         	10.709
MS.70          	23.62          	10.678
MS.71          	23.575         	10.788
MS.72          	23.525         	10.809
MS.73          	23.48          	10.799
MS.74          	23.43          	10.779
MS.75          	23.385         	10.727
MS.76          	23.34          	10.684
MS.77          	23.29          	10.806
MS.78          	23.245         	10.764
MS.79          	23.2           	10.741
MS.80          	23.15          	10.835
MS.81          	23.105         	10.768
MS.82          	23.06          	10.727
MS.83          	23.015         	10.713
MS.84          	22.97          	10.733
MS.85          	22.92          	10.742
MS.86          	22.875         	10.741
MS.87          	22.83          	10.785
MS.88          	22.785         	10.797
MS.89          	22.74          	10.651
MS.90          	22.695         	10.617
MS.91          	22.65          	10.55
MS.92          	22.605         	10.539
MS.93          	22.56          	10.521
MS.94          	22.515         	10.535
MS.95          	22.47          	10.573
MS.96          	22.425         	10.548
MS.97          	22.38          	10.565
MS.98          	22.335         	10.573
MS.99          	22.29          	10.555
MS.100         	22.245         	10.559
MS.101         	22.2           	10.542
MS.102         	22.155         	10.594
MS.103         	22.11          	10.632
MS.104         	22.065         	10.617
MS.105         	22.025         	10.547
MS.106         	21.98          	10.556
MS.107         	21.935         	10.553
MS.108         	21.89          	10.614
MS.109         	21.85          	10.548
MS.110         	21.805         	10.545
MS.111         	21.76          	10.591
MS.112         	21.715         	10.591
MS.113         	21.675         	10.625
MS.114         	21.63          	10.582
MS.115         	21.585         	10.629
MS.116         	21.545         	10.654
MS.117         	21.5           	10.588
MS.118         	21.46          	10.666
MS.119         	21.415         	10.699
MS.120         	21.37          	10.794
MS.121         	21.33          	10.692
MS.122         	21.285         	10.728
MS.123         	21.245         	10.725
MS.124         	21.2           	10.713
MS.125         	21.16          	10.838
MS.126         	21.115         	10.76
MS.127         	21.075         	10.727
MS.128         	21.035         	10.727
MS.129         	20.99          	10.687
MS.130         	20.95          	10.736
MS.131         	20.905         	10.727
MS.132         	20.865         	10.759
MS.133         	20.825         	10.849
MS.134         	20.78          	10.854
MS.135         	20.74          	10.901
MS.136         	20.7           	10.915
MS.137         	20.66          	10.98
MS.138         	20.615         	10.921
MS.139         	20.575         	10.999
MS.140         	20.535         	10.924
MS.141         	20.495         	10.88
MS.142         	20.45          	10.944
MS.143         	20.41          	11.072
MS.144         	20.37          	11.012
MS.145         	20.33          	11.024
MS.146         	20.29          	11.101
MS.147         	20.25          	11.06
MS.148         	20.21          	11.089
MS.149         	20.17          	11.079
MS.150         	20.13          	11.066
MS.151         	20.085         	11.005
MS.152         	20.045         	10.878
MS.153         	20.005         	10.835
MS.154         	19.965         	10.811
MS.155         	19.925         	10.646
MS.156         	19.89          	10.611
MS.157         	19.85          	10.632
MS.158         	19.81          	10.602
MS.159         	19.77          	10.515
MS.160         	19.73          	10.617
MS.161         	19.69          	10.678
MS.162         	19.65          	10.637
MS.163         	19.61          	10.629
MS.164         	19.57          	10.516
MS.165         	19.535         	10.449
MS.166         	19.495         	10.42
MS.167         	19.455         	10.493
MS.168         	19.415         	10.413
MS.169         	19.375         	10.435
MS.170         	19.34          	10.437
MS.171         	19.3           	10.442
MS.172         	19.26          	10.507
MS.173         	19.225         	10.495
MS.174         	19.185         	10.497
MS.175         	19.145         	10.53
MS.176         	19.11          	10.509
MS.177         	19.07          	10.501
MS.178         	19.03          	10.425
MS.179         	18.995         	10.507
MS.180         	18.955         	10.503
MS.181         	18.92          	10.526
MS.182         	18.88          	10.5
MS.183         	18.84          	10.486
MS.184         	18.805         	10.445
MS.185         	18.765         	10.442
MS.186         	18.73          	10.384
MS.187         	18.69          	10.426
MS.188         	18.655         	10.371
MS.189         	18.615         	10.376
MS.190         	18.58          	10.428
MS.191         	18.545         	10.451
MS.192         	18.505         	10.42
MS.193         	18.47          	10.281
MS.194         	18.43          	10.429
MS.195         	18.395         	10.417
MS.196         	18.36          	10.39
MS.197         	18.32          	10.423
MS.198         	18.285         	10.312
MS.199         	18.25          	10.387
MS.200         	18.21          	10.269
MS.201         	18.175         	10.439
MS.202         	18.14          	10.28
MS.203         	18.105         	10.368
MS.204         	18.065         	10.458
MS.205         	18.03          	10.236
MS.206         	17.995         	10.353
MS.207         	17.96          	10.39
MS.208         	17.925         	10.297
MS.209         	17.885         	10.283
MS.210         	17.85          	10.257
MS.211         	17.815         	10.309
MS.212         	17.78          	10.434
MS.213         	17.745         	10.379
MS.214         	17.71          	10.307
MS.215         	17.675         	10.289
MS.216         	17.64          	10.388
MS.217         	17.605         	10.332
MS.218         	17.57          	10.446
MS.219         	17.535         	10.449
MS.220         	17.5           	10.266
MS.221         	17.465         	10.448
MS.222         	17.43          	10.458
MS.223         	17.395         	10.239
MS.224         	17.36          	10.318
MS.225         	17.325         	10.41
MS.226         	17.29          	10.316
MS.227         	17.255         	10.341
MS.228         	17.22          	10.428
MS.229         	17.185         	10.403
MS.230         	17.15          	10.501
MS.231         	17.115         	10.445
MS.232         	17.085         	10.469
MS.233         	17.05          	10.413
MS.234         	17.015         	10.397
MS.235         	16.98          	10.435
MS.236         	16.945         	10.518
MS.237         	16.915         	10.561
MS.238         	16.88          	10.431
MS.239         	16.845         	10.582
MS.240         	16.81          	10.51
MS.241         	16.78          	10.509
MS.242         	16.745         	10.442
MS.243         	16.71          	10.46
MS.244         	16.68          	10.513
MS.245         	16.645         	10.556
MS.246         	16.61          	10.587
MS.247         	16.58          	10.564
MS.248         	16.545         	10.551
MS.249         	16.51          	10.41
MS.250         	16.48          	10.461
MS.251         	16.445         	10.486
MS.252         	16.415         	10.342
MS.253         	16.38          	10.365
MS.254         	16.35          	10.402
MS.255         	16.315         	10.416
MS.256         	16.285         	10.144
MS.257         	16.25          	10.378
MS.258         	16.22          	10.489
MS.259         	16.185         	10.217
MS.260         	16.155         	10.28
MS.261         	16.12          	10.313
MS.262         	16.09          	10.303
MS.263         	16.055         	10.295
MS.264         	16.025         	10.429
MS.265         	15.99          	10.338
MS.266         	15.96          	10.423
MS.267         	15.93          	10.312
MS.268         	15.895         	10.11
MS.269         	15.865         	10.248
MS.270         	15.835         	10.248
MS.271         	15.8           	10.207
MS.272         	15.77          	9.885
MS.273         	15.74          	10.175
MS.274         	15.705         	10.19
MS.275         	15.675         	9.982
MS.276         	15.645         	10.239
MS.277         	15.615         	10.172
MS.278         	15.58          	10.121
MS.279         	15.55          	9.946
MS.280         	15.52          	9.808
MS.281         	15.49          	9.821
MS.282         	15.455         	9.897
MS.283         	15.425         	9.818
MS.284         	15.395         	10.08
MS.285         	15.365         	9.798
MS.286         	15.335         	9.875
MS.287         	15.305         	9.883
MS.288         	15.275         	9.863
MS.289         	15.245         	9.814
MS.290         	15.21          	9.843
MS.291         	15.18          	9.819
MS.292         	15.15          	9.663
MS.293         	15.12          	9.833
MS.294         	15.09          	9.836
MS.295         	15.06          	9.781
MS.296         	15.03          	9.644
MS.297         	15             	9.882
MS.298         	14.97          	9.232
MS.299         	14.94          	9.033
MS.300         	14.91          	9.454
MS.301         	14.88          	8.939
MS.302         	14.85          	9.254
MS.303         	14.82          	8.803
MS.304         	14.79          	9.491
MS.305         	14.765         	9.323
MS.306         	14.735         	9.288
MS.307         	14.705         	9.267
MS.308         	14.675         	8.752
MS.309         	14.645         	9.151
MS.310         	14.615         	9.149
MS.311         	14.585         	8.826
MS.312         	14.555         	8.929
MS.313         	14.53          	8.524
MS.314         	14.5           	8.78
MS.315         	14.47          	8.74
MS.316         	14.44          	8.679
MS.317         	14.41          	8.702
MS.318         	14.385         	8.669
MS.319         	14.355         	8.588
MS.320         	14.325         	8.815
MS.321         	14.3           	8.664
MS.322         	14.27          	8.606
MS.323         	14.24          	8.202
MS.324         	14.21          	8.163
MS.325         	14.185         	8.273
MS.326         	14.155         	8.246
MS.327         	14.125         	8.234
MS.328         	14.1           	8.218
MS.329         	14.07          	8.052
MS.330         	14.045         	8.195
MS.331         	14.015         	8.208
MS.332         	13.985         	8.057
MS.333         	13.96          	8.229
MS.334         	13.93          	7.669
MS.335         	13.905         	7.564
MS.336         	13.875         	7.942
MS.337         	13.845         	7.968
MS.338         	13.82          	8.069
MS.339         	13.79          	8.031
MS.340         	13.765         	7.423
MS.341         	13.735         	7.893
MS.342         	13.71          	7.817
MS.343         	13.68          	7.562
MS.344         	13.655         	7.431
MS.345         	13.63          	7.373
MS.346         	13.6           	7.317
MS.347         	13.575         	7.446
MS.348         	13.545         	7.484
MS.349         	13.52          	7.326
MS.350         	13.49          	7.375
MS.351         	13.465         	7.23
MS.352         	13.44          	7.32
MS.353         	13.41          	7.089
MS.354         	13.385         	7.445
MS.355         	13.36          	7.327
MS.356         	13.33          	7.292
MS.357         	13.305         	7.231
MS.358         	13.28          	7.181
MS.359         	13.25          	7.028
MS.360         	13.225         	7.164
MS.361         	13.2           	7.082
MS.362         	13.17          	7.135
MS.363         	13.145         	6.992
MS.364         	13.12          	6.851
MS.365         	13.095         	6.929
MS.366         	13.065         	6.712
MS.367         	13.04          	6.964
MS.368         	13.015         	7.045
MS.369         	12.99          	6.522
MS.370         	12.965         	6.596
MS.371         	12.935         	6.755
MS.372         	12.91          	6.332
MS.373         	12.885         	6.641
MS.374         	12.86          	6.627
MS.375         	12.835         	6.471
MS.376         	12.81          	6.551
MS.377         	12.785         	6.538
MS.378         	12.755         	6.511
MS.379         	12.73          	6.433
MS.380         	12.705         	6.041
MS.381         	12.68          	6.078
MS.382         	12.655         	6.189
MS.383         	12.63          	6.384
MS.384         	12.605         	5.963
MS.385         	12.58          	6.305
MS.386         	12.555         	6.294
MS.387         	12.53          	5.702
MS.388         	12.505         	5.858
MS.389         	12.48          	5.838
MS.390         	12.455         	5.933
MS.391         	12.43          	5.791
MS.392         	12.405         	5.478
MS.393         	12.38          	5.325
MS.394         	12.355         	5.357
MS.395         	12.33          	5.24
MS.396         	12.305         	5.07
MS.397         	12.28          	4.999
MS.398         	12.255         	4.822
MS.399         	12.23          	4.865
MS.400         	12.21          	5.292
MS.401         	12.185         	4.785
MS.402         	12.16          	4.854
MS.403         	12.135         	4.726
MS.404         	12.11          	4.874
MS.405         	12.085         	4.836
MS.406         	12.06          	4.62
MS.407         	12.04          	4.631
MS.408         	12.015         	4.733
MS.409         	11.99          	4.611
MS.410         	11.965         	4.381
MS.411         	11.94          	4.349
MS.412         	11.92          	4.343
MS.413         	11.895         	4.333
MS.414         	11.87          	4.359
MS.415         	11.845         	4.074
MS.416         	11.825         	4.03
MS.417         	11.8           	4.291
MS.418         	11.775         	4.074
MS.419         	11.755         	4.047
MS.420         	11.73          	4.106
MS.421         	11.705         	4.033
MS.422         	11.685         	4.149
MS.423         	11.66          	3.885
MS.424         	11.635         	4.068
MS.425         	11.615         	3.955
MS.426         	11.59          	3.871
MS.427         	11.565         	3.943
MS.428         	11.545         	3.941
MS.429         	11.52          	3.709
MS.430         	11.495         	3.751
MS.431         	11.475         	3.833
MS.432         	11.45          	3.687
MS.433         	11.43          	3.38
MS.434         	11.405         	3.645
MS.435         	11.385         	3.471
MS.436         	11.36          	3.265
MS.437         	11.335         	3.239
MS.438         	11.315         	3.101
MS.439         	11.29          	2.927
MS.440         	11.27          	2.972
MS.441         	11.245         	3.09
MS.442         	11.225         	3.343
MS.443         	11.2           	3.256
MS.444         	11.18          	2.922
MS.445         	11.155         	2.98
MS.446         	11.135         	3.004
MS.447         	11.115         	2.831
MS.448         	11.09          	3.094
MS.449         	11.07          	2.754
MS.450         	11.045         	2.905
MS.451         	11.025         	2.779
MS.452         	11             	2.763
MS.453         	10.98          	2.791
MS.454         	10.96          	2.676
MS.455         	10.935         	2.901
MS.456         	10.915         	2.695
MS.457         	10.895         	2.477
MS.458         	10.87          	2.512
MS.459         	10.85          	2.589
MS.460         	10.83          	2.521
MS.461         	10.805         	2.472
MS.462         	10.785         	2.448
MS.463         	10.765         	2.379
MS.464         	10.74          	2.243
MS.465         	10.72          	2.307
MS.466         	10.7           	2.332
MS.467         	10.675         	2.052
MS.468         	10.655         	2.222
MS.469         	10.635         	2.087
MS.470         	10.615         	2.145
MS.471         	10.59          	1.875
MS.472         	10.57          	1.97
MS.473         	10.55          	1.918
MS.474         	10.53          	1.715
MS.475         	10.51          	1.878
MS.476         	10.485         	1.878
MS.477         	10.465         	1.842
MS.478         	10.445         	1.543
MS.479         	10.425         	1.813
MS.480         	10.405         	1.75
MS.481         	10.38          	1.451
MS.482         	10.36          	2.02
MS.483         	10.34          	2.155
MS.484         	10.32          	2.072
MS.485         	10.3           	1.967
MS.486         	10.28          	1.883
MS.487         	10.26          	1.816
MS.488         	10.24          	1.935
MS.489         	10.215         	1.756
MS.490         	10.195         	1.778
MS.491         	10.175         	1.791
MS.492         	10.155         	1.698
MS.493         	10.135         	1.683
