File:              	C:\Qtrac\Data\CKMC01029A.QZD
Name:              	DK.COP.NC.4.1
Protocol:          	MSCAN-R2
Date:              	29/10/20
Start time:        	09:58:37
Age:               	63
Sex:               	F
Temperature:       	38.4
S/R sites:         	RMedian Wr-APB
NC/disease:        	NC
Operator:          	CK
Comments:
M-SCAN DATA (6-1.2m)
Scanpts: 100, 104, 509, 529
Stim. (mA)     	Amp. (mV)
MS.1           	12             	7.373
MS.2           	12             	7.372
MS.3           	12             	7.38
MS.4           	12             	7.374
MS.5           	12             	7.383
MS.6           	12             	7.386
MS.7           	12             	7.377
MS.8           	12             	7.374
MS.9           	12             	7.369
MS.10          	12             	7.382
MS.11          	12             	7.377
MS.12          	12             	7.393
MS.13          	12             	7.394
MS.14          	12             	7.399
MS.15          	12             	7.407
MS.16          	12             	7.41
MS.17          	12             	7.39
MS.18          	12             	7.397
MS.19          	12             	7.408
MS.20          	12             	7.419
MS.21          	12             	7.407
MS.22          	12             	7.408
MS.23          	12             	7.419
MS.24          	11.95          	7.416
MS.25          	11.93          	7.41
MS.26          	11.905         	7.412
MS.27          	11.88          	7.411
MS.28          	11.855         	7.403
MS.29          	11.835         	7.414
MS.30          	11.81          	7.405
MS.31          	11.785         	7.424
MS.32          	11.76          	7.427
MS.33          	11.74          	7.42
MS.34          	11.715         	7.398
MS.35          	11.69          	7.429
MS.36          	11.67          	7.421
MS.37          	11.645         	7.412
MS.38          	11.62          	7.413
MS.39          	11.6           	7.415
MS.40          	11.575         	7.432
MS.41          	11.555         	7.401
MS.42          	11.53          	7.413
MS.43          	11.505         	7.418
MS.44          	11.485         	7.41
MS.45          	11.46          	7.397
MS.46          	11.44          	7.408
MS.47          	11.415         	7.42
MS.48          	11.39          	7.382
MS.49          	11.37          	7.407
MS.50          	11.345         	7.387
MS.51          	11.325         	7.404
MS.52          	11.3           	7.42
MS.53          	11.28          	7.399
MS.54          	11.255         	7.386
MS.55          	11.235         	7.391
MS.56          	11.21          	7.392
MS.57          	11.19          	7.408
MS.58          	11.165         	7.375
MS.59          	11.145         	7.381
MS.60          	11.12          	7.388
MS.61          	11.1           	7.388
MS.62          	11.075         	7.379
MS.63          	11.055         	7.393
MS.64          	11.035         	7.381
MS.65          	11.01          	7.368
MS.66          	10.99          	7.383
MS.67          	10.965         	7.38
MS.68          	10.945         	7.378
MS.69          	10.925         	7.393
MS.70          	10.9           	7.402
MS.71          	10.88          	7.38
MS.72          	10.86          	7.382
MS.73          	10.835         	7.381
MS.74          	10.815         	7.38
MS.75          	10.795         	7.377
MS.76          	10.77          	7.379
MS.77          	10.75          	7.377
MS.78          	10.73          	7.38
MS.79          	10.705         	7.385
MS.80          	10.685         	7.411
MS.81          	10.665         	7.4
MS.82          	10.645         	7.374
MS.83          	10.62          	7.411
MS.84          	10.6           	7.403
MS.85          	10.58          	7.402
MS.86          	10.56          	7.4
MS.87          	10.535         	7.417
MS.88          	10.515         	7.403
MS.89          	10.495         	7.386
MS.90          	10.475         	7.402
MS.91          	10.455         	7.392
MS.92          	10.43          	7.415
MS.93          	10.41          	7.393
MS.94          	10.39          	7.41
MS.95          	10.37          	7.385
MS.96          	10.35          	7.403
MS.97          	10.33          	7.397
MS.98          	10.31          	7.388
MS.99          	10.285         	7.398
MS.100         	10.265         	7.407
MS.101         	10.245         	7.386
MS.102         	10.225         	7.407
MS.103         	10.205         	7.404
MS.104         	10.185         	7.394
MS.105         	10.165         	7.402
MS.106         	10.145         	7.392
MS.107         	10.125         	7.399
MS.108         	10.105         	7.399
MS.109         	10.085         	7.385
MS.110         	10.065         	7.395
MS.111         	10.045         	7.405
MS.112         	10.025         	7.39
MS.113         	10.005         	7.377
MS.114         	9.985          	7.394
MS.115         	9.965          	7.399
MS.116         	9.945          	7.403
MS.117         	9.925          	7.399
MS.118         	9.905          	7.388
MS.119         	9.885          	7.407
MS.120         	9.865          	7.41
MS.121         	9.845          	7.403
MS.122         	9.825          	7.402
MS.123         	9.805          	7.399
MS.124         	9.785          	7.417
MS.125         	9.765          	7.418
MS.126         	9.745          	7.388
MS.127         	9.725          	7.12
MS.128         	9.71           	7.418
MS.129         	9.69           	7.409
MS.130         	9.67           	7.413
MS.131         	9.65           	7.433
MS.132         	9.63           	7.424
MS.133         	9.61           	7.132
MS.134         	9.59           	7.446
MS.135         	9.575          	7.16
MS.136         	9.555          	7.19
MS.137         	9.535          	7.169
MS.138         	9.515          	7.393
MS.139         	9.495          	7.192
MS.140         	9.475          	7.452
MS.141         	9.46           	7.477
MS.142         	9.44           	7.182
MS.143         	9.42           	7.184
MS.144         	9.4            	7.148
MS.145         	9.385          	7.136
MS.146         	9.365          	7.145
MS.147         	9.345          	7.13
MS.148         	9.325          	7.162
MS.149         	9.31           	7.136
MS.150         	9.29           	7.177
MS.151         	9.27           	7.173
MS.152         	9.255          	7.176
MS.153         	9.235          	7.184
MS.154         	9.215          	7.075
MS.155         	9.195          	7.052
MS.156         	9.18           	7.068
MS.157         	9.16           	7.195
MS.158         	9.14           	7.055
MS.159         	9.125          	7.046
MS.160         	9.105          	7.183
MS.161         	9.09           	7.162
MS.162         	9.07           	7.036
MS.163         	9.05           	7.026
MS.164         	9.035          	7.066
MS.165         	9.015          	7.049
MS.166         	8.995          	7.051
MS.167         	8.98           	7.131
MS.168         	8.96           	7.041
MS.169         	8.945          	7.073
MS.170         	8.925          	7.064
MS.171         	8.91           	7.085
MS.172         	8.89           	6.885
MS.173         	8.87           	7.049
MS.174         	8.855          	7.083
MS.175         	8.835          	7.065
MS.176         	8.82           	7.059
MS.177         	8.8            	7.024
MS.178         	8.785          	7.059
MS.179         	8.765          	7.002
MS.180         	8.75           	6.863
MS.181         	8.73           	6.842
MS.182         	8.715          	7.006
MS.183         	8.695          	7.021
MS.184         	8.68           	7.039
MS.185         	8.66           	6.646
MS.186         	8.645          	6.844
MS.187         	8.625          	6.824
MS.188         	8.61           	6.779
MS.189         	8.595          	6.96
MS.190         	8.575          	6.78
MS.191         	8.56           	6.823
MS.192         	8.54           	6.821
MS.193         	8.525          	6.805
MS.194         	8.505          	6.611
MS.195         	8.49           	6.793
MS.196         	8.475          	6.63
MS.197         	8.455          	6.528
MS.198         	8.44           	6.512
MS.199         	8.42           	6.575
MS.200         	8.405          	6.478
MS.201         	8.39           	6.441
MS.202         	8.37           	6.473
MS.203         	8.355          	6.394
MS.204         	8.34           	6.383
MS.205         	8.32           	6.411
MS.206         	8.305          	6.517
MS.207         	8.29           	6.251
MS.208         	8.27           	6.415
MS.209         	8.255          	6.237
MS.210         	8.24           	6.287
MS.211         	8.225          	6.227
MS.212         	8.205          	6.231
MS.213         	8.19           	6.411
MS.214         	8.175          	6.22
MS.215         	8.155          	6.246
MS.216         	8.14           	6.243
MS.217         	8.125          	6.258
MS.218         	8.11           	6.168
MS.219         	8.09           	6.196
MS.220         	8.075          	6.146
MS.221         	8.06           	6.168
MS.222         	8.045          	6.187
MS.223         	8.03           	6.164
MS.224         	8.01           	6.056
MS.225         	7.995          	6.108
MS.226         	7.98           	6.228
MS.227         	7.965          	6.176
MS.228         	7.95           	6.17
MS.229         	7.93           	6.058
MS.230         	7.915          	6.082
MS.231         	7.9            	6.051
MS.232         	7.885          	6.102
MS.233         	7.87           	6.093
MS.234         	7.855          	5.963
MS.235         	7.835          	5.975
MS.236         	7.82           	5.956
MS.237         	7.805          	5.883
MS.238         	7.79           	5.927
MS.239         	7.775          	6.053
MS.240         	7.76           	5.905
MS.241         	7.745          	5.919
MS.242         	7.73           	5.784
MS.243         	7.715          	5.882
MS.244         	7.7            	5.89
MS.245         	7.68           	5.744
MS.246         	7.665          	5.79
MS.247         	7.65           	5.924
MS.248         	7.635          	5.762
MS.249         	7.62           	5.77
MS.250         	7.605          	5.748
MS.251         	7.59           	5.757
MS.252         	7.575          	5.703
MS.253         	7.56           	5.476
MS.254         	7.545          	5.527
MS.255         	7.53           	5.643
MS.256         	7.515          	5.54
MS.257         	7.5            	5.523
MS.258         	7.485          	5.596
MS.259         	7.47           	5.465
MS.260         	7.455          	5.57
MS.261         	7.44           	5.312
MS.262         	7.425          	5.505
MS.263         	7.41           	5.594
MS.264         	7.395          	5.474
MS.265         	7.38           	5.457
MS.266         	7.365          	5.472
MS.267         	7.35           	5.37
MS.268         	7.335          	5.431
MS.269         	7.32           	5.336
MS.270         	7.31           	5.323
MS.271         	7.295          	5.297
MS.272         	7.28           	5.269
MS.273         	7.265          	5.358
MS.274         	7.25           	5.241
MS.275         	7.235          	5.306
MS.276         	7.22           	5.307
MS.277         	7.205          	5.164
MS.278         	7.19           	5.271
MS.279         	7.175          	5.117
MS.280         	7.165          	5.175
MS.281         	7.15           	5.255
MS.282         	7.135          	5.015
MS.283         	7.12           	5.016
MS.284         	7.105          	5.031
MS.285         	7.09           	5.25
MS.286         	7.075          	5.156
MS.287         	7.065          	4.823
MS.288         	7.05           	5.139
MS.289         	7.035          	4.855
MS.290         	7.02           	4.818
MS.291         	7.005          	4.825
MS.292         	6.995          	4.89
MS.293         	6.98           	4.789
MS.294         	6.965          	4.894
MS.295         	6.95           	4.713
MS.296         	6.935          	4.629
MS.297         	6.925          	4.713
MS.298         	6.91           	4.788
MS.299         	6.895          	4.672
MS.300         	6.88           	4.63
MS.301         	6.87           	4.568
MS.302         	6.855          	4.529
MS.303         	6.84           	4.574
MS.304         	6.825          	4.501
MS.305         	6.815          	4.299
MS.306         	6.8            	4.266
MS.307         	6.785          	4.426
MS.308         	6.775          	4.243
MS.309         	6.76           	4.207
MS.310         	6.745          	4.125
MS.311         	6.73           	4.341
MS.312         	6.72           	4.352
MS.313         	6.705          	4.188
MS.314         	6.69           	4.17
MS.315         	6.68           	3.874
MS.316         	6.665          	3.92
MS.317         	6.65           	4.032
MS.318         	6.64           	3.779
MS.319         	6.625          	3.858
MS.320         	6.61           	3.966
MS.321         	6.6            	3.613
MS.322         	6.585          	3.645
MS.323         	6.575          	3.522
MS.324         	6.56           	3.621
MS.325         	6.545          	3.495
MS.326         	6.535          	3.185
MS.327         	6.52           	3.318
MS.328         	6.505          	3.258
MS.329         	6.495          	3.372
MS.330         	6.48           	3.407
MS.331         	6.47           	3.067
MS.332         	6.455          	3.022
MS.333         	6.44           	2.714
MS.334         	6.43           	2.794
MS.335         	6.415          	2.947
MS.336         	6.405          	2.781
MS.337         	6.39           	2.875
MS.338         	6.38           	2.733
MS.339         	6.365          	2.667
MS.340         	6.355          	2.637
MS.341         	6.34           	2.457
MS.342         	6.325          	2.543
MS.343         	6.315          	2.423
MS.344         	6.3            	2.36
MS.345         	6.29           	2.235
MS.346         	6.275          	2.346
MS.347         	6.265          	2.379
MS.348         	6.25           	1.956
MS.349         	6.24           	2.012
MS.350         	6.225          	2.155
MS.351         	6.215          	1.776
MS.352         	6.2            	1.838
MS.353         	6.19           	1.752
MS.354         	6.175          	1.755
MS.355         	6.165          	1.807
MS.356         	6.155          	1.638
MS.357         	6.14           	1.993
MS.358         	6.13           	1.699
MS.359         	6.115          	1.668
MS.360         	6.105          	1.619
MS.361         	6.09           	1.633
MS.362         	6.08           	1.566
MS.363         	6.065          	1.629
MS.364         	6.055          	1.592
MS.365         	6.045          	1.425
MS.366         	6.03           	1.352
MS.367         	6.02           	1.243
MS.368         	6.005          	1.216
MS.369         	5.995          	1.371
MS.370         	5.985          	1.312
MS.371         	5.97           	1.164
MS.372         	5.96           	1.262
MS.373         	5.945          	1.132
MS.374         	5.935          	1.302
MS.375         	5.925          	1.389
MS.376         	5.91           	1.097
MS.377         	5.9            	1.151
MS.378         	5.89           	1.061
MS.379         	5.875          	1.021
MS.380         	5.865          	0.983
MS.381         	5.855          	0.953
MS.382         	5.84           	1.005
MS.383         	5.83           	0.988
MS.384         	5.82           	0.974
MS.385         	5.805          	0.856
MS.386         	5.795          	0.861
MS.387         	5.785          	0.927
MS.388         	5.77           	0.851
MS.389         	5.76           	0.905
MS.390         	5.75           	0.792
MS.391         	5.735          	0.768
MS.392         	5.725          	0.803
MS.393         	5.715          	0.681
MS.394         	5.7            	0.809
MS.395         	5.69           	0.782
MS.396         	5.68           	0.785
MS.397         	5.67           	0.836
MS.398         	5.655          	0.743
MS.399         	5.645          	0.704
MS.400         	5.635          	0.692
MS.401         	5.625          	0.636
MS.402         	5.61           	0.665
MS.403         	5.6            	0.463
MS.404         	5.59           	0.641
MS.405         	5.58           	0.519
MS.406         	5.565          	0.488
MS.407         	5.555          	0.611
MS.408         	5.545          	0.635
MS.409         	5.535          	0.58
MS.410         	5.525          	0.62
MS.411         	5.51           	0.552
MS.412         	5.5            	0.448
MS.413         	5.49           	0.487
MS.414         	5.48           	0.422
MS.415         	5.47           	0.402
MS.416         	5.455          	0.309
MS.417         	5.445          	0.397
MS.418         	5.435          	0.526
MS.419         	5.425          	0.469
MS.420         	5.415          	0.446
MS.421         	5.405          	0.306
MS.422         	5.39           	0.226
MS.423         	5.38           	0.151
MS.424         	5.37           	0.14
MS.425         	5.36           	0.274
MS.426         	5.35           	0.289
MS.427         	5.34           	0.184
MS.428         	5.33           	0.225
MS.429         	5.315          	0.107
MS.430         	5.305          	0.226
MS.431         	5.295          	0.14
MS.432         	5.285          	0.178
MS.433         	5.275          	0.129
MS.434         	5.265          	0.071
MS.435         	5.255          	0.049
MS.436         	5.245          	0.157
MS.437         	5.235          	0.065
MS.438         	5.22           	0.065
MS.439         	5.21           	0.109
MS.440         	5.2            	0.051
MS.441         	5.19           	0.045
MS.442         	5.18           	0.052
MS.443         	5.17           	0.087
MS.444         	5.16           	0.109
MS.445         	5.15           	0.053
MS.446         	5.14           	0.035
MS.447         	5.13           	0.058
MS.448         	5.12           	0.037
MS.449         	5.11           	0.035
MS.450         	5.1            	0.04
MS.451         	5.09           	0.025
MS.452         	5.08           	0.048
MS.453         	5.07           	0.025
MS.454         	5.06           	0.004
MS.455         	5.05           	0.009
MS.456         	5.035          	0.027
MS.457         	5.025          	0.046
MS.458         	5.015          	0.02
MS.459         	5.005          	-0.002
MS.460         	4.995          	-0.017
MS.461         	4.985          	-0.012
MS.462         	4.975          	0.03
MS.463         	4.965          	-0.009
MS.464         	4.96           	-0.018
MS.465         	4.95           	-0.02
MS.466         	4.94           	-0.015
MS.467         	4.93           	-0.015
MS.468         	4.92           	-0.017
MS.469         	4.91           	-0.018
MS.470         	4.9            	-0.02
MS.471         	4.89           	-0.013
MS.472         	4.88           	-0.018
MS.473         	4.87           	-0.021
MS.474         	4.86           	0.002
MS.475         	4.85           	-0.014
MS.476         	4.84           	-0.016
MS.477         	4.83           	-0.019
MS.478         	4.82           	-0.015
MS.479         	4.81           	-0.016
MS.480         	4.8            	-0.013
MS.481         	4.79           	-0.019
MS.482         	4.78           	-0.016
MS.483         	4.775          	-0.018
MS.484         	4.765          	-0.018
MS.485         	4.755          	-0.018
MS.486         	4.745          	-0.018
MS.487         	4.735          	-0.021
MS.488         	4.725          	-0.02
MS.489         	4.715          	-0.017
MS.490         	4.705          	-0.02
MS.491         	4.695          	-0.018
MS.492         	4.69           	-0.022
MS.493         	4.68           	-0.014
MS.494         	4.67           	-0.026
MS.495         	4.66           	-0.018
MS.496         	4.65           	-0.022
MS.497         	4.64           	-0.019
MS.498         	4.63           	-0.02
MS.499         	4.62           	-0.016
MS.500         	4.615          	-0.016
MS.501         	4.605          	-0.018
MS.502         	4.595          	-0.023
