File:              	C:\Qtrac\Data\CKMC01123B.QZD
Name:              	DK.COP.NC.10.2
Protocol:          	MSCAN-R2
Date:              	23/11/20
Start time:        	14:05:11
Age:               	24
Sex:               	M
Temperature:       	38.6
S/R sites:         	LMedian Wr-APB
NC/disease:        	NC
Operator:          	CK
Comments:          	CG
RECOVERY CYCLE DATA (0.0-0.0m)
Interval (ms)       	  Threshold change (%)
M-SCAN DATA (5.6-0.9m)
Scanpts: 66, 75, 492, 512
Stim. (mA)     	Amp. (mV)
MS.1           	12             	8.986
MS.2           	12             	8.989
MS.3           	12             	9.01
MS.4           	12             	8.967
MS.5           	12             	8.99
MS.6           	12             	8.976
MS.7           	12             	8.955
MS.8           	12             	8.977
MS.9           	12             	8.958
MS.10          	12             	8.98
MS.11          	12             	8.983
MS.12          	12             	8.951
MS.13          	12             	8.972
MS.14          	12             	8.965
MS.15          	12             	8.961
MS.16          	12             	8.979
MS.17          	12             	8.959
MS.18          	12             	9.003
MS.19          	12             	8.986
MS.20          	12             	8.963
MS.21          	12             	8.995
MS.22          	12             	8.991
MS.23          	12             	8.985
MS.24          	11.95          	9.012
MS.25          	11.93          	9.005
MS.26          	11.905         	8.965
MS.27          	11.88          	8.981
MS.28          	11.855         	8.973
MS.29          	11.835         	8.97
MS.30          	11.81          	8.992
MS.31          	11.785         	8.973
MS.32          	11.76          	8.982
MS.33          	11.74          	8.99
MS.34          	11.715         	8.978
MS.35          	11.69          	8.989
MS.36          	11.67          	8.978
MS.37          	11.645         	8.976
MS.38          	11.62          	8.995
MS.39          	11.6           	8.977
MS.40          	11.575         	9.005
MS.41          	11.555         	8.998
MS.42          	11.53          	8.984
MS.43          	11.505         	9.006
MS.44          	11.485         	8.985
MS.45          	11.46          	9.003
MS.46          	11.44          	9.005
MS.47          	11.415         	8.978
MS.48          	11.39          	9.016
MS.49          	11.37          	8.987
MS.50          	11.345         	9.003
MS.51          	11.325         	9.008
MS.52          	11.3           	8.99
MS.53          	11.28          	9.028
MS.54          	11.255         	8.994
MS.55          	11.235         	9.014
MS.56          	11.21          	8.997
MS.57          	11.19          	9.005
MS.58          	11.165         	9.028
MS.59          	11.145         	9.02
MS.60          	11.12          	8.998
MS.61          	11.1           	9.031
MS.62          	11.075         	9.02
MS.63          	11.055         	9.03
MS.64          	11.035         	9.027
MS.65          	11.01          	9.017
MS.66          	10.99          	9.049
MS.67          	10.965         	9.064
MS.68          	10.945         	9.064
MS.69          	10.925         	9.039
MS.70          	10.9           	9.034
MS.71          	10.88          	9.046
MS.72          	10.86          	9.042
MS.73          	10.835         	9.05
MS.74          	10.815         	9.034
MS.75          	10.795         	9.023
MS.76          	10.77          	9.046
MS.77          	10.75          	9.039
MS.78          	10.73          	9.023
MS.79          	10.705         	9.048
MS.80          	10.685         	9.015
MS.81          	10.665         	9.031
MS.82          	10.645         	9.012
MS.83          	10.62          	8.987
MS.84          	10.6           	9.006
MS.85          	10.58          	9.008
MS.86          	10.56          	8.992
MS.87          	10.535         	8.997
MS.88          	10.515         	8.948
MS.89          	10.495         	8.992
MS.90          	10.475         	9.028
MS.91          	10.455         	9.022
MS.92          	10.43          	8.995
MS.93          	10.41          	9.036
MS.94          	10.39          	8.976
MS.95          	10.37          	9.034
MS.96          	10.35          	9.03
MS.97          	10.33          	9.039
MS.98          	10.31          	9.018
MS.99          	10.285         	8.978
MS.100         	10.265         	9.037
MS.101         	10.245         	8.965
MS.102         	10.225         	8.994
MS.103         	10.205         	8.974
MS.104         	10.185         	9.009
MS.105         	10.165         	8.983
MS.106         	10.145         	8.962
MS.107         	10.125         	9
MS.108         	10.105         	8.992
MS.109         	10.085         	9.055
MS.110         	10.065         	8.976
MS.111         	10.045         	8.97
MS.112         	10.025         	8.931
MS.113         	10.005         	8.972
MS.114         	9.985          	8.984
MS.115         	9.965          	8.968
MS.116         	9.945          	8.991
MS.117         	9.925          	8.947
MS.118         	9.905          	8.962
MS.119         	9.885          	8.99
MS.120         	9.865          	8.99
MS.121         	9.845          	9.011
MS.122         	9.825          	8.965
MS.123         	9.805          	9.027
MS.124         	9.785          	9
MS.125         	9.765          	8.984
MS.126         	9.745          	9.004
MS.127         	9.725          	8.998
MS.128         	9.71           	8.999
MS.129         	9.69           	8.97
MS.130         	9.67           	8.989
MS.131         	9.65           	8.981
MS.132         	9.63           	8.99
MS.133         	9.61           	8.981
MS.134         	9.59           	8.972
MS.135         	9.575          	8.956
MS.136         	9.555          	8.975
MS.137         	9.535          	8.942
MS.138         	9.515          	8.965
MS.139         	9.495          	8.943
MS.140         	9.475          	8.936
MS.141         	9.46           	8.972
MS.142         	9.44           	8.665
MS.143         	9.42           	8.987
MS.144         	9.4            	8.753
MS.145         	9.385          	8.96
MS.146         	9.365          	8.749
MS.147         	9.345          	8.959
MS.148         	9.325          	8.969
MS.149         	9.31           	8.656
MS.150         	9.29           	8.745
MS.151         	9.27           	8.923
MS.152         	9.255          	8.992
MS.153         	9.235          	8.71
MS.154         	9.215          	8.738
MS.155         	9.195          	8.663
MS.156         	9.18           	8.958
MS.157         	9.16           	9.005
MS.158         	9.14           	8.721
MS.159         	9.125          	8.763
MS.160         	9.105          	8.701
MS.161         	9.09           	8.666
MS.162         	9.07           	8.755
MS.163         	9.05           	8.904
MS.164         	9.035          	8.672
MS.165         	9.015          	8.478
MS.166         	8.995          	8.649
MS.167         	8.98           	8.506
MS.168         	8.96           	8.677
MS.169         	8.945          	8.408
MS.170         	8.925          	8.451
MS.171         	8.91           	8.678
MS.172         	8.89           	8.439
MS.173         	8.87           	8.385
MS.174         	8.855          	8.457
MS.175         	8.835          	8.453
MS.176         	8.82           	8.431
MS.177         	8.8            	8.381
MS.178         	8.785          	8.376
MS.179         	8.765          	8.418
MS.180         	8.75           	8.495
MS.181         	8.73           	8.458
MS.182         	8.715          	8.423
MS.183         	8.695          	8.456
MS.184         	8.68           	8.429
MS.185         	8.66           	8.349
MS.186         	8.645          	8.446
MS.187         	8.625          	8.426
MS.188         	8.61           	8.303
MS.189         	8.595          	8.384
MS.190         	8.575          	8.322
MS.191         	8.56           	8.318
MS.192         	8.54           	8.439
MS.193         	8.525          	8.328
MS.194         	8.505          	8.209
MS.195         	8.49           	8.281
MS.196         	8.475          	8.307
MS.197         	8.455          	8.233
MS.198         	8.44           	8.257
MS.199         	8.42           	8.224
MS.200         	8.405          	8.293
MS.201         	8.39           	8.239
MS.202         	8.37           	8.301
MS.203         	8.355          	8.038
MS.204         	8.34           	8.027
MS.205         	8.32           	8.131
MS.206         	8.305          	8.27
MS.207         	8.29           	8.079
MS.208         	8.27           	8.013
MS.209         	8.255          	8.016
MS.210         	8.24           	8.01
MS.211         	8.225          	8.002
MS.212         	8.205          	8.038
MS.213         	8.19           	7.979
MS.214         	8.175          	7.982
MS.215         	8.155          	7.803
MS.216         	8.14           	8.009
MS.217         	8.125          	7.934
MS.218         	8.11           	7.893
MS.219         	8.09           	8.004
MS.220         	8.075          	7.596
MS.221         	8.06           	7.703
MS.222         	8.045          	7.548
MS.223         	8.03           	7.78
MS.224         	8.01           	7.606
MS.225         	7.995          	7.707
MS.226         	7.98           	7.752
MS.227         	7.965          	7.946
MS.228         	7.95           	7.493
MS.229         	7.93           	7.686
MS.230         	7.915          	7.128
MS.231         	7.9            	7.478
MS.232         	7.885          	7.11
MS.233         	7.87           	7.139
MS.234         	7.855          	7.062
MS.235         	7.835          	6.793
MS.236         	7.82           	6.95
MS.237         	7.805          	7.378
MS.238         	7.79           	6.934
MS.239         	7.775          	6.704
MS.240         	7.76           	7.224
MS.241         	7.745          	6.506
MS.242         	7.73           	6.587
MS.243         	7.715          	6.462
MS.244         	7.7            	6.42
MS.245         	7.68           	6.056
MS.246         	7.665          	6.534
MS.247         	7.65           	6.371
MS.248         	7.635          	6.354
MS.249         	7.62           	6.382
MS.250         	7.605          	6.31
MS.251         	7.59           	5.99
MS.252         	7.575          	5.734
MS.253         	7.56           	5.551
MS.254         	7.545          	5.699
MS.255         	7.53           	5.898
MS.256         	7.515          	5.759
MS.257         	7.5            	5.457
MS.258         	7.485          	5.858
MS.259         	7.47           	5.54
MS.260         	7.455          	5.621
MS.261         	7.44           	5.408
MS.262         	7.425          	5.435
MS.263         	7.41           	5.023
MS.264         	7.395          	5.223
MS.265         	7.38           	5.438
MS.266         	7.365          	5.466
MS.267         	7.35           	5.121
MS.268         	7.335          	5.089
MS.269         	7.32           	4.957
MS.270         	7.31           	4.645
MS.271         	7.295          	5.012
MS.272         	7.28           	4.587
MS.273         	7.265          	4.335
MS.274         	7.25           	4.783
MS.275         	7.235          	4.502
MS.276         	7.22           	4.113
MS.277         	7.205          	4.307
MS.278         	7.19           	4.374
MS.279         	7.175          	4.006
MS.280         	7.165          	4.423
MS.281         	7.15           	3.773
MS.282         	7.135          	3.916
MS.283         	7.12           	3.655
MS.284         	7.105          	3.614
MS.285         	7.09           	3.652
MS.286         	7.075          	3.538
MS.287         	7.065          	3.406
MS.288         	7.05           	3.347
MS.289         	7.035          	3.566
MS.290         	7.02           	3.597
MS.291         	7.005          	3.666
MS.292         	6.995          	3.756
MS.293         	6.98           	3.377
MS.294         	6.965          	3.547
MS.295         	6.95           	3.475
MS.296         	6.935          	2.922
MS.297         	6.925          	3.279
MS.298         	6.91           	3.095
MS.299         	6.895          	3.145
MS.300         	6.88           	3.018
MS.301         	6.87           	2.925
MS.302         	6.855          	2.913
MS.303         	6.84           	2.728
MS.304         	6.825          	2.932
MS.305         	6.815          	2.607
MS.306         	6.8            	2.557
MS.307         	6.785          	2.195
MS.308         	6.775          	2.416
MS.309         	6.76           	2.659
MS.310         	6.745          	2.524
MS.311         	6.73           	2.322
MS.312         	6.72           	2.374
MS.313         	6.705          	2.072
MS.314         	6.69           	2.136
MS.315         	6.68           	1.789
MS.316         	6.665          	2.07
MS.317         	6.65           	1.644
MS.318         	6.64           	1.806
MS.319         	6.625          	1.763
MS.320         	6.61           	1.74
MS.321         	6.6            	1.79
MS.322         	6.585          	1.633
MS.323         	6.575          	1.569
MS.324         	6.56           	1.476
MS.325         	6.545          	1.512
MS.326         	6.535          	1.541
MS.327         	6.52           	1.478
MS.328         	6.505          	1.457
MS.329         	6.495          	1.369
MS.330         	6.48           	1.358
MS.331         	6.47           	1.372
MS.332         	6.455          	1.281
MS.333         	6.44           	1.223
MS.334         	6.43           	1.228
MS.335         	6.415          	1.141
MS.336         	6.405          	1.033
MS.337         	6.39           	1.232
MS.338         	6.38           	1.163
MS.339         	6.365          	1.167
MS.340         	6.355          	1.121
MS.341         	6.34           	1.127
MS.342         	6.325          	0.962
MS.343         	6.315          	1.083
MS.344         	6.3            	1.026
MS.345         	6.29           	0.95
MS.346         	6.275          	0.806
MS.347         	6.265          	0.949
MS.348         	6.25           	0.903
MS.349         	6.24           	0.836
MS.350         	6.225          	0.806
MS.351         	6.215          	0.724
MS.352         	6.2            	0.814
MS.353         	6.19           	0.573
MS.354         	6.175          	0.767
MS.355         	6.165          	0.789
MS.356         	6.155          	0.705
MS.357         	6.14           	0.655
MS.358         	6.13           	0.541
MS.359         	6.115          	0.588
MS.360         	6.105          	0.645
MS.361         	6.09           	0.583
MS.362         	6.08           	0.604
MS.363         	6.065          	0.64
MS.364         	6.055          	0.571
MS.365         	6.045          	0.49
MS.366         	6.03           	0.58
MS.367         	6.02           	0.552
MS.368         	6.005          	0.474
MS.369         	5.995          	0.423
MS.370         	5.985          	0.569
MS.371         	5.97           	0.47
MS.372         	5.96           	0.432
MS.373         	5.945          	0.329
MS.374         	5.935          	0.502
MS.375         	5.925          	0.388
MS.376         	5.91           	0.364
MS.377         	5.9            	0.355
MS.378         	5.89           	0.411
MS.379         	5.875          	0.335
MS.380         	5.865          	0.242
MS.381         	5.855          	0.335
MS.382         	5.84           	0.27
MS.383         	5.83           	0.368
MS.384         	5.82           	0.284
MS.385         	5.805          	0.238
MS.386         	5.795          	0.257
MS.387         	5.785          	0.296
MS.388         	5.77           	0.282
MS.389         	5.76           	0.307
MS.390         	5.75           	0.271
MS.391         	5.735          	0.226
MS.392         	5.725          	0.255
MS.393         	5.715          	0.201
MS.394         	5.7            	0.265
MS.395         	5.69           	0.233
MS.396         	5.68           	0.201
MS.397         	5.67           	0.222
MS.398         	5.655          	0.182
MS.399         	5.645          	0.258
MS.400         	5.635          	0.195
MS.401         	5.625          	0.204
MS.402         	5.61           	0.2
MS.403         	5.6            	0.196
MS.404         	5.59           	0.197
MS.405         	5.58           	0.187
MS.406         	5.565          	0.164
MS.407         	5.555          	0.179
MS.408         	5.545          	0.161
MS.409         	5.535          	0.189
MS.410         	5.525          	0.204
MS.411         	5.51           	0.178
MS.412         	5.5            	0.193
MS.413         	5.49           	0.166
MS.414         	5.48           	0.144
MS.415         	5.47           	0.179
MS.416         	5.455          	0.123
MS.417         	5.445          	0.161
MS.418         	5.435          	0.188
MS.419         	5.425          	0.108
MS.420         	5.415          	0.104
MS.421         	5.405          	0.123
MS.422         	5.39           	0.132
MS.423         	5.38           	0.153
MS.424         	5.37           	0.15
MS.425         	5.36           	0.114
MS.426         	5.35           	0.104
MS.427         	5.34           	0.131
MS.428         	5.33           	0.129
MS.429         	5.315          	0.118
MS.430         	5.305          	0.117
MS.431         	5.295          	0.099
MS.432         	5.285          	0.123
MS.433         	5.275          	0.099
MS.434         	5.265          	0.111
MS.435         	5.255          	0.132
MS.436         	5.245          	0.095
MS.437         	5.235          	0.093
MS.438         	5.22           	0.131
MS.439         	5.21           	0.125
MS.440         	5.2            	0.073
MS.441         	5.19           	0.096
MS.442         	5.18           	0.117
MS.443         	5.17           	0.091
MS.444         	5.16           	0.109
MS.445         	5.15           	0.089
MS.446         	5.14           	0.073
MS.447         	5.13           	0.038
MS.448         	5.12           	0.038
MS.449         	5.11           	0.043
MS.450         	5.1            	0.07
MS.451         	5.09           	0.082
MS.452         	5.08           	0.069
MS.453         	5.07           	0.076
MS.454         	5.06           	0.032
MS.455         	5.05           	0.032
MS.456         	5.035          	0.067
MS.457         	5.025          	0.073
MS.458         	5.015          	0.041
MS.459         	5.005          	0.038
MS.460         	4.995          	0.032
MS.461         	4.985          	0.035
MS.462         	4.975          	0.036
MS.463         	4.965          	0.031
MS.464         	4.96           	0.046
MS.465         	4.95           	0.033
MS.466         	4.94           	0.032
MS.467         	4.93           	0.03
MS.468         	4.92           	0.034
MS.469         	4.91           	0.032
MS.470         	4.9            	0.031
MS.471         	4.89           	0.029
MS.472         	4.88           	0.032
MS.473         	4.87           	0.035
MS.474         	4.86           	0.034
MS.475         	4.85           	0.036
MS.476         	4.84           	0.037
MS.477         	4.83           	0.035
MS.478         	4.82           	0.034
MS.479         	4.81           	0.04
MS.480         	4.8            	0.035
MS.481         	4.79           	0.032
MS.482         	4.78           	0.037
MS.483         	4.775          	0.031
MS.484         	4.765          	0.029
MS.485         	4.755          	0.027
MS.486         	4.745          	0.031
MS.487         	4.735          	0.032
MS.488         	4.725          	0.036
MS.489         	4.715          	0.035
MS.490         	4.705          	0.036
MS.491         	4.695          	0.035
MS.492         	4.69           	0.034
MS.493         	4.68           	0.033
MS.494         	4.67           	0.034
MS.495         	4.66           	0.033
MS.496         	4.65           	0.029
MS.497         	4.64           	0.035
MS.498         	4.63           	0.031
MS.499         	4.62           	0.035
MS.500         	4.615          	0.038
