File:              	C:\Qtrac\Data\Daniel M Sørensen\MScan multicentre study\Data from centres\Newcastle\Processed data\SMC00221D.QZD
Name:              	UK.NEW.NC.6.1
Protocol:          	MSCAN-R2
Date:              	21/2/20
Start time:        	12:39:30
Age:               	54
Sex:               	F
Temperature:       	33.3
S/R sites:         	APB
NC/disease:        	NC
Operator:          	SM
Comments:
M-SCAN DATA (6.9-1.4m)
Scanpts: 200, 234, 574, 596
Stim. (mA)     	Amp. (mV)
MS.1           	9.5            	12.967
MS.2           	9.5            	12.941
MS.3           	9.5            	13.03
MS.4           	9.5            	12.995
MS.5           	9.5            	12.971
MS.6           	9.5            	12.973
MS.7           	9.5            	12.999
MS.8           	9.5            	12.971
MS.9           	9.5            	12.951
MS.10          	9.5            	12.983
MS.11          	9.5            	12.975
MS.12          	9.5            	12.999
MS.13          	9.5            	13.036
MS.14          	9.5            	13.02
MS.15          	9.5            	13.005
MS.16          	9.5            	12.975
MS.17          	9.5            	12.995
MS.18          	9.5            	12.977
MS.19          	9.5            	12.999
MS.20          	9.5            	12.975
MS.21          	9.5            	12.989
MS.22          	9.5            	12.979
MS.23          	9.5            	13.001
MS.24          	9.462          	12.991
MS.25          	9.443          	13.028
MS.26          	9.425          	13.06
MS.27          	9.405          	13.018
MS.28          	9.387          	13.054
MS.29          	9.367          	13.054
MS.30          	9.35           	13.034
MS.31          	9.33           	13.032
MS.32          	9.312          	13.062
MS.33          	9.292          	13.026
MS.34          	9.275          	13.011
MS.35          	9.255          	13.032
MS.36          	9.238          	13.02
MS.37          	9.22           	13.028
MS.38          	9.2            	13.048
MS.39          	9.182          	13.007
MS.40          	9.165          	13.022
MS.41          	9.145          	13.046
MS.42          	9.127          	13.032
MS.43          	9.11           	13.03
MS.44          	9.09           	13.096
MS.45          	9.073          	13.052
MS.46          	9.055          	13.046
MS.47          	9.037          	13.034
MS.48          	9.017          	13.04
MS.49          	9              	13.054
MS.50          	8.983          	13.064
MS.51          	8.965          	13.062
MS.52          	8.948          	13.084
MS.53          	8.93           	13.084
MS.54          	8.91           	13.076
MS.55          	8.892          	13.08
MS.56          	8.875          	13.076
MS.57          	8.858          	13.076
MS.58          	8.84           	13.074
MS.59          	8.823          	13.068
MS.60          	8.805          	13.084
MS.61          	8.787          	13.082
MS.62          	8.77           	13.084
MS.63          	8.752          	13.072
MS.64          	8.735          	13.072
MS.65          	8.717          	13.08
MS.66          	8.7            	13.14
MS.67          	8.682          	13.116
MS.68          	8.665          	13.09
MS.69          	8.648          	13.102
MS.70          	8.63           	13.09
MS.71          	8.613          	13.076
MS.72          	8.595          	13.094
MS.73          	8.577          	13.08
MS.74          	8.562          	13.086
MS.75          	8.545          	13.078
MS.76          	8.528          	13.078
MS.77          	8.51           	13.074
MS.78          	8.492          	13.06
MS.79          	8.477          	13.064
MS.80          	8.46           	13.07
MS.81          	8.443          	13.076
MS.82          	8.425          	13.088
MS.83          	8.41           	13.1
MS.84          	8.392          	13.09
MS.85          	8.375          	13.094
MS.86          	8.358          	13.092
MS.87          	8.342          	13.132
MS.88          	8.325          	13.104
MS.89          	8.307          	13.1
MS.90          	8.292          	13.096
MS.91          	8.275          	13.102
MS.92          	8.26           	13.108
MS.93          	8.242          	13.112
MS.94          	8.225          	13.122
MS.95          	8.21           	13.116
MS.96          	8.193          	13.104
MS.97          	8.177          	13.108
MS.98          	8.16           	13.106
MS.99          	8.145          	13.124
MS.100         	8.127          	13.112
MS.101         	8.113          	13.092
MS.102         	8.095          	13.114
MS.103         	8.08           	13.124
MS.104         	8.062          	13.136
MS.105         	8.047          	13.112
MS.106         	8.03           	13.112
MS.107         	8.015          	13.112
MS.108         	8              	13.142
MS.109         	7.982          	13.13
MS.110         	7.967          	13.14
MS.111         	7.95           	13.144
MS.112         	7.935          	13.146
MS.113         	7.92           	13.108
MS.114         	7.902          	13.15
MS.115         	7.887          	13.136
MS.116         	7.872          	13.128
MS.117         	7.855          	13.138
MS.118         	7.84           	13.128
MS.119         	7.825          	13.132
MS.120         	7.81           	13.13
MS.121         	7.793          	13.132
MS.122         	7.777          	13.124
MS.123         	7.762          	13.124
MS.124         	7.747          	13.142
MS.125         	7.732          	13.108
MS.126         	7.715          	13.136
MS.127         	7.7            	13.118
MS.128         	7.685          	13.12
MS.129         	7.67           	13.128
MS.130         	7.655          	13.144
MS.131         	7.64           	13.118
MS.132         	7.625          	13.112
MS.133         	7.607          	13.132
MS.134         	7.592          	13.189
MS.135         	7.577          	13.13
MS.136         	7.562          	13.154
MS.137         	7.547          	13.144
MS.138         	7.532          	13.142
MS.139         	7.517          	13.175
MS.140         	7.503          	13.161
MS.141         	7.487          	13.161
MS.142         	7.472          	13.124
MS.143         	7.457          	13.165
MS.144         	7.442          	13.148
MS.145         	7.427          	13.169
MS.146         	7.412          	13.173
MS.147         	7.398          	13.199
MS.148         	7.385          	13.169
MS.149         	7.37           	13.169
MS.150         	7.355          	13.187
MS.151         	7.34           	13.171
MS.152         	7.325          	13.181
MS.153         	7.31           	13.152
MS.154         	7.295          	13.171
MS.155         	7.28           	13.169
MS.156         	7.267          	13.181
MS.157         	7.253          	13.187
MS.158         	7.237          	13.169
MS.159         	7.222          	13.197
MS.160         	7.207          	13.205
MS.161         	7.195          	13.195
MS.162         	7.18           	13.203
MS.163         	7.165          	13.173
MS.164         	7.152          	13.169
MS.165         	7.137          	13.219
MS.166         	7.122          	13.205
MS.167         	7.108          	13.201
MS.168         	7.095          	13.209
MS.169         	7.08           	13.203
MS.170         	7.065          	13.086
MS.171         	7.052          	13.219
MS.172         	7.037          	13.223
MS.173         	7.023          	13.227
MS.174         	7.01           	13.245
MS.175         	6.995          	13.094
MS.176         	6.983          	13.066
MS.177         	6.967          	13.1
MS.178         	6.955          	13.086
MS.179         	6.94           	13.078
MS.180         	6.925          	13.114
MS.181         	6.912          	13.106
MS.182         	6.898          	13.219
MS.183         	6.885          	13.096
MS.184         	6.87           	13.118
MS.185         	6.858          	13.096
MS.186         	6.842          	13.098
MS.187         	6.83           	13.088
MS.188         	6.815          	13.104
MS.189         	6.802          	13.08
MS.190         	6.79           	13.086
MS.191         	6.775          	13.088
MS.192         	6.762          	13.096
MS.193         	6.747          	13.074
MS.194         	6.735          	13.082
MS.195         	6.722          	13.082
MS.196         	6.707          	13.086
MS.197         	6.695          	13.088
MS.198         	6.68           	13.086
MS.199         	6.668          	13.086
MS.200         	6.655          	13.104
MS.201         	6.64           	13.078
MS.202         	6.628          	13.092
MS.203         	6.615          	13.104
MS.204         	6.602          	13.114
MS.205         	6.587          	13.144
MS.206         	6.575          	13.094
MS.207         	6.562          	13.104
MS.208         	6.55           	13.102
MS.209         	6.535          	13.1
MS.210         	6.523          	13.078
MS.211         	6.51           	13.088
MS.212         	6.497          	13.132
MS.213         	6.483          	13.096
MS.214         	6.47           	13.08
MS.215         	6.457          	13.08
MS.216         	6.445          	13.096
MS.217         	6.432          	13.082
MS.218         	6.42           	13.09
MS.219         	6.407          	13.096
MS.220         	6.392          	13.084
MS.221         	6.38           	13.088
MS.222         	6.367          	13.068
MS.223         	6.355          	13.056
MS.224         	6.342          	13.104
MS.225         	6.33           	13.1
MS.226         	6.317          	13.086
MS.227         	6.305          	13.036
MS.228         	6.293          	13.072
MS.229         	6.28           	13.114
MS.230         	6.267          	13.074
MS.231         	6.255          	13.07
MS.232         	6.242          	13.098
MS.233         	6.23           	13.096
MS.234         	6.217          	13.096
MS.235         	6.205          	13.056
MS.236         	6.192          	13.106
MS.237         	6.18           	13.054
MS.238         	6.168          	13.102
MS.239         	6.155          	13.06
MS.240         	6.142          	13.042
MS.241         	6.13           	13.062
MS.242         	6.117          	13.068
MS.243         	6.105          	13.114
MS.244         	6.095          	13.064
MS.245         	6.082          	13.054
MS.246         	6.07           	13.054
MS.247         	6.057          	13.104
MS.248         	6.045          	13.056
MS.249         	6.032          	13.068
MS.250         	6.02           	13.142
MS.251         	6.01           	13.07
MS.252         	5.997          	13.08
MS.253         	5.985          	13.05
MS.254         	5.972          	13.044
MS.255         	5.963          	13.056
MS.256         	5.95           	13.076
MS.257         	5.938          	13.052
MS.258         	5.925          	13.04
MS.259         	5.915          	13.042
MS.260         	5.902          	13.042
MS.261         	5.89           	13.032
MS.262         	5.878          	13.034
MS.263         	5.867          	13.042
MS.264         	5.855          	13.032
MS.265         	5.842          	12.977
MS.266         	5.832          	13.044
MS.267         	5.82           	13.046
MS.268         	5.807          	12.963
MS.269         	5.797          	13.036
MS.270         	5.785          	13.038
MS.271         	5.773          	13.044
MS.272         	5.762          	13.05
MS.273         	5.75           	13.048
MS.274         	5.74           	12.965
MS.275         	5.727          	13.024
MS.276         	5.715          	12.957
MS.277         	5.705          	12.947
MS.278         	5.692          	12.953
MS.279         	5.682          	12.945
MS.280         	5.67           	12.967
MS.281         	5.66           	12.975
MS.282         	5.648          	12.985
MS.283         	5.637          	12.985
MS.284         	5.625          	12.989
MS.285         	5.615          	12.977
MS.286         	5.602          	13.001
MS.287         	5.592          	12.941
MS.288         	5.58           	12.979
MS.289         	5.57           	12.979
MS.290         	5.557          	12.999
MS.291         	5.547          	13.06
MS.292         	5.535          	12.981
MS.293         	5.525          	12.985
MS.294         	5.515          	12.983
MS.295         	5.503          	12.957
MS.296         	5.492          	12.975
MS.297         	5.48           	12.947
MS.298         	5.47           	12.929
MS.299         	5.46           	12.923
MS.300         	5.447          	12.929
MS.301         	5.438          	12.927
MS.302         	5.427          	12.909
MS.303         	5.415          	12.917
MS.304         	5.405          	12.917
MS.305         	5.395          	12.877
MS.306         	5.382          	12.883
MS.307         	5.372          	12.911
MS.308         	5.362          	12.917
MS.309         	5.35           	12.868
MS.310         	5.34           	12.927
MS.311         	5.33           	12.983
MS.312         	5.32           	12.925
MS.313         	5.307          	12.794
MS.314         	5.297          	12.893
MS.315         	5.287          	12.877
MS.316         	5.277          	12.738
MS.317         	5.265          	12.75
MS.318         	5.255          	12.736
MS.319         	5.245          	12.756
MS.320         	5.235          	12.665
MS.321         	5.225          	12.754
MS.322         	5.213          	12.736
MS.323         	5.202          	12.734
MS.324         	5.193          	12.683
MS.325         	5.182          	12.683
MS.326         	5.172          	12.591
MS.327         	5.162          	12.649
MS.328         	5.152          	12.625
MS.329         	5.14           	12.589
MS.330         	5.13           	12.56
MS.331         	5.12           	12.578
MS.332         	5.11           	12.423
MS.333         	5.1            	12.508
MS.334         	5.09           	12.232
MS.335         	5.08           	12.49
MS.336         	5.07           	12.56
MS.337         	5.06           	12.051
MS.338         	5.05           	12.212
MS.339         	5.04           	12.113
MS.340         	5.03           	12.331
MS.341         	5.02           	12.305
MS.342         	5.01           	12.002
MS.343         	5              	12.137
MS.344         	4.99           	12.17
MS.345         	4.98           	11.916
MS.346         	4.97           	11.845
MS.347         	4.96           	11.924
MS.348         	4.95           	12.012
MS.349         	4.94           	11.843
MS.350         	4.93           	11.781
MS.351         	4.92           	11.682
MS.352         	4.91           	11.948
MS.353         	4.9            	11.646
MS.354         	4.89           	11.672
MS.355         	4.88           	11.362
MS.356         	4.87           	11.71
MS.357         	4.86           	11.519
MS.358         	4.852          	11.285
MS.359         	4.842          	11.622
MS.360         	4.832          	11.604
MS.361         	4.822          	11.737
MS.362         	4.812          	10.989
MS.363         	4.802          	10.752
MS.364         	4.793          	10.957
MS.365         	4.785          	10.649
MS.366         	4.775          	11.257
MS.367         	4.765          	11.249
MS.368         	4.755          	10.832
MS.369         	4.745          	10.419
MS.370         	4.737          	10.522
MS.371         	4.727          	10.689
MS.372         	4.717          	10.655
MS.373         	4.707          	10.361
MS.374         	4.697          	9.956
MS.375         	4.69           	10.157
MS.376         	4.68           	9.688
MS.377         	4.67           	9.761
MS.378         	4.662          	10.079
MS.379         	4.652          	9.71
MS.380         	4.642          	9.867
MS.381         	4.632          	9.712
MS.382         	4.625          	9.467
MS.383         	4.615          	9.237
MS.384         	4.605          	9.422
MS.385         	4.597          	9.056
MS.386         	4.588          	9.04
MS.387         	4.577          	8.872
MS.388         	4.57           	8.685
MS.389         	4.56           	8.594
MS.390         	4.55           	8.794
MS.391         	4.543          	8.391
MS.392         	4.532          	8.284
MS.393         	4.523          	8.137
MS.394         	4.515          	8.564
MS.395         	4.505          	8.087
MS.396         	4.497          	7.75
MS.397         	4.487          	7.922
MS.398         	4.477          	7.817
MS.399         	4.47           	7.37
MS.400         	4.46           	7.543
MS.401         	4.452          	7.11
MS.402         	4.443          	7.166
MS.403         	4.435          	7.402
MS.404         	4.425          	6.945
MS.405         	4.415          	6.671
MS.406         	4.407          	6.246
MS.407         	4.398          	6.022
MS.408         	4.39           	6.419
MS.409         	4.38           	5.875
MS.410         	4.372          	6.183
MS.411         	4.362          	5.893
MS.412         	4.355          	5.533
MS.413         	4.345          	6.391
MS.414         	4.338          	5.849
MS.415         	4.33           	5.805
MS.416         	4.32           	5.42
MS.417         	4.312          	5.474
MS.418         	4.302          	5.557
MS.419         	4.295          	5.36
MS.420         	4.285          	5.066
MS.421         	4.277          	4.663
MS.422         	4.267          	4.778
MS.423         	4.26           	4.52
MS.424         	4.253          	5.06
MS.425         	4.242          	4.451
MS.426         	4.235          	4.298
MS.427         	4.225          	3.819
MS.428         	4.217          	4.425
MS.429         	4.21           	4.449
MS.430         	4.2            	4.234
MS.431         	4.193          	4.353
MS.432         	4.185          	3.865
MS.433         	4.175          	4.117
MS.434         	4.168          	3.807
MS.435         	4.16           	3.976
MS.436         	4.15           	3.114
MS.437         	4.142          	3.831
MS.438         	4.135          	3.019
MS.439         	4.125          	3.051
MS.440         	4.117          	3.531
MS.441         	4.11           	2.695
MS.442         	4.1            	2.759
MS.443         	4.092          	2.411
MS.444         	4.085          	3.088
MS.445         	4.077          	2.582
MS.446         	4.068          	2.802
MS.447         	4.06           	2.328
MS.448         	4.052          	2.506
MS.449         	4.045          	2.3
MS.450         	4.035          	2.296
MS.451         	4.027          	2.143
MS.452         	4.02           	2.163
MS.453         	4.012          	2.342
MS.454         	4.005          	1.71
MS.455         	3.995          	2.159
MS.456         	3.987          	1.994
MS.457         	3.98           	2.006
MS.458         	3.972          	1.821
MS.459         	3.965          	1.897
MS.460         	3.955          	1.384
MS.461         	3.947          	1.593
MS.462         	3.94           	1.521
MS.463         	3.932          	1.619
MS.464         	3.925          	1.513
MS.465         	3.918          	1.406
MS.466         	3.91           	1.452
MS.467         	3.9            	1.76
MS.468         	3.892          	1.454
MS.469         	3.885          	1.162
MS.470         	3.877          	1.013
MS.471         	3.87           	1.247
MS.472         	3.862          	1.106
MS.473         	3.855          	0.784
MS.474         	3.847          	0.882
MS.475         	3.84           	1.356
MS.476         	3.832          	0.898
MS.477         	3.825          	0.8
MS.478         	3.817          	0.749
MS.479         	3.807          	0.761
MS.480         	3.8            	0.665
MS.481         	3.793          	0.842
MS.482         	3.785          	0.634
MS.483         	3.777          	0.681
MS.484         	3.77           	0.741
MS.485         	3.762          	0.612
MS.486         	3.755          	0.645
MS.487         	3.747          	0.634
MS.488         	3.74           	0.622
MS.489         	3.732          	0.645
MS.490         	3.725          	0.632
MS.491         	3.717          	0.582
MS.492         	3.71           	0.632
