File:              	C:\Qtrac\Data\Daniel M Sørensen\MScan multicentre study\Data from centres\Newcastle\Processed data\SMC00304A.QZD
Name:              	UK.NEW.NC.7.2
Protocol:          	MSCAN-R2
Date:              	4/3/20
Start time:        	10:08:35
Age:               	56
Sex:               	M
Temperature:       	33.4
S/R sites:         	APB
NC/disease:        	NC
Operator:          	SM
Comments:
M-SCAN DATA (6-1.9m)
Scanpts: 91, 102, 439, 461
Stim. (mA)     	Amp. (mV)
MS.1           	15             	9.944
MS.2           	15             	9.944
MS.3           	15             	9.839
MS.4           	15             	9.888
MS.5           	15             	9.902
MS.6           	15             	9.869
MS.7           	15             	9.867
MS.8           	15             	9.865
MS.9           	15             	9.881
MS.10          	15             	10
MS.11          	15             	9.898
MS.12          	15             	9.956
MS.13          	15             	9.952
MS.14          	15             	9.956
MS.15          	15             	9.958
MS.16          	15             	9.962
MS.17          	15             	9.95
MS.18          	15             	9.946
MS.19          	15             	10.02
MS.20          	15             	10.037
MS.21          	15             	10.065
MS.22          	15             	10.075
MS.23          	15             	10.065
MS.24          	14.94          	10.089
MS.25          	14.91          	10.077
MS.26          	14.88          	10.091
MS.27          	14.85          	10.123
MS.28          	14.82          	10.107
MS.29          	14.792         	10.159
MS.30          	14.762         	10.167
MS.31          	14.733         	10.163
MS.32          	14.702         	10.178
MS.33          	14.672         	10.198
MS.34          	14.645         	10.218
MS.35          	14.615         	10.174
MS.36          	14.585         	10.186
MS.37          	14.557         	10.165
MS.38          	14.527         	10.147
MS.39          	14.497         	10.182
MS.40          	14.47          	10.18
MS.41          	14.44          	10.178
MS.42          	14.412         	10.192
MS.43          	14.382         	10.184
MS.44          	14.355         	10.204
MS.45          	14.325         	10.212
MS.46          	14.297         	10.226
MS.47          	14.267         	10.24
MS.48          	14.24          	10.236
MS.49          	14.212         	10.214
MS.50          	14.182         	10.244
MS.51          	14.155         	10.258
MS.52          	14.127         	10.25
MS.53          	14.097         	10.262
MS.54          	14.07          	10.262
MS.55          	14.042         	10.254
MS.56          	14.015         	10.258
MS.57          	13.985         	10.264
MS.58          	13.957         	10.264
MS.59          	13.93          	10.272
MS.60          	13.903         	10.268
MS.61          	13.875         	10.286
MS.62          	13.847         	10.28
MS.63          	13.82          	10.266
MS.64          	13.792         	10.276
MS.65          	13.765         	10.31
MS.66          	13.737         	10.3
MS.67          	13.71          	10.091
MS.68          	13.682         	10.075
MS.69          	13.655         	10.296
MS.70          	13.627         	10.163
MS.71          	13.6           	10.325
MS.72          	13.572         	10.323
MS.73          	13.545         	10.135
MS.74          	13.517         	10.145
MS.75          	13.492         	10.147
MS.76          	13.465         	10.133
MS.77          	13.438         	10.147
MS.78          	13.41          	10.149
MS.79          	13.385         	10.214
MS.80          	13.358         	10.353
MS.81          	13.33          	10.182
MS.82          	13.305         	10.214
MS.83          	13.278         	10.18
MS.84          	13.25          	10.2
MS.85          	13.225         	10.165
MS.86          	13.197         	10.155
MS.87          	13.172         	10.18
MS.88          	13.145         	10.206
MS.89          	13.12          	10.174
MS.90          	13.092         	10.161
MS.91          	13.068         	10.135
MS.92          	13.04          	10.143
MS.93          	13.015         	10.192
MS.94          	12.987         	10.137
MS.95          	12.962         	10.119
MS.96          	12.938         	10.232
MS.97          	12.91          	10.161
MS.98          	12.885         	10.222
MS.99          	12.86          	10.202
MS.100         	12.832         	10.224
MS.101         	12.807         	10.18
MS.102         	12.782         	10.196
MS.103         	12.757         	10.184
MS.104         	12.73          	10.182
MS.105         	12.705         	10.176
MS.106         	12.68          	10.149
MS.107         	12.655         	10.151
MS.108         	12.63          	10.153
MS.109         	12.605         	10.123
MS.110         	12.58          	10.018
MS.111         	12.555         	10.194
MS.112         	12.53          	10.202
MS.113         	12.505         	10.19
MS.114         	12.48          	10.079
MS.115         	12.455         	10.184
MS.116         	12.43          	10.206
MS.117         	12.405         	10.057
MS.118         	12.38          	10.214
MS.119         	12.355         	10.057
MS.120         	12.33          	10.212
MS.121         	12.305         	10.071
MS.122         	12.28          	9.885
MS.123         	12.257         	10.099
MS.124         	12.233         	10.113
MS.125         	12.207         	10.129
MS.126         	12.182         	10.125
MS.127         	12.157         	10.119
MS.128         	12.135         	10.117
MS.129         	12.11          	10.125
MS.130         	12.085         	10.103
MS.131         	12.062         	10.123
MS.132         	12.037         	10.137
MS.133         	12.012         	10.161
MS.134         	11.99          	10.167
MS.135         	11.965         	10.029
MS.136         	11.943         	10.192
MS.137         	11.917         	9.938
MS.138         	11.895         	10
MS.139         	11.87          	10.014
MS.140         	11.847         	9.958
MS.141         	11.822         	10.029
MS.142         	11.8           	10.252
MS.143         	11.775         	10.057
MS.144         	11.752         	10.049
MS.145         	11.73          	10.061
MS.146         	11.705         	10.268
MS.147         	11.682         	10.065
MS.148         	11.657         	10.079
MS.149         	11.635         	10.061
MS.150         	11.613         	10.01
MS.151         	11.59          	10.069
MS.152         	11.565         	10.073
MS.153         	11.542         	10.137
MS.154         	11.52          	9.984
MS.155         	11.497         	10.081
MS.156         	11.472         	10
MS.157         	11.45          	10.037
MS.158         	11.427         	10.018
MS.159         	11.405         	10.087
MS.160         	11.382         	10.051
MS.161         	11.36          	10.026
MS.162         	11.337         	9.94
MS.163         	11.315         	10.061
MS.164         	11.292         	9.936
MS.165         	11.27          	10.047
MS.166         	11.247         	10.002
MS.167         	11.225         	10.099
MS.168         	11.202         	9.994
MS.169         	11.18          	9.986
MS.170         	11.157         	9.992
MS.171         	11.135         	9.984
MS.172         	11.113         	9.956
MS.173         	11.09          	10.006
MS.174         	11.068         	9.984
MS.175         	11.045         	10.006
MS.176         	11.023         	9.606
MS.177         	11.002         	9.89
MS.178         	10.98          	9.998
MS.179         	10.957         	9.954
MS.180         	10.935         	9.38
MS.181         	10.915         	9.696
MS.182         	10.892         	9.358
MS.183         	10.87          	9.614
MS.184         	10.847         	9.36
MS.185         	10.827         	9.4
MS.186         	10.805         	9.738
MS.187         	10.785         	9.144
MS.188         	10.762         	9.589
MS.189         	10.74          	9.114
MS.190         	10.72          	9.287
MS.191         	10.698         	9.177
MS.192         	10.677         	8.927
MS.193         	10.655         	9.346
MS.194         	10.635         	8.878
MS.195         	10.613         	8.888
MS.196         	10.592         	8.846
MS.197         	10.57          	8.915
MS.198         	10.55          	9.261
MS.199         	10.528         	8.57
MS.200         	10.507         	8.886
MS.201         	10.485         	8.522
MS.202         	10.465         	8.699
MS.203         	10.445         	8.508
MS.204         	10.422         	8.721
MS.205         	10.403         	8.532
MS.206         	10.382         	8.637
MS.207         	10.36          	8.417
MS.208         	10.34          	8.538
MS.209         	10.32          	8.244
MS.210         	10.3           	8.208
MS.211         	10.278         	7.827
MS.212         	10.257         	8.417
MS.213         	10.238         	7.795
MS.214         	10.217         	7.819
MS.215         	10.198         	7.97
MS.216         	10.175         	7.865
MS.217         	10.155         	8.012
MS.218         	10.135         	7.652
MS.219         	10.115         	7.37
MS.220         	10.095         	7.765
MS.221         	10.075         	7.497
MS.222         	10.055         	7.104
MS.223         	10.035         	7.005
MS.224         	10.015         	6.701
MS.225         	9.995          	7.172
MS.226         	9.975          	6.679
MS.227         	9.955          	6.788
MS.228         	9.935          	6.743
MS.229         	9.915          	6.576
MS.230         	9.895          	6.389
MS.231         	9.875          	6.161
MS.232         	9.855          	6.022
MS.233         	9.835          	5.978
MS.234         	9.818          	6.169
MS.235         	9.797          	6.075
MS.236         	9.778          	6.03
MS.237         	9.757          	6.302
MS.238         	9.738          	5.954
MS.239         	9.717          	5.893
MS.240         	9.7            	5.853
MS.241         	9.68           	5.817
MS.242         	9.66           	5.732
MS.243         	9.64           	5.744
MS.244         	9.622          	5.867
MS.245         	9.602          	5.744
MS.246         	9.582          	5.773
MS.247         	9.565          	5.698
MS.248         	9.545          	5.535
MS.249         	9.525          	5.777
MS.250         	9.507          	5.694
MS.251         	9.488          	5.565
MS.252         	9.47           	4.651
MS.253         	9.45           	5.583
MS.254         	9.432          	4.29
MS.255         	9.412          	5.458
MS.256         	9.395          	5.35
MS.257         	9.375          	4.419
MS.258         	9.358          	4.361
MS.259         	9.337          	4.524
MS.260         	9.32           	4.204
MS.261         	9.3            	4.27
MS.262         	9.283          	4.355
MS.263         	9.262          	4.191
MS.264         	9.245          	4.121
MS.265         	9.225          	4.653
MS.266         	9.207          	3.837
MS.267         	9.19           	3.801
MS.268         	9.17           	3.43
MS.269         	9.153          	3.452
MS.270         	9.135          	3.771
MS.271         	9.115          	3.698
MS.272         	9.097          	3.209
MS.273         	9.08           	3.368
MS.274         	9.062          	3.38
MS.275         	9.042          	3.416
MS.276         	9.025          	3.08
MS.277         	9.007          	3.003
MS.278         	8.99           	3.366
MS.279         	8.972          	2.842
MS.280         	8.952          	2.717
MS.281         	8.935          	3.001
MS.282         	8.917          	2.713
MS.283         	8.9            	2.941
MS.284         	8.882          	2.904
MS.285         	8.865          	2.88
MS.286         	8.847          	2.709
MS.287         	8.83           	2.725
MS.288         	8.812          	2.675
MS.289         	8.795          	2.614
MS.290         	8.775          	2.534
MS.291         	8.757          	2.576
MS.292         	8.74           	2.465
MS.293         	8.722          	2.381
MS.294         	8.707          	2.254
MS.295         	8.69           	2.127
MS.296         	8.672          	2.155
MS.297         	8.655          	2.105
MS.298         	8.637          	1.98
MS.299         	8.62           	2.222
MS.300         	8.602          	2.145
MS.301         	8.585          	2.147
MS.302         	8.568          	2.185
MS.303         	8.55           	1.988
MS.304         	8.535          	1.968
MS.305         	8.517          	1.986
MS.306         	8.5            	1.964
MS.307         	8.483          	2.008
MS.308         	8.465          	2.054
MS.309         	8.45           	1.95
MS.310         	8.432          	1.728
MS.311         	8.415          	1.956
MS.312         	8.398          	1.895
MS.313         	8.382          	1.762
MS.314         	8.365          	1.859
MS.315         	8.347          	1.859
MS.316         	8.332          	1.855
MS.317         	8.315          	1.603
MS.318         	8.297          	1.7
MS.319         	8.283          	1.774
MS.320         	8.265          	1.406
MS.321         	8.247          	1.553
MS.322         	8.233          	1.462
MS.323         	8.215          	1.462
MS.324         	8.2            	1.384
MS.325         	8.182          	1.313
MS.326         	8.167          	1.593
MS.327         	8.15           	1.36
MS.328         	8.135          	1.368
MS.329         	8.117          	1.329
MS.330         	8.102          	1.281
MS.331         	8.085          	1.15
MS.332         	8.07           	1.136
MS.333         	8.052          	0.924
MS.334         	8.037          	1.255
MS.335         	8.02           	1.15
MS.336         	8.005          	1.233
MS.337         	7.99           	1.204
MS.338         	7.972          	1.188
MS.339         	7.957          	0.796
MS.340         	7.94           	0.916
MS.341         	7.925          	1.102
MS.342         	7.91           	1.013
MS.343         	7.892          	0.953
MS.344         	7.878          	1.144
MS.345         	7.862          	0.977
MS.346         	7.847          	0.697
MS.347         	7.83           	0.967
MS.348         	7.815          	0.894
MS.349         	7.8            	1.041
MS.350         	7.785          	0.645
MS.351         	7.767          	0.612
MS.352         	7.753          	0.532
MS.353         	7.737          	0.707
MS.354         	7.722          	0.671
MS.355         	7.707          	0.582
MS.356         	7.69           	0.451
MS.357         	7.675          	0.606
MS.358         	7.66           	0.606
MS.359         	7.645          	0.318
MS.360         	7.63           	0.314
MS.361         	7.615          	0.336
MS.362         	7.6            	0.328
MS.363         	7.585          	0.308
MS.364         	7.57           	0.252
MS.365         	7.555          	0.332
MS.366         	7.537          	0.32
MS.367         	7.523          	0.302
MS.368         	7.507          	0.25
MS.369         	7.492          	0.318
MS.370         	7.477          	0.318
MS.371         	7.462          	0.312
MS.372         	7.447          	0.314
MS.373         	7.435          	0.31
MS.374         	7.42           	0.244
MS.375         	7.405          	0.052
MS.376         	7.39           	0.04
MS.377         	7.375          	0.111
MS.378         	7.36           	0.109
MS.379         	7.345          	0.036
MS.380         	7.33           	0.038
MS.381         	7.315          	0.244
MS.382         	7.302          	0.036
MS.383         	7.287          	0.099
MS.384         	7.273          	0.04
MS.385         	7.257          	0.03
MS.386         	7.242          	0.042
MS.387         	7.227          	0.032
MS.388         	7.215          	0.04
MS.389         	7.2            	0.032
MS.390         	7.185          	0.04
MS.391         	7.17           	0.032
MS.392         	7.157          	0.04
MS.393         	7.142          	0.04
MS.394         	7.128          	0.03
MS.395         	7.115          	0.04
MS.396         	7.1            	0.04
MS.397         	7.085          	0.036
MS.398         	7.072          	0.03
MS.399         	7.057          	0.034
MS.400         	7.043          	0.03
MS.401         	7.03           	0.03
MS.402         	7.015          	0.026
MS.403         	7              	0.028
MS.404         	6.987          	0.03
MS.405         	6.972          	0.032
MS.406         	6.96           	0.036
MS.407         	6.945          	0.034
MS.408         	6.932          	0.034
MS.409         	6.918          	0.01
MS.410         	6.902          	0.036
MS.411         	6.89           	0.032
MS.412         	6.875          	0.008
MS.413         	6.862          	0.008
MS.414         	6.847          	0.01
MS.415         	6.835          	0.01
MS.416         	6.822          	0.006
MS.417         	6.807          	0.006
MS.418         	6.795          	0.028
MS.419         	6.78           	0.024
MS.420         	6.767          	0.008
MS.421         	6.753          	0.03
MS.422         	6.74           	0.026
MS.423         	6.727          	0.028
MS.424         	6.712          	0.006
MS.425         	6.7            	0.002
MS.426         	6.685          	0.006
MS.427         	6.672          	0.002
MS.428         	6.66           	0.006
MS.429         	6.645          	0.004
MS.430         	6.632          	0.008
MS.431         	6.62           	0.006
MS.432         	6.608          	0.01
MS.433         	6.592          	0.012
MS.434         	6.58           	0.006
MS.435         	6.567          	0.002
MS.436         	6.555          	0.006
MS.437         	6.54           	0.002
MS.438         	6.527          	0.008
MS.439         	6.515          	0.006
MS.440         	6.503          	0.006
MS.441         	6.487          	0.004
MS.442         	6.475          	0.006
MS.443         	6.462          	0.008
MS.444         	6.45           	0.008
MS.445         	6.438          	0.006
MS.446         	6.425          	0.006
MS.447         	6.41           	0.006
MS.448         	6.398          	0.01
MS.449         	6.385          	0.004
MS.450         	6.372          	0.004
MS.451         	6.36           	0.006
MS.452         	6.347          	0.006
MS.453         	6.335          	0.006
MS.454         	6.322          	0.008
MS.455         	6.31           	0.004
MS.456         	6.297          	0.004
MS.457         	6.285          	0.006
MS.458         	6.273          	0.006
MS.459         	6.26           	0.006
MS.460         	6.247          	0.004
MS.461         	6.235          	0.008
DERIVED EXCITABILITY VARIABLES
Program = QTracP 9/10/2021
Threshold method = 6 (optimised for CAP, using data for present condition only)
SR method = 1 (using actual data values)
6.                 	0.000               	Peak response\(mV)
9.                 	33.4                	Temperature ( C)
17.                	56                  	Age (years)
18.                	1                   	Sex (M=1, F=2)

EXTRA VARIABLES

MScPeak(mV) = 9.94
MScS5(mA) = 7.68
MScS50(mA) = 9.44
MScS95(mA) = 10.85
MScNSteps = 4
MScSteps(%) = 14.5
MScStepMax(%) = 7
MScD50 = 33
MScSlope = 6.95
MScDuration(min) = 4.1
MSFTraces = 371
MSFPeakAmp(mV) = 10.2
MSFNUnits = 99
MSFMeanUnitAmp(uV) = 102.8
MSFHuntTime(m) = 1.97
MSFError(%) = 8.09
MSFNLarge = 27.79
MSFMedianAmp(%) = 0.803
MSFMedianAmp(mV) = 0.0817
MSFHalfAmpAmp(%) = 1.27
MSFHalfAmpAmp(mV) = 0.13
MSFLargestAmp(%) = 4.42
MSFLargestAmp(mV) = 0.45
MSFMeanRS(%) = 2
MSFSizeLimit(uV) = 25.4
MSFLimitType = 1
MSFSmallestAmp(uV) = 26.8
MSFOpts = 10106121

EXTRA WAVEFORMS


!MScan Model
!99
	1	6.91	0.3	2
	2	7.36	0.72	2
	3	7.4	0.77	2
	4	7.44	0.37	2
	5	7.54	0.8	2
	6	7.59	0.36	1.8
	7	7.62	0.43	2
	8	7.65	0.57	2
	9	7.69	0.67	2
	10	7.72	0.6	2
	11	7.75	0.95	2
	12	7.78	0.8	2
	13	7.85	1.47	2
	14	7.93	1.16	2
	15	8.03	1.12	2
	16	8.08	1.07	2
	17	8.14	0.99	2
	18	8.18	0.59	2
	19	8.21	0.59	2
	20	8.24	0.75	2
	21	8.27	0.67	2
	22	8.31	0.87	2
	23	8.38	1.33	2
