File:              	C:\Qtrac\Data\Daniel M Sørensen\MScan multicentre study\Data from centres\Newcastle\Processed data\SMC00304D.QZD
Name:              	UK.NEW.NC.8.2
Protocol:          	MSCAN-R2
Date:              	4/3/20
Start time:        	12:07:41
Age:               	62
Sex:               	M
Temperature:       	24.1
S/R sites:         	APB
NC/disease:        	NC
Operator:          	SM
Comments:
M-SCAN DATA (Repeat 2/2, 4.9-0.0m)
Scanpts: 19, 31, 524, 537
Stim. (mA)     	Amp. (mV)
MS.1           	9              	4.496
MS.2           	9              	4.461
MS.3           	8.983          	4.488
MS.4           	8.965          	4.447
MS.5           	8.945          	4.467
MS.6           	8.927          	4.469
MS.7           	8.91           	4.492
MS.8           	8.892          	4.453
MS.9           	8.875          	4.469
MS.10          	8.858          	4.504
MS.11          	8.84           	4.473
MS.12          	8.823          	4.479
MS.13          	8.805          	4.467
MS.14          	8.787          	4.473
MS.15          	8.77           	4.486
MS.16          	8.752          	4.5
MS.17          	8.735          	4.492
MS.18          	8.717          	4.473
MS.19          	8.7            	4.482
MS.20          	8.682          	4.475
MS.21          	8.665          	4.482
MS.22          	8.648          	4.502
MS.23          	8.63           	4.518
MS.24          	8.613          	4.524
MS.25          	8.595          	4.486
MS.26          	8.577          	4.52
MS.27          	8.56           	4.494
MS.28          	8.545          	4.49
MS.29          	8.528          	4.502
MS.30          	8.51           	4.494
MS.31          	8.492          	4.504
MS.32          	8.475          	4.488
MS.33          	8.46           	4.52
MS.34          	8.443          	4.469
MS.35          	8.425          	4.494
MS.36          	8.408          	4.516
MS.37          	8.392          	4.449
MS.38          	8.375          	4.49
MS.39          	8.358          	4.512
MS.40          	8.342          	4.522
MS.41          	8.325          	4.439
MS.42          	8.307          	4.5
MS.43          	8.292          	4.504
MS.44          	8.275          	4.471
MS.45          	8.257          	4.447
MS.46          	8.242          	4.463
MS.47          	8.225          	4.471
MS.48          	8.21           	4.365
MS.49          	8.193          	4.397
MS.50          	8.175          	4.417
MS.51          	8.16           	4.407
MS.52          	8.142          	4.381
MS.53          	8.127          	4.357
MS.54          	8.11           	4.365
MS.55          	8.095          	4.359
MS.56          	8.077          	4.373
MS.57          	8.062          	4.351
MS.58          	8.047          	4.387
MS.59          	8.03           	4.375
MS.60          	8.015          	4.403
MS.61          	7.997          	4.383
MS.62          	7.982          	4.377
MS.63          	7.967          	4.379
MS.64          	7.95           	4.369
MS.65          	7.935          	4.385
MS.66          	7.918          	4.381
MS.67          	7.902          	4.365
MS.68          	7.887          	4.387
MS.69          	7.872          	4.369
MS.70          	7.855          	4.385
MS.71          	7.84           	4.373
MS.72          	7.825          	4.369
MS.73          	7.807          	4.373
MS.74          	7.793          	4.375
MS.75          	7.777          	4.361
MS.76          	7.762          	4.373
MS.77          	7.747          	4.383
MS.78          	7.73           	4.381
MS.79          	7.715          	4.359
MS.80          	7.7            	4.367
MS.81          	7.685          	4.357
MS.82          	7.67           	4.328
MS.83          	7.655          	4.347
MS.84          	7.637          	4.393
MS.85          	7.622          	4.397
MS.86          	7.607          	4.345
MS.87          	7.592          	4.369
MS.88          	7.577          	4.355
MS.89          	7.562          	4.369
MS.90          	7.547          	4.389
MS.91          	7.532          	4.363
MS.92          	7.517          	4.326
MS.93          	7.503          	4.353
MS.94          	7.487          	4.359
MS.95          	7.472          	4.347
MS.96          	7.457          	4.371
MS.97          	7.442          	4.377
MS.98          	7.427          	4.375
MS.99          	7.412          	4.389
MS.100         	7.398          	4.383
MS.101         	7.382          	4.407
MS.102         	7.367          	4.359
MS.103         	7.355          	4.379
MS.104         	7.34           	4.332
MS.105         	7.325          	4.365
MS.106         	7.31           	4.417
MS.107         	7.295          	4.341
MS.108         	7.28           	4.341
MS.109         	7.265          	4.349
MS.110         	7.253          	4.367
MS.111         	7.237          	4.377
MS.112         	7.222          	4.399
MS.113         	7.207          	4.383
MS.114         	7.195          	4.367
MS.115         	7.18           	4.399
MS.116         	7.165          	4.375
MS.117         	7.15           	4.351
MS.118         	7.137          	4.339
MS.119         	7.122          	4.31
MS.120         	7.108          	4.373
MS.121         	7.095          	4.228
MS.122         	7.08           	4.373
MS.123         	7.065          	4.367
MS.124         	7.052          	4.347
MS.125         	7.037          	4.345
MS.126         	7.023          	4.294
MS.127         	7.01           	4.214
MS.128         	6.995          	4.149
MS.129         	6.98           	4.169
MS.130         	6.967          	4.127
MS.131         	6.952          	4.195
MS.132         	6.94           	4.123
MS.133         	6.925          	4.109
MS.134         	6.912          	4.294
MS.135         	6.898          	4.113
MS.136         	6.885          	4.097
MS.137         	6.87           	4.101
MS.138         	6.858          	4.05
MS.139         	6.842          	4.127
MS.140         	6.83           	4.133
MS.141         	6.815          	4.091
MS.142         	6.802          	4.089
MS.143         	6.787          	4.083
MS.144         	6.775          	4.133
MS.145         	6.762          	4.083
MS.146         	6.747          	4.123
MS.147         	6.735          	4.135
MS.148         	6.72           	4.067
MS.149         	6.707          	4.089
MS.150         	6.695          	4.091
MS.151         	6.68           	4.121
MS.152         	6.668          	4.099
MS.153         	6.655          	4.129
MS.154         	6.64           	4.087
MS.155         	6.628          	4.145
MS.156         	6.615          	4.073
MS.157         	6.6            	4.091
MS.158         	6.587          	4.093
MS.159         	6.575          	4.093
MS.160         	6.562          	4.119
MS.161         	6.547          	4.063
MS.162         	6.535          	4.042
MS.163         	6.523          	4.069
MS.164         	6.51           	4.063
MS.165         	6.495          	3.885
MS.166         	6.483          	3.924
MS.167         	6.47           	3.964
MS.168         	6.457          	4.006
MS.169         	6.445          	3.968
MS.170         	6.432          	3.99
MS.171         	6.42           	3.484
MS.172         	6.405          	3.875
MS.173         	6.392          	3.968
MS.174         	6.38           	3.875
MS.175         	6.367          	3.899
MS.176         	6.355          	3.944
MS.177         	6.342          	3.559
MS.178         	6.33           	3.563
MS.179         	6.317          	3.487
MS.180         	6.305          	3.563
MS.181         	6.293          	3.525
MS.182         	6.28           	3.589
MS.183         	6.267          	3.583
MS.184         	6.255          	3.575
MS.185         	6.242          	3.48
MS.186         	6.23           	3.503
MS.187         	6.217          	3.493
MS.188         	6.205          	3.497
MS.189         	6.192          	3.497
MS.190         	6.18           	3.476
MS.191         	6.168          	3.482
MS.192         	6.155          	3.482
MS.193         	6.142          	3.476
MS.194         	6.13           	3.474
MS.195         	6.117          	3.47
MS.196         	6.105          	3.491
MS.197         	6.092          	3.45
MS.198         	6.082          	3.482
MS.199         	6.07           	3.495
MS.200         	6.057          	3.46
MS.201         	6.045          	3.491
MS.202         	6.032          	3.45
MS.203         	6.02           	3.595
MS.204         	6.01           	3.448
MS.205         	5.997          	3.356
MS.206         	5.985          	3.533
MS.207         	5.972          	3.529
MS.208         	5.96           	3.541
MS.209         	5.95           	3.462
MS.210         	5.938          	3.378
MS.211         	5.925          	3.41
MS.212         	5.912          	3.482
MS.213         	5.902          	3.537
MS.214         	5.89           	3.499
MS.215         	5.878          	3.325
MS.216         	5.867          	3.416
MS.217         	5.855          	3.366
MS.218         	5.842          	3.331
MS.219         	5.83           	3.325
MS.220         	5.82           	3.384
MS.221         	5.807          	3.325
MS.222         	5.797          	3.225
MS.223         	5.785          	3.337
MS.224         	5.773          	3.313
MS.225         	5.762          	3.402
MS.226         	5.75           	3.315
MS.227         	5.737          	3.327
MS.228         	5.727          	3.289
MS.229         	5.715          	3.293
MS.230         	5.705          	3.394
MS.231         	5.692          	3.283
MS.232         	5.682          	3.307
MS.233         	5.67           	3.317
MS.234         	5.66           	3.293
MS.235         	5.648          	3.309
MS.236         	5.637          	3.271
MS.237         	5.625          	3.307
MS.238         	5.615          	3.309
MS.239         	5.602          	3.289
MS.240         	5.592          	3.275
MS.241         	5.58           	3.275
MS.242         	5.57           	3.281
MS.243         	5.557          	3.279
MS.244         	5.547          	3.241
MS.245         	5.535          	3.279
MS.246         	5.525          	3.251
MS.247         	5.512          	3.265
MS.248         	5.503          	3.198
MS.249         	5.492          	3.14
MS.250         	5.48           	3.186
MS.251         	5.47           	3.227
MS.252         	5.46           	3.251
MS.253         	5.447          	3.136
MS.254         	5.438          	3.14
MS.255         	5.425          	3.241
MS.256         	5.415          	3.158
MS.257         	5.405          	3.18
MS.258         	5.392          	3.16
MS.259         	5.382          	3.132
MS.260         	5.372          	3.184
MS.261         	5.362          	3.122
MS.262         	5.35           	3.124
MS.263         	5.34           	3.176
MS.264         	5.33           	3.152
MS.265         	5.318          	3.106
MS.266         	5.307          	3.176
MS.267         	5.297          	3.124
MS.268         	5.287          	3.11
MS.269         	5.277          	3.064
MS.270         	5.265          	3.122
MS.271         	5.255          	3.116
MS.272         	5.245          	3.104
MS.273         	5.235          	3.114
MS.274         	5.225          	3.092
MS.275         	5.213          	3.094
MS.276         	5.202          	3.116
MS.277         	5.193          	3.088
MS.278         	5.182          	3.088
MS.279         	5.172          	3.078
MS.280         	5.162          	3.098
MS.281         	5.15           	3.064
MS.282         	5.14           	2.999
MS.283         	5.13           	3.039
MS.284         	5.12           	3.019
MS.285         	5.11           	3.035
MS.286         	5.1            	3.027
MS.287         	5.09           	3.06
MS.288         	5.08           	3.001
MS.289         	5.07           	3.009
MS.290         	5.06           	3.047
MS.291         	5.05           	3.068
MS.292         	5.04           	2.898
MS.293         	5.03           	2.941
MS.294         	5.02           	2.925
MS.295         	5.01           	3.007
MS.296         	5              	2.874
MS.297         	4.99           	2.935
MS.298         	4.98           	2.421
MS.299         	4.97           	2.997
MS.300         	4.96           	2.917
MS.301         	4.95           	2.324
MS.302         	4.94           	2.812
MS.303         	4.93           	2.85
MS.304         	4.92           	2.405
MS.305         	4.91           	2.32
MS.306         	4.9            	2.798
MS.307         	4.89           	2.373
MS.308         	4.88           	2.29
MS.309         	4.87           	2.284
MS.310         	4.86           	2.304
MS.311         	4.85           	2.258
MS.312         	4.842          	2.3
MS.313         	4.832          	2.276
MS.314         	4.822          	2.268
MS.315         	4.812          	2.24
MS.316         	4.802          	2.254
MS.317         	4.793          	2.23
MS.318         	4.782          	2.242
MS.319         	4.775          	2.252
MS.320         	4.765          	2.173
MS.321         	4.755          	2.258
MS.322         	4.745          	2.216
MS.323         	4.735          	2.087
MS.324         	4.727          	2.197
MS.325         	4.717          	2.216
MS.326         	4.707          	2.175
MS.327         	4.697          	2.157
MS.328         	4.69           	2.125
MS.329         	4.68           	2.147
MS.330         	4.67           	2.129
MS.331         	4.66           	2.071
MS.332         	4.652          	2.177
MS.333         	4.642          	2.075
MS.334         	4.632          	2.081
MS.335         	4.625          	2.129
MS.336         	4.615          	2.048
MS.337         	4.605          	2.079
MS.338         	4.595          	2.071
MS.339         	4.588          	2.077
MS.340         	4.577          	2.067
MS.341         	4.568          	2.05
MS.342         	4.56           	2.044
MS.343         	4.55           	1.934
MS.344         	4.543          	2.046
MS.345         	4.532          	1.839
MS.346         	4.523          	2.034
MS.347         	4.515          	2.119
MS.348         	4.505          	1.922
MS.349         	4.495          	2.075
MS.350         	4.487          	2.058
MS.351         	4.477          	1.817
MS.352         	4.47           	1.831
MS.353         	4.46           	1.915
MS.354         	4.452          	1.865
MS.355         	4.443          	1.776
MS.356         	4.432          	1.974
MS.357         	4.425          	1.766
MS.358         	4.415          	1.781
MS.359         	4.407          	1.732
MS.360         	4.398          	1.799
MS.361         	4.39           	1.869
MS.362         	4.38           	1.781
MS.363         	4.372          	1.829
MS.364         	4.362          	1.764
MS.365         	4.355          	1.889
MS.366         	4.345          	1.772
MS.367         	4.338          	1.629
MS.368         	4.327          	1.736
MS.369         	4.32           	1.893
MS.370         	4.31           	1.722
MS.371         	4.302          	1.736
MS.372         	4.295          	1.658
MS.373         	4.285          	1.577
MS.374         	4.277          	1.67
MS.375         	4.267          	1.783
MS.376         	4.26           	1.728
MS.377         	4.253          	1.732
MS.378         	4.242          	1.728
MS.379         	4.235          	1.724
MS.380         	4.225          	1.605
MS.381         	4.217          	1.613
MS.382         	4.21           	1.513
MS.383         	4.2            	1.444
MS.384         	4.193          	1.646
MS.385         	4.185          	1.392
MS.386         	4.175          	1.474
MS.387         	4.168          	1.448
MS.388         	4.16           	1.291
MS.389         	4.15           	1.291
MS.390         	4.142          	1.428
MS.391         	4.135          	1.241
MS.392         	4.125          	1.468
MS.393         	4.117          	1.366
MS.394         	4.11           	0.989
MS.395         	4.1            	0.933
MS.396         	4.092          	0.812
MS.397         	4.085          	0.924
MS.398         	4.077          	0.759
MS.399         	4.068          	0.81
MS.400         	4.06           	0.86
MS.401         	4.052          	1.051
MS.402         	4.045          	0.683
MS.403         	4.035          	0.959
MS.404         	4.027          	0.786
MS.405         	4.02           	0.624
MS.406         	4.012          	0.695
MS.407         	4.003          	0.713
MS.408         	3.995          	0.723
MS.409         	3.987          	0.58
MS.410         	3.98           	0.655
MS.411         	3.972          	0.582
MS.412         	3.965          	0.58
MS.413         	3.955          	0.703
MS.414         	3.947          	0.612
MS.415         	3.94           	0.683
MS.416         	3.932          	0.669
MS.417         	3.925          	0.546
MS.418         	3.918          	0.651
MS.419         	3.91           	0.614
MS.420         	3.9            	0.604
MS.421         	3.892          	0.516
MS.422         	3.885          	0.665
MS.423         	3.877          	0.514
MS.424         	3.87           	0.602
MS.425         	3.862          	0.528
MS.426         	3.855          	0.491
MS.427         	3.847          	0.459
MS.428         	3.84           	0.506
MS.429         	3.832          	0.524
MS.430         	3.822          	0.425
MS.431         	3.815          	0.461
MS.432         	3.807          	0.457
MS.433         	3.8            	0.453
MS.434         	3.793          	0.493
MS.435         	3.785          	0.405
MS.436         	3.777          	0.407
MS.437         	3.77           	0.24
MS.438         	3.762          	0.284
MS.439         	3.755          	0.298
MS.440         	3.747          	0.352
MS.441         	3.74           	0.286
MS.442         	3.732          	0.274
MS.443         	3.725          	0.165
MS.444         	3.717          	0.344
MS.445         	3.71           	0.175
MS.446         	3.702          	0.175
MS.447         	3.695          	0.214
MS.448         	3.688          	0.222
MS.449         	3.68           	0.181
MS.450         	3.675          	0.234
MS.451         	3.668          	0.214
MS.452         	3.66           	0.252
MS.453         	3.652          	0.222
MS.454         	3.645          	0.111
MS.455         	3.637          	0.226
MS.456         	3.63           	0.175
MS.457         	3.622          	0.127
MS.458         	3.615          	0.157
MS.459         	3.607          	0.157
MS.460         	3.6            	0.159
MS.461         	3.595          	0.133
MS.462         	3.587          	0.171
MS.463         	3.58           	0.135
MS.464         	3.572          	0.127
MS.465         	3.565          	0.167
MS.466         	3.557          	0.125
MS.467         	3.55           	0.133
MS.468         	3.545          	0.125
MS.469         	3.537          	0.077
MS.470         	3.53           	0.147
MS.471         	3.523          	0.131
MS.472         	3.515          	0.125
MS.473         	3.507          	0.127
MS.474         	3.502          	0.123
MS.475         	3.495          	0.141
MS.476         	3.487          	0.073
MS.477         	3.48           	0.125
MS.478         	3.472          	0.089
MS.479         	3.467          	0.107
MS.480         	3.46           	0.064
MS.481         	3.452          	0.081
MS.482         	3.445          	0.103
MS.483         	3.44           	0.058
MS.484         	3.432          	0.089
MS.485         	3.425          	0.073
MS.486         	3.418          	0.062
MS.487         	3.412          	0.077
MS.488         	3.405          	0.03
MS.489         	3.398          	0.05
MS.490         	3.392          	0.062
MS.491         	3.385          	0.068
MS.492         	3.377          	0.068
MS.493         	3.37           	0.046
MS.494         	3.365          	0.04
MS.495         	3.357          	0.01
MS.496         	3.35           	0.064
MS.497         	3.345          	0.036
MS.498         	3.337          	0.018
MS.499         	3.33           	0.056
MS.500         	3.325          	0.083
