File:              	C:\Qtrac\Data\Daniel M Sørensen\MScan multicentre study\Data from centres\Newcastle\Processed data\SMC00218A.QZD
Name:              	UK.NEW.NC.4.1
Protocol:          	MSCAN-R2
Date:              	18/2/20
Start time:        	09:45:26
Age:               	49
Sex:               	M
Temperature:       	34.9
S/R sites:         	APB
NC/disease:        	NC
Operator:          	SM
Comments:
M-SCAN DATA (5.8-2.4m)
Scanpts: 77, 86, 345, 359
Stim. (mA)     	Amp. (mV)
MS.1           	11             	11.072
MS.2           	11             	11.036
MS.3           	11             	11.042
MS.4           	11             	11.03
MS.5           	11             	11.011
MS.6           	11             	11.038
MS.7           	11             	11.046
MS.8           	11             	11.082
MS.9           	11             	11.078
MS.10          	11             	11.04
MS.11          	11             	11.058
MS.12          	11             	11.038
MS.13          	11             	11.086
MS.14          	11             	11.056
MS.15          	11             	11.082
MS.16          	11             	11.086
MS.17          	11             	11.06
MS.18          	11             	11.058
MS.19          	11             	10.967
MS.20          	11             	11.013
MS.21          	11             	11.104
MS.22          	11             	11.054
MS.23          	11             	10.937
MS.24          	10.955         	11.04
MS.25          	10.935         	11.017
MS.26          	10.912         	11.07
MS.27          	10.89          	11.028
MS.28          	10.867         	11.068
MS.29          	10.847         	11.086
MS.30          	10.825         	11.096
MS.31          	10.802         	11.108
MS.32          	10.782         	11.068
MS.33          	10.76          	11.076
MS.34          	10.74          	11.068
MS.35          	10.717         	11.09
MS.36          	10.695         	11.074
MS.37          	10.675         	11.068
MS.38          	10.653         	11.078
MS.39          	10.632         	11.072
MS.40          	10.61          	11.07
MS.41          	10.59          	11.078
MS.42          	10.568         	11.114
MS.43          	10.547         	11.118
MS.44          	10.528         	11.11
MS.45          	10.505         	11.112
MS.46          	10.485         	11.026
MS.47          	10.462         	11.126
MS.48          	10.443         	11.126
MS.49          	10.422         	11.144
MS.50          	10.4           	11.148
MS.51          	10.38          	11.142
MS.52          	10.36          	11.094
MS.53          	10.337         	11.096
MS.54          	10.318         	11.118
MS.55          	10.297         	11.118
MS.56          	10.278         	11.098
MS.57          	10.257         	11.098
MS.58          	10.235         	11.096
MS.59          	10.215         	11.088
MS.60          	10.195         	11.114
MS.61          	10.175         	11.11
MS.62          	10.155         	11.096
MS.63          	10.135         	11.104
MS.64          	10.113         	11.124
MS.65          	10.092         	11.102
MS.66          	10.073         	11.048
MS.67          	10.052         	11.102
MS.68          	10.032         	11.094
MS.69          	10.012         	11.108
MS.70          	9.992          	11.114
MS.71          	9.972          	11.116
MS.72          	9.952          	11.019
MS.73          	9.932          	10.963
MS.74          	9.912          	11.108
MS.75          	9.892          	11.044
MS.76          	9.875          	11.102
MS.77          	9.855          	11.11
MS.78          	9.835          	11.136
MS.79          	9.815          	11.14
MS.80          	9.795          	11.088
MS.81          	9.775          	11.086
MS.82          	9.755          	11.12
MS.83          	9.738          	11.142
MS.84          	9.717          	11.06
MS.85          	9.698          	11.068
MS.86          	9.677          	11.034
MS.87          	9.66           	11.124
MS.88          	9.64           	11.1
MS.89          	9.62           	11.09
MS.90          	9.6            	11.052
MS.91          	9.582          	11.076
MS.92          	9.562          	11.076
MS.93          	9.545          	11.026
MS.94          	9.525          	11.064
MS.95          	9.505          	11.056
MS.96          	9.488          	11.082
MS.97          	9.467          	11.017
MS.98          	9.45           	11.086
MS.99          	9.43           	10.999
MS.100         	9.41           	11.15
MS.101         	9.392          	11.173
MS.102         	9.372          	11.114
MS.103         	9.355          	11.112
MS.104         	9.335          	11.098
MS.105         	9.318          	11.086
MS.106         	9.3            	11.16
MS.107         	9.28           	11.088
MS.108         	9.262          	11.086
MS.109         	9.242          	11.088
MS.110         	9.225          	11.122
MS.111         	9.207          	11.019
MS.112         	9.188          	11.092
MS.113         	9.17           	11.044
MS.114         	9.153          	11.034
MS.115         	9.132          	10.999
MS.116         	9.115          	10.953
MS.117         	9.097          	11.032
MS.118         	9.077          	10.991
MS.119         	9.06           	10.675
MS.120         	9.042          	10.494
MS.121         	9.025          	11.021
MS.122         	9.005          	10.627
MS.123         	8.988          	10.623
MS.124         	8.97           	10.75
MS.125         	8.952          	10.697
MS.126         	8.935          	10.49
MS.127         	8.917          	10.705
MS.128         	8.898          	10.329
MS.129         	8.88           	10.345
MS.130         	8.863          	10.087
MS.131         	8.845          	10.645
MS.132         	8.827          	10.167
MS.133         	8.81           	10.202
MS.134         	8.792          	9.885
MS.135         	8.775          	9.749
MS.136         	8.757          	10.135
MS.137         	8.74           	10.113
MS.138         	8.722          	9.775
MS.139         	8.705          	10.075
MS.140         	8.688          	9.956
MS.141         	8.67           	9.634
MS.142         	8.653          	9.847
MS.143         	8.635          	9.811
MS.144         	8.617          	9.74
MS.145         	8.6            	9.589
MS.146         	8.585          	9.799
MS.147         	8.568          	9.489
MS.148         	8.55           	9.549
MS.149         	8.533          	9.69
MS.150         	8.515          	9.591
MS.151         	8.497          	9.714
MS.152         	8.483          	9.565
MS.153         	8.465          	9.231
MS.154         	8.448          	9.67
MS.155         	8.43           	9.42
MS.156         	8.415          	9.217
MS.157         	8.398          	9.295
MS.158         	8.38           	8.921
MS.159         	8.363          	8.669
MS.160         	8.347          	9.046
MS.161         	8.33           	9.263
MS.162         	8.312          	8.911
MS.163         	8.297          	8.347
MS.164         	8.28           	8.655
MS.165         	8.265          	8.425
MS.166         	8.247          	8.496
MS.167         	8.23           	8.907
MS.168         	8.215          	8.278
MS.169         	8.198          	8.901
MS.170         	8.182          	8.202
MS.171         	8.165          	7.867
MS.172         	8.15           	8.445
MS.173         	8.132          	8.131
MS.174         	8.117          	7.13
MS.175         	8.1            	8.268
MS.176         	8.085          	7.41
MS.177         	8.068          	7.291
MS.178         	8.052          	7.106
MS.179         	8.035          	7.154
MS.180         	8.02           	6.328
MS.181         	8.002          	6.562
MS.182         	7.987          	6.77
MS.183         	7.972          	5.797
MS.184         	7.955          	6.151
MS.185         	7.94           	7.078
MS.186         	7.925          	5.652
MS.187         	7.907          	6.312
MS.188         	7.892          	5.622
MS.189         	7.878          	5.654
MS.190         	7.86           	5.279
MS.191         	7.845          	5.752
MS.192         	7.83           	5.688
MS.193         	7.815          	5.495
MS.194         	7.797          	5.388
MS.195         	7.782          	5.007
MS.196         	7.767          	5.164
MS.197         	7.753          	4.806
MS.198         	7.735          	5.09
MS.199         	7.72           	4.429
MS.200         	7.705          	4.727
MS.201         	7.69           	4.822
MS.202         	7.675          	4.351
MS.203         	7.66           	4.308
MS.204         	7.645          	3.96
MS.205         	7.628          	4.467
MS.206         	7.612          	4.147
MS.207         	7.597          	3.728
MS.208         	7.582          	3.994
MS.209         	7.567          	3.634
MS.210         	7.552          	3.698
MS.211         	7.537          	3.543
MS.212         	7.523          	3.531
MS.213         	7.507          	3.968
MS.214         	7.492          	3.452
MS.215         	7.477          	3.164
MS.216         	7.462          	3.029
MS.217         	7.447          	3.38
MS.218         	7.432          	3.354
MS.219         	7.418          	3.329
MS.220         	7.402          	3.42
MS.221         	7.387          	3.068
MS.222         	7.372          	2.649
MS.223         	7.36           	3.06
MS.224         	7.345          	2.612
MS.225         	7.33           	3.152
MS.226         	7.315          	2.949
MS.227         	7.3            	2.892
MS.228         	7.285          	3.037
MS.229         	7.27           	2.435
MS.230         	7.257          	2.365
MS.231         	7.242          	2.441
MS.232         	7.227          	2.304
MS.233         	7.212          	2.518
MS.234         	7.197          	2.206
MS.235         	7.185          	2.206
MS.236         	7.17           	2.095
MS.237         	7.155          	1.976
MS.238         	7.142          	2.038
MS.239         	7.128          	2.018
MS.240         	7.112          	1.835
MS.241         	7.097          	1.776
MS.242         	7.085          	1.742
MS.243         	7.07           	1.732
MS.244         	7.055          	1.956
MS.245         	7.043          	1.758
MS.246         	7.027          	1.597
MS.247         	7.015          	1.531
MS.248         	7              	1.587
MS.249         	6.985          	1.704
MS.250         	6.972          	1.484
MS.251         	6.957          	1.198
MS.252         	6.945          	1.374
MS.253         	6.93           	1.251
MS.254         	6.918          	1.364
MS.255         	6.902          	1.341
MS.256         	6.89           	1.325
MS.257         	6.875          	1.211
MS.258         	6.862          	1.15
MS.259         	6.847          	1.116
MS.260         	6.835          	1.251
MS.261         	6.82           	1.273
MS.262         	6.807          	1.19
MS.263         	6.793          	1.047
MS.264         	6.78           	0.83
MS.265         	6.765          	1.025
MS.266         	6.753          	0.882
MS.267         	6.74           	0.804
MS.268         	6.725          	0.725
MS.269         	6.712          	0.743
MS.270         	6.697          	0.753
MS.271         	6.685          	0.711
MS.272         	6.672          	0.54
MS.273         	6.657          	0.641
MS.274         	6.645          	0.572
MS.275         	6.632          	0.747
MS.276         	6.617          	0.508
MS.277         	6.605          	0.634
MS.278         	6.592          	0.866
MS.279         	6.58           	0.681
MS.280         	6.565          	0.556
MS.281         	6.552          	0.465
MS.282         	6.54           	0.443
MS.283         	6.527          	0.359
MS.284         	6.512          	0.379
MS.285         	6.5            	0.282
MS.286         	6.487          	0.379
MS.287         	6.475          	0.459
MS.288         	6.462          	0.24
MS.289         	6.45           	0.328
MS.290         	6.435          	0.361
MS.291         	6.422          	0.258
MS.292         	6.41           	0.367
MS.293         	6.398          	0.252
MS.294         	6.385          	0.244
MS.295         	6.372          	0.328
MS.296         	6.36           	0.264
MS.297         	6.347          	0.129
MS.298         	6.332          	0.157
MS.299         	6.32           	0.147
MS.300         	6.307          	0.095
MS.301         	6.295          	0.177
MS.302         	6.282          	0.137
MS.303         	6.27           	0.091
MS.304         	6.257          	0.197
MS.305         	6.245          	0.262
MS.306         	6.233          	0.169
MS.307         	6.22           	0.099
MS.308         	6.207          	0.214
MS.309         	6.195          	0.105
MS.310         	6.182          	0.159
MS.311         	6.17           	0.054
MS.312         	6.16           	0.064
MS.313         	6.148          	0.161
MS.314         	6.135          	0.068
MS.315         	6.122          	0.062
MS.316         	6.11           	0.125
MS.317         	6.097          	0.052
MS.318         	6.085          	0.06
MS.319         	6.072          	0.044
MS.320         	6.06           	0.032
MS.321         	6.05           	0.046
MS.322         	6.037          	0.044
MS.323         	6.025          	0.06
MS.324         	6.012          	0.034
MS.325         	6              	0.064
MS.326         	5.99           	0.03
MS.327         	5.977          	0.026
MS.328         	5.965          	0.042
MS.329         	5.952          	0.034
MS.330         	5.94           	0.028
MS.331         	5.93           	0.022
MS.332         	5.918          	0.016
MS.333         	5.905          	0.026
MS.334         	5.892          	0.02
MS.335         	5.882          	0.024
MS.336         	5.87           	0.006
MS.337         	5.858          	0.034
MS.338         	5.847          	0.006
MS.339         	5.835          	0.014
MS.340         	5.822          	0.01
MS.341         	5.812          	0.016
MS.342         	5.8            	0.01
MS.343         	5.787          	0.02
MS.344         	5.777          	0.02
MS.345         	5.765          	0.002
MS.346         	5.755          	0.012
MS.347         	5.742          	0.016
MS.348         	5.73           	0.012
MS.349         	5.72           	0.012
MS.350         	5.707          	0.016
MS.351         	5.697          	0.01
MS.352         	5.685          	0.008
MS.353         	5.675          	0.012
MS.354         	5.662          	0.016
MS.355         	5.652          	0.006
MS.356         	5.64           	0.008
MS.357         	5.63           	0.004
MS.358         	5.617          	0.004
MS.359         	5.608          	0.014
MS.360         	5.595          	0.012
MS.361         	5.585          	0.006
MS.362         	5.572          	0.004
MS.363         	5.562          	0.004
MS.364         	5.55           	0.008
MS.365         	5.54           	0.004
MS.366         	5.527          	0.000
MS.367         	5.517          	0.004
MS.368         	5.507          	0.006
MS.369         	5.495          	0.004
MS.370         	5.485          	0.004
MS.371         	5.472          	0.002
MS.372         	5.463          	0.008
MS.373         	5.452          	0.004
MS.374         	5.44           	0.006
MS.375         	5.43           	0.008
MS.376         	5.42           	0.004
MS.377         	5.407          	0.01
MS.378         	5.398          	0.012
MS.379         	5.387          	0.01
MS.380         	5.375          	0.018
MS.381         	5.365          	0.008
MS.382         	5.355          	0.002
MS.383         	5.342          	0.01
MS.384         	5.332          	0.006
MS.385         	5.322          	0.004
DERIVED EXCITABILITY VARIABLES
Program = QTracP 9/10/2021
Threshold method = 6 (optimised for CAP, using data for present condition only)
SR method = 1 (using actual data values)
6.                 	0.000               	Peak response\(mV)
9.                 	34.9                	Temperature ( C)
17.                	49                  	Age (years)
18.                	1                   	Sex (M=1, F=2)

EXTRA VARIABLES

MScPeak(mV) = 11.05
MScS5(mA) = 6.63
MScS50(mA) = 7.85
MScS95(mA) = 8.89
MScNSteps = 6
MScSteps(%) = 16.1
MScStepMax(%) = 4.1
MScD50 = 30
MScSlope = 9.35
MScDuration(min) = 3.4
MSFTraces = 283
MSFPeakAmp(mV) = 11.1
MSFNUnits = 99
MSFMeanUnitAmp(uV) = 112
MSFHuntTime(m) = 2.01
MSFError(%) = 6.53
MSFNLarge = 24.4
MSFMedianAmp(%) = 0.762
MSFMedianAmp(mV) = 0.0845
MSFHalfAmpAmp(%) = 1.3
MSFHalfAmpAmp(mV) = 0.144
MSFLargestAmp(%) = 3.96
MSFLargestAmp(mV) = 0.439
MSFMeanRS(%) = 2
MSFSizeLimit(uV) = 27.7
MSFLimitType = 1
MSFSmallestAmp(uV) = 32.4
MSFOpts = 10106121

EXTRA WAVEFORMS


!MScan Model
!99
	1	6	0.39	2
	2	6.15	0.46	2
	3	6.33	0.78	2
	4	6.36	0.42	2
	5	6.41	0.46	2
	6	6.46	0.55	2
	7	6.51	0.73	2
	8	6.56	0.92	2
	9	6.66	1.53	2
	10	6.69	0.36	2
	11	6.71	0.37	2
	12	6.72	0.38	2
	13	6.73	0.36	2
	14	6.74	0.29	2
	15	6.77	0.49	2
	16	6.78	0.34	2
	17	6.79	0.34	2
	18	6.84	1.23	2
	19	6.88	0.66	2
	20	6.9	0.61	2
	21	6.92	0.54	2
	22	6.94	0.45	2
	23	6.96	0.44	2
	24	6.98	0.53	2
	25	7	0.53	2
	26	7.02	0.54	2
	27	7.04	0.65	2
	28	7.05	0.48	2
	29	7.07	0.41	2
	30	7.09	0.5	2
	31	7.1	0.33	2
	32	7.11	0.41	2
	33	7.12	0.38	2
	34	7.13	0.36	2
	35	7.14	0.34	2
	36	7.15	0.38	2
	37	7.17	0.4	2
	38	7.18	0.4	2
	39	7.19	0.45	2
	40	7.2	0.55	2
	41	7.21	0.55	2
	42	7.25	1.61	2
	43	7.28	1.2	2
	44	7.34	2.41	2
	45	7.4	1.85	2
	46	7.45	1.76	2
	47	7.5	1.93	2
	48	7.52	0.78	2
	49	7.54	0.68	2
	50	7.56	0.95	2
	51	7.58	0.97	2
	52	7.59	0.71	2
	53	7.61	0.61	2
	54	7.62	0.57	2
	55	7.63	0.6	2
	56	7.64	0.76	2
	57	7.66	0.76	2
	58	7.67	0.71	2
	59	7.68	0.69	2
	60	7.69	0.7	2
	61	7.7	0.77	2
	62	7.71	0.77	2
	63	7.73	0.76	2
	64	7.74	0.88	2
	65	7.76	1.3	2
	66	7.78	0.96	2
	67	7.81	1.22	2
	68	7.84	1.95	2
	69	7.89	3.05	2
	70	7.92	1.52	2
	71	7.94	1.33	2
	72	7.97	1.99	2
	73	8	2.25	2
	74	8.02	1.55	2
	75	8.03	2.81	2
	76	8.06	2.48	2
	77	8.08	1.56	2
	78	8.12	1.69	2
	79	8.16	3.3	2
	80	8.24	3.96	2
	81	8.3	2.42	2
	82	8.33	0.77	2
	83	8.36	0.88	2
	84	8.38	1.1	2
	85	8.41	1.08	2
	86	8.44	0.69	2
	87	8.48	1	2
	88	8.55	1.87	2
	89	8.61	1.18	2
	90	8.7	1.29	2
	91	8.75	1.01	2
	92	8.8	1.28	2
	93	8.83	0.73	2
	94	8.87	0.89	2
	95	8.93	1.77	2
	96	8.99	1.48	2
	97	9.03	0.9	2
	98	9.1	1.41	2
	99	9.18	0.61	2

