File:              	C:\Qtrac\Data\Daniel M Sørensen\MScan multicentre study\Data from centres\Newcastle\Processed data\SMC00207B.QZD
Name:              	UK.NEW.NC.1.1
Protocol:          	MSCAN-R2
Date:              	7/2/20
Start time:        	10:47:35
Age:               	31
Sex:               	F
Temperature:       	31.3
S/R sites:         	APB
NC/disease:        	NC
Operator:          	SM
Comments:
M-SCAN DATA (6.8-2.1m)
Scanpts: 79, 97, 500, 522
Stim. (mA)     	Amp. (mV)
MS.1           	12.5           	8.044
MS.2           	12.5           	8.044
MS.3           	12.5           	8.044
MS.4           	12.5           	8.032
MS.5           	12.5           	8.038
MS.6           	12.5           	8.044
MS.7           	12.5           	8.038
MS.8           	12.5           	8.051
MS.9           	12.5           	8.051
MS.10          	12.5           	8.057
MS.11          	12.5           	8.063
MS.12          	12.5           	8.063
MS.13          	12.5           	8.081
MS.14          	12.5           	8.075
MS.15          	12.5           	8.087
MS.16          	12.5           	8.081
MS.17          	12.5           	8.087
MS.18          	12.5           	8.087
MS.19          	12.5           	8.093
MS.20          	12.5           	8.087
MS.21          	12.5           	8.105
MS.22          	12.5           	8.093
MS.23          	12.5           	8.13
MS.24          	12.45          	8.112
MS.25          	12.425         	8.105
MS.26          	12.4           	8.112
MS.27          	12.375         	8.118
MS.28          	12.35          	8.118
MS.29          	12.325         	8.112
MS.30          	12.302         	8.099
MS.31          	12.278         	8.118
MS.32          	12.252         	8.124
MS.33          	12.227         	8.105
MS.34          	12.202         	8.112
MS.35          	12.18          	8.105
MS.36          	12.155         	8.093
MS.37          	12.13          	8.099
MS.38          	12.108         	8.118
MS.39          	12.082         	8.112
MS.40          	12.057         	8.118
MS.41          	12.035         	8.099
MS.42          	12.01          	8.087
MS.43          	11.985         	8.112
MS.44          	11.962         	8.075
MS.45          	11.938         	8.099
MS.46          	11.915         	8.099
MS.47          	11.89          	8.105
MS.48          	11.867         	8.093
MS.49          	11.842         	8.093
MS.50          	11.82          	8.093
MS.51          	11.795         	8.093
MS.52          	11.773         	8.087
MS.53          	11.747         	8.099
MS.54          	11.725         	8.118
MS.55          	11.702         	8.081
MS.56          	11.677         	8.081
MS.57          	11.655         	8.093
MS.58          	11.632         	8.099
MS.59          	11.608         	8.099
MS.60          	11.585         	8.099
MS.61          	11.562         	8.099
MS.62          	11.54          	8.087
MS.63          	11.515         	8.093
MS.64          	11.492         	8.099
MS.65          	11.47          	8.112
MS.66          	11.447         	8.105
MS.67          	11.425         	8.105
MS.68          	11.403         	8.099
MS.69          	11.377         	8.105
MS.70          	11.355         	8.118
MS.71          	11.332         	8.124
MS.72          	11.31          	8.112
MS.73          	11.287         	8.105
MS.74          	11.265         	8.087
MS.75          	11.242         	8.105
MS.76          	11.22          	8.105
MS.77          	11.197         	8.105
MS.78          	11.175         	8.118
MS.79          	11.153         	8.124
MS.80          	11.13          	8.105
MS.81          	11.108         	8.093
MS.82          	11.087         	8.105
MS.83          	11.065         	8.118
MS.84          	11.042         	8.13
MS.85          	11.02          	8.099
MS.86          	10.997         	8.112
MS.87          	10.975         	8.112
MS.88          	10.955         	8.118
MS.89          	10.932         	8.112
MS.90          	10.91          	8.13
MS.91          	10.887         	8.112
MS.92          	10.867         	8.099
MS.93          	10.845         	8.099
MS.94          	10.823         	8.118
MS.95          	10.802         	8.118
MS.96          	10.78          	8.112
MS.97          	10.76          	8.124
MS.98          	10.738         	8.112
MS.99          	10.715         	8.099
MS.100         	10.695         	8.13
MS.101         	10.672         	8.118
MS.102         	10.653         	8.118
MS.103         	10.63          	8.112
MS.104         	10.61          	8.093
MS.105         	10.587         	8.124
MS.106         	10.568         	8.112
MS.107         	10.545         	8.124
MS.108         	10.525         	8.112
MS.109         	10.502         	7.959
MS.110         	10.483         	8.112
MS.111         	10.462         	8.087
MS.112         	10.44          	8.099
MS.113         	10.42          	8.081
MS.114         	10.4           	7.812
MS.115         	10.377         	7.928
MS.116         	10.358         	7.898
MS.117         	10.337         	8.02
MS.118         	10.318         	7.928
MS.119         	10.295         	7.935
MS.120         	10.275         	7.916
MS.121         	10.255         	7.892
MS.122         	10.235         	7.886
MS.123         	10.212         	7.898
MS.124         	10.193         	7.904
MS.125         	10.172         	7.928
MS.126         	10.153         	8.044
MS.127         	10.132         	7.892
MS.128         	10.113         	7.837
MS.129         	10.092         	7.831
MS.130         	10.073         	7.935
MS.131         	10.052         	7.874
MS.132         	10.032         	7.904
MS.133         	10.012         	7.825
MS.134         	9.992          	7.91
MS.135         	9.972          	7.806
MS.136         	9.952          	7.898
MS.137         	9.932          	7.77
MS.138         	9.912          	7.861
MS.139         	9.892          	7.794
MS.140         	9.872          	7.904
MS.141         	9.852          	7.562
MS.142         	9.832          	7.861
MS.143         	9.812          	7.867
MS.144         	9.792          	7.782
MS.145         	9.775          	7.886
MS.146         	9.755          	7.568
MS.147         	9.735          	7.788
MS.148         	9.715          	7.532
MS.149         	9.695          	7.379
MS.150         	9.677          	7.477
MS.151         	9.657          	7.513
MS.152         	9.637          	7.404
MS.153         	9.62           	7.672
MS.154         	9.6            	7.532
MS.155         	9.58           	7.538
MS.156         	9.562          	7.751
MS.157         	9.542          	7.422
MS.158         	9.523          	7.184
MS.159         	9.505          	7.483
MS.160         	9.485          	7.526
MS.161         	9.465          	7.55
MS.162         	9.448          	7.251
MS.163         	9.427          	7.373
MS.164         	9.41           	7.434
MS.165         	9.39           	7.379
MS.166         	9.372          	7.336
MS.167         	9.352          	7.367
MS.168         	9.335          	7.324
MS.169         	9.315          	7.025
MS.170         	9.297          	7.385
MS.171         	9.278          	7.397
MS.172         	9.26           	7.025
MS.173         	9.242          	7.33
MS.174         	9.222          	7.263
MS.175         	9.205          	6.586
MS.176         	9.188          	6.86
MS.177         	9.167          	6.311
MS.178         	9.15           	6.439
MS.179         	9.132          	6.366
MS.180         	9.113          	6.335
MS.181         	9.095          	6.836
MS.182         	9.077          	6.299
MS.183         	9.057          	7.062
MS.184         	9.04           	6.378
MS.185         	9.023          	6.445
MS.186         	9.005          	6.281
MS.187         	8.988          	6.195
MS.188         	8.967          	6.427
MS.189         	8.95           	5.865
MS.190         	8.932          	6.647
MS.191         	8.915          	6.238
MS.192         	8.898          	5.823
MS.193         	8.88           	6.067
MS.194         	8.863          	5.713
MS.195         	8.845          	6.573
MS.196         	8.825          	6.03
MS.197         	8.807          	5.719
MS.198         	8.79           	5.78
MS.199         	8.773          	6.085
MS.200         	8.755          	6.152
MS.201         	8.738          	6.14
MS.202         	8.72           	5.719
MS.203         	8.702          	5.591
MS.204         	8.685          	5.707
MS.205         	8.67           	5.621
MS.206         	8.653          	6.012
MS.207         	8.635          	5.573
MS.208         	8.617          	5.542
MS.209         	8.6            	5.432
MS.210         	8.582          	5.493
MS.211         	8.565          	5.524
MS.212         	8.547          	5.42
MS.213         	8.53           	5.774
MS.214         	8.515          	5.481
MS.215         	8.497          	5.463
MS.216         	8.48           	5.554
MS.217         	8.462          	5.322
MS.218         	8.448          	5.542
MS.219         	8.43           	5.255
MS.220         	8.412          	5.328
MS.221         	8.395          	5.347
MS.222         	8.38           	5.286
MS.223         	8.363          	5.255
MS.224         	8.345          	5.438
MS.225         	8.33           	5.206
MS.226         	8.312          	5.292
MS.227         	8.295          	5.286
MS.228         	8.28           	5.206
MS.229         	8.262          	5.145
MS.230         	8.245          	5.316
MS.231         	8.23           	5.188
MS.232         	8.212          	4.98
MS.233         	8.198          	5.249
MS.234         	8.18           	5.096
MS.235         	8.165          	4.993
MS.236         	8.148          	5.139
MS.237         	8.132          	4.956
MS.238         	8.115          	5.255
MS.239         	8.1            	4.663
MS.240         	8.082          	4.852
MS.241         	8.068          	4.773
MS.242         	8.05           	4.633
MS.243         	8.035          	5.048
MS.244         	8.017          	4.376
MS.245         	8.002          	4.23
MS.246         	7.987          	4.688
MS.247         	7.97           	4.956
MS.248         	7.955          	4.523
MS.249         	7.938          	4.028
MS.250         	7.922          	4.462
MS.251         	7.907          	4.602
MS.252         	7.89           	3.827
MS.253         	7.875          	4.065
MS.254         	7.86           	3.845
MS.255         	7.845          	4.065
MS.256         	7.827          	3.455
MS.257         	7.812          	3.485
MS.258         	7.797          	4.059
MS.259         	7.782          	3.76
MS.260         	7.765          	3.601
MS.261         	7.75           	3.253
MS.262         	7.735          	2.478
MS.263         	7.72           	3.217
MS.264         	7.705          	2.557
MS.265         	7.688          	2.698
MS.266         	7.672          	3.168
MS.267         	7.657          	2.6
MS.268         	7.642          	2.991
MS.269         	7.628          	1.965
MS.270         	7.612          	2.704
MS.271         	7.597          	2.875
MS.272         	7.582          	2.1
MS.273         	7.567          	2.679
MS.274         	7.552          	1.978
MS.275         	7.535          	2.527
MS.276         	7.52           	2.448
MS.277         	7.505          	2.38
MS.278         	7.49           	1.813
MS.279         	7.475          	1.703
MS.280         	7.462          	2.063
MS.281         	7.447          	1.648
MS.282         	7.432          	1.66
MS.283         	7.418          	1.52
MS.284         	7.402          	1.489
MS.285         	7.387          	1.752
MS.286         	7.372          	1.294
MS.287         	7.357          	1.288
MS.288         	7.342          	1.526
MS.289         	7.327          	1.276
MS.290         	7.312          	1.416
MS.291         	7.3            	1.288
MS.292         	7.285          	1.208
MS.293         	7.27           	1.208
MS.294         	7.255          	1.172
MS.295         	7.24           	1.074
MS.296         	7.227          	1.111
MS.297         	7.212          	1.025
MS.298         	7.197          	1.117
MS.299         	7.182          	0.995
MS.300         	7.168          	1.324
MS.301         	7.155          	1.117
MS.302         	7.14           	0.83
MS.303         	7.125          	0.83
MS.304         	7.112          	0.946
MS.305         	7.097          	0.897
MS.306         	7.082          	0.873
MS.307         	7.07           	0.745
MS.308         	7.055          	0.751
MS.309         	7.04           	1.056
MS.310         	7.027          	0.568
MS.311         	7.012          	0.897
MS.312         	6.997          	0.842
MS.313         	6.985          	0.604
MS.314         	6.97           	0.696
MS.315         	6.957          	0.574
MS.316         	6.942          	0.446
MS.317         	6.93           	0.537
MS.318         	6.915          	0.476
MS.319         	6.902          	0.452
MS.320         	6.887          	0.488
MS.321         	6.875          	0.635
MS.322         	6.86           	0.281
MS.323         	6.847          	0.482
MS.324         	6.832          	0.275
MS.325         	6.82           	0.33
MS.326         	6.805          	0.195
MS.327         	6.793          	0.275
MS.328         	6.777          	0.244
MS.329         	6.765          	0.427
MS.330         	6.75           	0.256
MS.331         	6.737          	0.14
MS.332         	6.725          	0.397
MS.333         	6.71           	0.092
MS.334         	6.697          	0.317
MS.335         	6.685          	0.262
MS.336         	6.67           	0.262
MS.337         	6.657          	0.342
MS.338         	6.645          	0.098
MS.339         	6.63           	0.281
MS.340         	6.617          	0.275
MS.341         	6.605          	0.11
MS.342         	6.59           	0.128
MS.343         	6.577          	0.128
MS.344         	6.565          	0.11
MS.345         	6.552          	0.098
MS.346         	6.537          	0.269
MS.347         	6.525          	0.116
MS.348         	6.512          	0.116
MS.349         	6.5            	0.11
MS.350         	6.487          	0.116
MS.351         	6.472          	0.116
MS.352         	6.46           	0.128
MS.353         	6.447          	0.293
MS.354         	6.435          	0.11
MS.355         	6.422          	0.098
MS.356         	6.41           	0.134
MS.357         	6.398          	0.122
MS.358         	6.382          	0.122
MS.359         	6.37           	0.128
MS.360         	6.358          	0.128
MS.361         	6.345          	0.116
MS.362         	6.332          	0.153
MS.363         	6.32           	0.146
MS.364         	6.307          	0.14
MS.365         	6.295          	0.14
MS.366         	6.282          	0.134
MS.367         	6.27           	0.14
MS.368         	6.257          	0.14
MS.369         	6.245          	0.134
MS.370         	6.233          	0.128
MS.371         	6.22           	0.14
MS.372         	6.207          	0.146
MS.373         	6.195          	0.14
MS.374         	6.182          	0.14
MS.375         	6.17           	0.14
MS.376         	6.157          	0.14
MS.377         	6.145          	0.14
MS.378         	6.132          	0.14
MS.379         	6.12           	0.14
MS.380         	6.11           	0.14
MS.381         	6.097          	0.14
MS.382         	6.085          	0.153
MS.383         	6.072          	0.146
MS.384         	6.06           	0.146
MS.385         	6.047          	0.14
MS.386         	6.035          	0.146
MS.387         	6.025          	0.146
MS.388         	6.012          	0.146
MS.389         	6              	0.14
MS.390         	5.987          	0.146
MS.391         	5.975          	0.146
MS.392         	5.965          	0.14
MS.393         	5.952          	0.14
MS.394         	5.94           	0.146
MS.395         	5.927          	0.134
MS.396         	5.918          	0.146
MS.397         	5.905          	0.146
MS.398         	5.892          	0.146
MS.399         	5.88           	0.14
MS.400         	5.87           	0.14
MS.401         	5.858          	0.134
MS.402         	5.845          	0.146
MS.403         	5.835          	0.146
MS.404         	5.822          	0.146
MS.405         	5.81           	0.146
MS.406         	5.8            	0.134
MS.407         	5.787          	0.153
MS.408         	5.775          	0.14
MS.409         	5.765          	0.14
MS.410         	5.753          	0.153
MS.411         	5.742          	0.146
MS.412         	5.73           	0.146
MS.413         	5.717          	0.146
MS.414         	5.707          	0.146
MS.415         	5.695          	0.146
MS.416         	5.685          	0.153
MS.417         	5.672          	0.14
MS.418         	5.662          	0.146
MS.419         	5.65           	0.146
MS.420         	5.64           	0.146
MS.421         	5.628          	0.134
MS.422         	5.617          	0.14
MS.423         	5.605          	0.146
MS.424         	5.595          	0.146
MS.425         	5.582          	0.146
MS.426         	5.572          	0.146
MS.427         	5.56           	0.14
MS.428         	5.55           	0.146
MS.429         	5.537          	0.146
MS.430         	5.527          	0.14
MS.431         	5.517          	0.146
MS.432         	5.505          	0.146
MS.433         	5.495          	0.153
MS.434         	5.483          	0.146
MS.435         	5.472          	0.146
MS.436         	5.463          	0.146
MS.437         	5.45           	0.159
MS.438         	5.44           	0.146
MS.439         	5.43           	0.146
MS.440         	5.418          	0.153
MS.441         	5.407          	0.14
MS.442         	5.398          	0.146
MS.443         	5.385          	0.146
MS.444         	5.375          	0.14
MS.445         	5.365          	0.146
MS.446         	5.352          	0.14
MS.447         	5.342          	0.146
MS.448         	5.332          	0.146
MS.449         	5.322          	0.146
MS.450         	5.31           	0.153
MS.451         	5.3            	0.153
MS.452         	5.29           	0.146
MS.453         	5.28           	0.146
MS.454         	5.267          	-0.012
MS.455         	5.257          	0.146
MS.456         	5.247          	0.153
MS.457         	5.237          	0.146
MS.458         	5.227          	0.146
MS.459         	5.215          	0.146
MS.460         	5.205          	0.14
MS.461         	5.195          	0.146
MS.462         	5.185          	0.146
MS.463         	5.175          	0.146
MS.464         	5.165          	0.159
MS.465         	5.155          	0.146
MS.466         	5.142          	0.146
MS.467         	5.132          	-0.006
MS.468         	5.122          	0.153
MS.469         	5.112          	0.146
MS.470         	5.102          	0.000
MS.471         	5.092          	-0.006
MS.472         	5.082          	0.146
MS.473         	5.072          	-0.006
MS.474         	5.062          	0.006
MS.475         	5.052          	0.153
MS.476         	5.043          	0.146
MS.477         	5.032          	0.000
MS.478         	5.023          	-0.006
MS.479         	5.012          	0.000
MS.480         	5.003          	0.14
MS.481         	4.992          	-0.006
MS.482         	4.983          	-0.006
MS.483         	4.972          	0.006
MS.484         	4.963          	0.146
MS.485         	4.952          	-0.006
MS.486         	4.943          	0.146
MS.487         	4.932          	-0.006
MS.488         	4.922          	0.006
MS.489         	4.912          	0.000
MS.490         	4.902          	-0.006
MS.491         	4.892          	-0.006
MS.492         	4.882          	-0.006
MS.493         	4.872          	-0.006
MS.494         	4.862          	-0.006
MS.495         	4.852          	-0.006
MS.496         	4.845          	0.000
MS.497         	4.835          	0.006
MS.498         	4.825          	0.000
MS.499         	4.815          	-0.006
MS.500         	4.805          	-0.006
MS.501         	4.795          	0.000
