File:              	C:\Qtrac\Data\Daniel M Sørensen\MScan multicentre study\Data from centres\Oslo\Processed data\SZC00702A.QZD
Name:              	NO.OSL.NC.20.2
Protocol:          	MSCAN-R2
Date:              	2/7/20
Start time:        	08:43:47
Age:               	59
Sex:               	M
Temperature:       	32.8
S/R sites:         	APB
NC/disease:        	NC20
Operator:          	SZ
Comments:          	Test2 muskelart at start
M-SCAN DATA (9.7-4.7m)
Scanpts: 10, 19, 511, 539
Stim. (mA)     	Amp. (mV)
MS.1           	14             	14.435
MS.2           	14             	14.536
MS.3           	14             	14.222
MS.4           	14             	14.222
MS.5           	14             	14.397
MS.6           	14             	14.063
MS.7           	14             	14.158
MS.8           	14             	14.127
MS.9           	14             	14.224
MS.10          	14             	14.387
MS.11          	14             	14.23
MS.12          	14             	14.236
MS.13          	14             	14.226
MS.14          	14             	13.938
MS.15          	14             	14.131
MS.16          	14             	14.274
MS.17          	14             	14.119
MS.18          	14             	14.051
MS.19          	14             	14.006
MS.20          	14             	14.184
MS.21          	14             	14.162
MS.22          	14             	13.988
MS.23          	14             	14.172
MS.24          	13.915         	14.246
MS.25          	13.887         	14.141
MS.26          	13.86          	13.936
MS.27          	13.832         	14.125
MS.28          	13.805         	13.878
MS.29          	13.778         	14.117
MS.30          	13.75          	13.867
MS.31          	13.722         	14.031
MS.32          	13.695         	13.954
MS.33          	13.667         	14.039
MS.34          	13.64          	13.934
MS.35          	13.612         	13.934
MS.36          	13.585         	13.727
MS.37          	13.56          	13.819
MS.38          	13.532         	13.863
MS.39          	13.505         	13.821
MS.40          	13.477         	13.646
MS.41          	13.45          	13.731
MS.42          	13.425         	13.892
MS.43          	13.398         	13.817
MS.44          	13.37          	13.992
MS.45          	13.345         	13.936
MS.46          	13.318         	13.767
MS.47          	13.29          	13.718
MS.48          	13.265         	13.727
MS.49          	13.237         	13.656
MS.50          	13.21          	13.71
MS.51          	13.185         	13.729
MS.52          	13.157         	13.569
MS.53          	13.132         	13.443
MS.54          	13.105         	13.577
MS.55          	13.08          	13.555
MS.56          	13.052         	13.223
MS.57          	13.028         	13.555
MS.58          	13.002         	13.368
MS.59          	12.975         	13.277
MS.60          	12.95          	12.931
MS.61          	12.922         	13.183
MS.62          	12.898         	12.913
MS.63          	12.872         	13.116
MS.64          	12.847         	13.181
MS.65          	12.82          	12.915
MS.66          	12.795         	13.122
MS.67          	12.77          	12.897
MS.68          	12.745         	12.703
MS.69          	12.717         	12.848
MS.70          	12.693         	12.864
MS.71          	12.667         	12.665
MS.72          	12.642         	12.407
MS.73          	12.617         	12.629
MS.74          	12.592         	12.373
MS.75          	12.568         	12.131
MS.76          	12.542         	12.161
MS.77          	12.517         	12.484
MS.78          	12.492         	12.311
MS.79          	12.467         	11.932
MS.80          	12.443         	12.037
MS.81          	12.417         	12.119
MS.82          	12.392         	11.912
MS.83          	12.367         	12.075
MS.84          	12.342         	11.785
MS.85          	12.318         	11.805
MS.86          	12.292         	11.67
MS.87          	12.267         	11.773
MS.88          	12.245         	12.178
MS.89          	12.22          	11.467
MS.90          	12.195         	11.183
MS.91          	12.17          	11.181
MS.92          	12.148         	10.921
MS.93          	12.122         	11.11
MS.94          	12.097         	10.657
MS.95          	12.075         	10.987
MS.96          	12.05          	10.887
MS.97          	12.025         	10.695
MS.98          	12.002         	10.854
MS.99          	11.977         	10.866
MS.100         	11.955         	10.52
MS.101         	11.93          	10.331
MS.102         	11.905         	10.506
MS.103         	11.882         	10.188
MS.104         	11.858         	10.373
MS.105         	11.835         	10.224
MS.106         	11.812         	10.226
MS.107         	11.787         	10.145
MS.108         	11.765         	10.008
MS.109         	11.74          	9.869
MS.110         	11.717         	9.89
MS.111         	11.693         	9.509
MS.112         	11.67          	9.97
MS.113         	11.648         	9.489
MS.114         	11.625         	9.648
MS.115         	11.6           	9.656
MS.116         	11.577         	9.469
MS.117         	11.555         	9.334
MS.118         	11.53          	9.223
MS.119         	11.507         	9.249
MS.120         	11.485         	9.376
MS.121         	11.462         	9.136
MS.122         	11.44          	9.261
MS.123         	11.417         	9.058
MS.124         	11.392         	9.072
MS.125         	11.37          	9.287
MS.126         	11.347         	8.832
MS.127         	11.325         	8.961
MS.128         	11.302         	8.919
MS.129         	11.28          	8.814
MS.130         	11.257         	8.671
MS.131         	11.235         	8.687
MS.132         	11.212         	8.701
MS.133         	11.19          	8.677
MS.134         	11.167         	8.705
MS.135         	11.145         	8.669
MS.136         	11.122         	8.695
MS.137         	11.1           	8.56
MS.138         	11.08          	8.427
MS.139         	11.057         	8.492
MS.140         	11.035         	8.482
MS.141         	11.012         	8.647
MS.142         	10.99          	8.542
MS.143         	10.97          	8.389
MS.144         	10.948         	8.29
MS.145         	10.925         	8.284
MS.146         	10.903         	8.371
MS.147         	10.882         	8.248
MS.148         	10.86          	8.314
MS.149         	10.837         	8.21
MS.150         	10.818         	8.127
MS.151         	10.795         	8.224
MS.152         	10.773         	8.071
MS.153         	10.752         	7.986
MS.154         	10.73          	8.262
MS.155         	10.707         	7.926
MS.156         	10.688         	7.988
MS.157         	10.665         	8.061
MS.158         	10.645         	7.799
MS.159         	10.622         	7.767
MS.160         	10.602         	7.992
MS.161         	10.58          	7.732
MS.162         	10.56          	7.712
MS.163         	10.537         	7.908
MS.164         	10.517         	7.807
MS.165         	10.497         	7.769
MS.166         	10.475         	7.553
MS.167         	10.455         	7.682
MS.168         	10.435         	7.618
MS.169         	10.412         	7.638
MS.170         	10.392         	7.597
MS.171         	10.372         	7.392
MS.172         	10.35          	7.555
MS.173         	10.33          	7.559
MS.174         	10.31          	7.279
MS.175         	10.29          	7.547
MS.176         	10.267         	7.382
MS.177         	10.247         	7.317
MS.178         	10.227         	7.191
MS.179         	10.207         	7.332
MS.180         	10.188         	7.05
MS.181         	10.165         	7.227
MS.182         	10.145         	6.947
MS.183         	10.125         	7.156
MS.184         	10.105         	7.001
MS.185         	10.085         	7.193
MS.186         	10.065         	7.023
MS.187         	10.045         	6.945
MS.188         	10.025         	6.814
MS.189         	10.005         	6.85
MS.190         	9.985          	6.993
MS.191         	9.965          	6.818
MS.192         	9.945          	7.116
MS.193         	9.925          	6.89
MS.194         	9.905          	6.671
MS.195         	9.885          	6.731
MS.196         	9.865          	6.903
MS.197         	9.845          	6.54
MS.198         	9.825          	6.534
MS.199         	9.807          	6.629
MS.200         	9.787          	6.377
MS.201         	9.767          	6.631
MS.202         	9.747          	6.469
MS.203         	9.727          	6.459
MS.204         	9.71           	6.431
MS.205         	9.69           	6.397
MS.206         	9.67           	6.308
MS.207         	9.65           	6.369
MS.208         	9.632          	6.397
MS.209         	9.613          	6.536
MS.210         	9.592          	6.54
MS.211         	9.575          	6.391
MS.212         	9.555          	6.276
MS.213         	9.535          	6.125
MS.214         	9.517          	6.254
MS.215         	9.497          	6.32
MS.216         	9.48           	6.294
MS.217         	9.46           	5.962
MS.218         	9.44           	6.216
MS.219         	9.422          	5.889
MS.220         	9.403          	6.137
MS.221         	9.385          	6.097
MS.222         	9.365          	6.002
MS.223         	9.347          	5.857
MS.224         	9.327          	6.194
MS.225         	9.31           	6.004
MS.226         	9.29           	5.95
MS.227         	9.273          	5.984
MS.228         	9.255          	5.948
MS.229         	9.235          	5.831
MS.230         	9.217          	5.916
MS.231         	9.198          	5.942
MS.232         	9.18           	5.887
MS.233         	9.162          	5.734
MS.234         	9.142          	5.813
MS.235         	9.125          	5.783
MS.236         	9.108          	5.374
MS.237         	9.09           	5.406
MS.238         	9.07           	5.37
MS.239         	9.052          	5.829
MS.240         	9.035          	5.36
MS.241         	9.017          	5.734
MS.242         	8.997          	5.593
MS.243         	8.98           	5.227
MS.244         	8.962          	5.585
MS.245         	8.945          	5.682
MS.246         	8.927          	5.402
MS.247         	8.91           	5.082
MS.248         	8.89           	5.591
MS.249         	8.872          	5.229
MS.250         	8.855          	5.112
MS.251         	8.837          	4.826
MS.252         	8.82           	5.184
MS.253         	8.802          	4.866
MS.254         	8.785          	5.023
MS.255         	8.767          	4.842
MS.256         	8.75           	5.003
MS.257         	8.733          	4.639
MS.258         	8.715          	4.967
MS.259         	8.698          	4.637
MS.260         	8.68           	4.792
MS.261         	8.662          	4.627
MS.262         	8.645          	4.778
MS.263         	8.627          	4.58
MS.264         	8.61           	4.584
MS.265         	8.595          	4.56
MS.266         	8.577          	4.546
MS.267         	8.56           	4.536
MS.268         	8.542          	4.534
MS.269         	8.525          	4.357
MS.270         	8.507          	4.441
MS.271         	8.492          	4.409
MS.272         	8.475          	4.395
MS.273         	8.457          	4.345
MS.274         	8.44           	4.328
MS.275         	8.422          	4.345
MS.276         	8.408          	4.278
MS.277         	8.39           	4.294
MS.278         	8.372          	4.216
MS.279         	8.358          	4.367
MS.280         	8.34           	4.252
MS.281         	8.323          	3.889
MS.282         	8.307          	4.294
MS.283         	8.29           	4.181
MS.284         	8.273          	3.946
MS.285         	8.257          	3.901
MS.286         	8.24           	4.111
MS.287         	8.225          	4.272
MS.288         	8.207          	4.222
MS.289         	8.19           	3.887
MS.290         	8.175          	4.125
MS.291         	8.158          	4.137
MS.292         	8.142          	3.805
MS.293         	8.125          	3.783
MS.294         	8.11           	3.855
MS.295         	8.092          	3.69
MS.296         	8.077          	3.801
MS.297         	8.06           	3.676
MS.298         	8.045          	4.067
MS.299         	8.03           	3.678
MS.300         	8.012          	3.551
MS.301         	7.997          	3.64
MS.302         	7.98           	3.642
MS.303         	7.965          	3.716
MS.304         	7.95           	3.519
MS.305         	7.932          	3.533
MS.306         	7.918          	3.372
MS.307         	7.902          	3.493
MS.308         	7.885          	3.434
MS.309         	7.87           	3.376
MS.310         	7.855          	3.559
MS.311         	7.837          	3.09
MS.312         	7.822          	3.203
MS.313         	7.807          	3.104
MS.314         	7.793          	2.999
MS.315         	7.775          	2.9
MS.316         	7.76           	3.041
MS.317         	7.745          	3.041
MS.318         	7.73           	2.743
MS.319         	7.715          	2.773
MS.320         	7.697          	2.679
MS.321         	7.682          	2.649
MS.322         	7.668          	2.88
MS.323         	7.652          	2.624
MS.324         	7.637          	2.318
MS.325         	7.622          	2.508
MS.326         	7.607          	2.179
MS.327         	7.592          	2.492
MS.328         	7.577          	2.278
MS.329         	7.562          	2.246
MS.330         	7.547          	2.195
MS.331         	7.53           	2.129
MS.332         	7.515          	1.873
MS.333         	7.5            	1.964
MS.334         	7.485          	1.934
MS.335         	7.47           	1.785
MS.336         	7.457          	1.807
MS.337         	7.442          	1.907
MS.338         	7.427          	1.891
MS.339         	7.412          	1.843
MS.340         	7.398          	1.515
MS.341         	7.382          	1.748
MS.342         	7.367          	1.468
MS.343         	7.352          	1.974
MS.344         	7.337          	1.545
MS.345         	7.322          	1.376
MS.346         	7.307          	1.43
MS.347         	7.295          	1.464
MS.348         	7.28           	1.509
MS.349         	7.265          	1.364
MS.350         	7.25           	1.279
MS.351         	7.235          	1.273
MS.352         	7.222          	1.331
MS.353         	7.207          	1.217
MS.354         	7.192          	1.213
MS.355         	7.177          	1.227
MS.356         	7.165          	0.898
MS.357         	7.15           	1.19
MS.358         	7.135          	1.051
MS.359         	7.12           	1.231
MS.360         	7.108          	1.017
MS.361         	7.092          	1.146
MS.362         	7.077          	0.987
MS.363         	7.065          	1.025
MS.364         	7.05           	1.017
MS.365         	7.035          	0.84
MS.366         	7.023          	1.017
MS.367         	7.007          	0.842
MS.368         	6.995          	0.977
MS.369         	6.98           	0.862
MS.370         	6.965          	0.933
MS.371         	6.952          	0.896
MS.372         	6.938          	0.647
MS.373         	6.925          	0.731
MS.374         	6.91           	0.61
MS.375         	6.898          	0.814
MS.376         	6.882          	0.588
MS.377         	6.87           	0.667
MS.378         	6.855          	0.916
MS.379         	6.842          	0.649
MS.380         	6.827          	0.518
MS.381         	6.815          	0.542
MS.382         	6.8            	0.649
MS.383         	6.787          	0.618
MS.384         	6.773          	0.612
MS.385         	6.76           	0.59
MS.386         	6.747          	0.58
MS.387         	6.733          	0.562
MS.388         	6.72           	0.52
MS.389         	6.707          	0.473
MS.390         	6.692          	0.532
MS.391         	6.68           	0.59
MS.392         	6.665          	0.558
MS.393         	6.652          	0.558
MS.394         	6.64           	0.475
MS.395         	6.628          	0.514
MS.396         	6.612          	0.57
MS.397         	6.6            	0.546
MS.398         	6.587          	0.431
MS.399         	6.572          	0.437
MS.400         	6.56           	0.471
MS.401         	6.547          	0.415
MS.402         	6.535          	0.479
MS.403         	6.52           	0.463
MS.404         	6.507          	0.564
MS.405         	6.495          	0.385
MS.406         	6.483          	0.409
MS.407         	6.47           	0.373
MS.408         	6.457          	0.427
MS.409         	6.442          	0.479
MS.410         	6.43           	0.35
MS.411         	6.418          	0.489
MS.412         	6.405          	0.316
MS.413         	6.392          	0.352
MS.414         	6.38           	0.348
MS.415         	6.367          	0.413
MS.416         	6.355          	0.379
MS.417         	6.34           	0.346
MS.418         	6.327          	0.338
MS.419         	6.315          	0.429
MS.420         	6.302          	0.342
MS.421         	6.29           	0.31
MS.422         	6.277          	0.399
MS.423         	6.265          	0.399
MS.424         	6.253          	0.346
MS.425         	6.24           	0.32
MS.426         	6.227          	0.314
MS.427         	6.215          	0.318
MS.428         	6.202          	0.322
MS.429         	6.19           	0.338
MS.430         	6.177          	0.312
MS.431         	6.165          	0.35
MS.432         	6.152          	0.332
MS.433         	6.142          	0.294
MS.434         	6.13           	0.294
MS.435         	6.117          	0.318
MS.436         	6.105          	0.328
MS.437         	6.092          	0.238
MS.438         	6.08           	0.242
MS.439         	6.067          	0.298
MS.440         	6.055          	0.272
MS.441         	6.045          	0.236
MS.442         	6.032          	0.26
MS.443         	6.02           	0.238
MS.444         	6.007          	0.27
MS.445         	5.995          	0.234
MS.446         	5.985          	0.173
MS.447         	5.972          	0.171
MS.448         	5.96           	0.292
MS.449         	5.947          	0.193
MS.450         	5.935          	0.167
MS.451         	5.925          	0.228
MS.452         	5.912          	0.167
MS.453         	5.9            	0.153
MS.454         	5.89           	0.135
MS.455         	5.878          	0.171
MS.456         	5.865          	0.139
MS.457         	5.852          	0.137
MS.458         	5.842          	0.141
MS.459         	5.83           	0.137
MS.460         	5.817          	0.143
MS.461         	5.807          	0.117
MS.462         	5.795          	0.173
MS.463         	5.785          	0.123
MS.464         	5.773          	0.177
MS.465         	5.76           	0.123
MS.466         	5.75           	0.115
MS.467         	5.737          	0.119
MS.468         	5.725          	0.143
MS.469         	5.715          	0.139
MS.470         	5.702          	0.117
MS.471         	5.692          	0.123
MS.472         	5.68           	0.121
MS.473         	5.67           	0.121
MS.474         	5.657          	0.121
MS.475         	5.648          	0.123
MS.476         	5.635          	0.115
MS.477         	5.625          	0.121
MS.478         	5.612          	0.121
MS.479         	5.602          	0.115
MS.480         	5.59           	0.121
MS.481         	5.58           	0.115
MS.482         	5.567          	0.119
MS.483         	5.557          	0.111
MS.484         	5.545          	0.119
MS.485         	5.535          	0.119
MS.486         	5.523          	0.113
MS.487         	5.512          	0.113
MS.488         	5.503          	0.109
MS.489         	5.49           	0.123
MS.490         	5.48           	0.113
MS.491         	5.47           	0.121
MS.492         	5.457          	0.117
MS.493         	5.447          	0.107
MS.494         	5.435          	0.113
MS.495         	5.425          	0.111
MS.496         	5.415          	0.111
MS.497         	5.402          	0.117
