File:              	C:\Qtrac\Data\Daniel M Sørensen\MScan multicentre study\Data from centres\Oslo\IronKey\Oslo_NC_first examination\SZC00428A.QZD
Name:              	NO.OSL.NC.2.1
Protocol:          	MSCAN-R2
Date:              	28/4/20
Start time:        	11:56:44
Age:               	41
Sex:               	F
Temperature:       	31.3
S/R sites:         	Median Wr-APB
NC/disease:        	NC
Operator:          	SZ
Comments:          	Control 2
M-SCAN DATA (6.6-3m)
Scanpts: 17, 21, 364, 373
Stim. (mA)     	Amp. (mV)
MS.1           	9.5            	9.954
MS.2           	9.5            	9.978
MS.3           	9.5            	9.982
MS.4           	9.5            	9.958
MS.5           	9.5            	9.958
MS.6           	9.5            	9.97
MS.7           	9.5            	10.002
MS.8           	9.5            	9.996
MS.9           	9.5            	9.994
MS.10          	9.5            	10.002
MS.11          	9.5            	10.006
MS.12          	9.5            	9.99
MS.13          	9.5            	9.992
MS.14          	9.5            	10.006
MS.15          	9.5            	9.978
MS.16          	9.5            	9.982
MS.17          	9.5            	9.982
MS.18          	9.5            	9.996
MS.19          	9.5            	10
MS.20          	9.5            	10.002
MS.21          	9.5            	9.984
MS.22          	9.5            	9.996
MS.23          	9.5            	10.004
MS.24          	9.462          	10.01
MS.25          	9.443          	10.018
MS.26          	9.425          	10.018
MS.27          	9.405          	10.014
MS.28          	9.387          	10.008
MS.29          	9.367          	9.998
MS.30          	9.35           	10.006
MS.31          	9.33           	10.031
MS.32          	9.312          	10.053
MS.33          	9.292          	10.01
MS.34          	9.275          	10.035
MS.35          	9.255          	10.008
MS.36          	9.238          	10.018
MS.37          	9.22           	9.93
MS.38          	9.2            	10.051
MS.39          	9.182          	9.98
MS.40          	9.165          	9.916
MS.41          	9.145          	10.051
MS.42          	9.127          	10.047
MS.43          	9.11           	9.944
MS.44          	9.09           	10.031
MS.45          	9.073          	10.024
MS.46          	9.055          	10.012
MS.47          	9.037          	10.041
MS.48          	9.017          	10.047
MS.49          	9              	9.96
MS.50          	8.983          	10.045
MS.51          	8.965          	9.956
MS.52          	8.948          	9.948
MS.53          	8.93           	9.968
MS.54          	8.91           	9.952
MS.55          	8.892          	9.952
MS.56          	8.875          	9.801
MS.57          	8.858          	9.906
MS.58          	8.84           	9.896
MS.59          	8.823          	10.004
MS.60          	8.805          	9.91
MS.61          	8.787          	9.912
MS.62          	8.77           	9.9
MS.63          	8.752          	9.833
MS.64          	8.735          	9.807
MS.65          	8.717          	9.896
MS.66          	8.7            	9.867
MS.67          	8.682          	9.912
MS.68          	8.665          	9.787
MS.69          	8.648          	9.859
MS.70          	8.63           	9.787
MS.71          	8.613          	9.787
MS.72          	8.595          	9.761
MS.73          	8.577          	9.851
MS.74          	8.562          	9.851
MS.75          	8.545          	9.797
MS.76          	8.528          	9.71
MS.77          	8.51           	9.773
MS.78          	8.492          	9.751
MS.79          	8.477          	9.785
MS.80          	8.46           	9.797
MS.81          	8.443          	9.787
MS.82          	8.425          	9.797
MS.83          	8.41           	9.831
MS.84          	8.392          	9.789
MS.85          	8.375          	9.803
MS.86          	8.358          	9.809
MS.87          	8.342          	9.813
MS.88          	8.325          	9.801
MS.89          	8.307          	9.799
MS.90          	8.292          	9.793
MS.91          	8.275          	9.811
MS.92          	8.26           	9.799
MS.93          	8.242          	9.833
MS.94          	8.225          	9.817
MS.95          	8.21           	9.793
MS.96          	8.193          	9.785
MS.97          	8.177          	9.797
MS.98          	8.16           	9.819
MS.99          	8.145          	9.823
MS.100         	8.127          	9.781
MS.101         	8.113          	9.775
MS.102         	8.095          	9.74
MS.103         	8.08           	9.795
MS.104         	8.062          	9.765
MS.105         	8.047          	9.565
MS.106         	8.03           	9.654
MS.107         	8.015          	9.783
MS.108         	8              	9.642
MS.109         	7.982          	9.761
MS.110         	7.967          	9.523
MS.111         	7.95           	9.563
MS.112         	7.935          	9.726
MS.113         	7.92           	9.497
MS.114         	7.902          	9.499
MS.115         	7.887          	9.616
MS.116         	7.872          	9.515
MS.117         	7.855          	9.493
MS.118         	7.84           	9.483
MS.119         	7.825          	9.213
MS.120         	7.81           	9.221
MS.121         	7.793          	9.215
MS.122         	7.777          	9.479
MS.123         	7.762          	9.193
MS.124         	7.747          	9.483
MS.125         	7.732          	9.189
MS.126         	7.715          	9.122
MS.127         	7.7            	9.473
MS.128         	7.685          	9.223
MS.129         	7.67           	9.487
MS.130         	7.655          	9.203
MS.131         	7.64           	9.458
MS.132         	7.625          	9.152
MS.133         	7.607          	9.181
MS.134         	7.592          	9.215
MS.135         	7.577          	9.193
MS.136         	7.562          	9.215
MS.137         	7.547          	9.146
MS.138         	7.532          	9.203
MS.139         	7.517          	9.136
MS.140         	7.503          	9.187
MS.141         	7.487          	9.16
MS.142         	7.472          	8.983
MS.143         	7.457          	9.1
MS.144         	7.442          	8.764
MS.145         	7.427          	8.985
MS.146         	7.412          	9.086
MS.147         	7.398          	8.747
MS.148         	7.385          	8.848
MS.149         	7.37           	9.094
MS.150         	7.355          	9.003
MS.151         	7.34           	8.546
MS.152         	7.325          	8.528
MS.153         	7.31           	8.629
MS.154         	7.295          	8.584
MS.155         	7.28           	8.26
MS.156         	7.267          	8.252
MS.157         	7.253          	8.536
MS.158         	7.237          	8.29
MS.159         	7.222          	8.175
MS.160         	7.207          	8.143
MS.161         	7.195          	8.121
MS.162         	7.18           	8.153
MS.163         	7.165          	8.067
MS.164         	7.152          	8.004
MS.165         	7.137          	7.787
MS.166         	7.122          	7.678
MS.167         	7.108          	7.809
MS.168         	7.095          	7.853
MS.169         	7.08           	7.497
MS.170         	7.065          	7.583
MS.171         	7.052          	7.696
MS.172         	7.037          	7.356
MS.173         	7.023          	7.509
MS.174         	7.01           	7.168
MS.175         	6.995          	7.501
MS.176         	6.983          	7.138
MS.177         	6.967          	7.056
MS.178         	6.955          	7.408
MS.179         	6.94           	6.522
MS.180         	6.925          	7.416
MS.181         	6.912          	6.844
MS.182         	6.898          	6.413
MS.183         	6.885          	6.764
MS.184         	6.87           	6.48
MS.185         	6.858          	6.755
MS.186         	6.842          	5.837
MS.187         	6.83           	6.363
MS.188         	6.815          	5.956
MS.189         	6.802          	6.232
MS.190         	6.79           	5.823
MS.191         	6.775          	6.171
MS.192         	6.762          	6.167
MS.193         	6.747          	5.744
MS.194         	6.735          	6.3
MS.195         	6.722          	5.553
MS.196         	6.707          	5.831
MS.197         	6.695          	6.137
MS.198         	6.68           	5.36
MS.199         	6.668          	5.849
MS.200         	6.655          	5.517
MS.201         	6.64           	5.483
MS.202         	6.628          	5.068
MS.203         	6.615          	5.241
MS.204         	6.602          	5.605
MS.205         	6.587          	4.89
MS.206         	6.575          	5.477
MS.207         	6.562          	4.834
MS.208         	6.55           	5.14
MS.209         	6.535          	5.056
MS.210         	6.523          	4.749
MS.211         	6.51           	4.842
MS.212         	6.497          	4.921
MS.213         	6.483          	4.985
MS.214         	6.47           	4.447
MS.215         	6.457          	4.792
MS.216         	6.445          	4.733
MS.217         	6.432          	3.843
MS.218         	6.42           	4.101
MS.219         	6.407          	4.28
MS.220         	6.392          	3.924
MS.221         	6.38           	4.119
MS.222         	6.367          	4.03
MS.223         	6.355          	4.492
MS.224         	6.342          	3.791
MS.225         	6.33           	3.724
MS.226         	6.317          	3.632
MS.227         	6.305          	3.628
MS.228         	6.293          	3.531
MS.229         	6.28           	3.547
MS.230         	6.267          	3.406
MS.231         	6.255          	3.35
MS.232         	6.242          	3.448
MS.233         	6.23           	3.547
MS.234         	6.217          	3.45
MS.235         	6.205          	3.323
MS.236         	6.192          	3.112
MS.237         	6.18           	3.18
MS.238         	6.168          	3.128
MS.239         	6.155          	2.81
MS.240         	6.142          	2.81
MS.241         	6.13           	2.59
MS.242         	6.117          	2.63
MS.243         	6.105          	2.63
MS.244         	6.095          	2.941
MS.245         	6.082          	2.324
MS.246         	6.07           	2.628
MS.247         	6.057          	2.633
MS.248         	6.045          	2.363
MS.249         	6.032          	2.451
MS.250         	6.02           	2.065
MS.251         	6.01           	2.016
MS.252         	5.997          	2.238
MS.253         	5.985          	2.071
MS.254         	5.972          	1.928
MS.255         	5.963          	2.103
MS.256         	5.95           	1.779
MS.257         	5.938          	1.638
MS.258         	5.925          	2.008
MS.259         	5.915          	1.642
MS.260         	5.902          	1.611
MS.261         	5.89           	1.744
MS.262         	5.878          	1.676
MS.263         	5.867          	1.668
MS.264         	5.855          	1.579
MS.265         	5.842          	1.565
MS.266         	5.832          	1.374
MS.267         	5.82           	1.507
MS.268         	5.807          	1.758
MS.269         	5.797          	1.428
MS.270         	5.785          	1.424
MS.271         	5.773          	1.354
MS.272         	5.762          	1.404
MS.273         	5.75           	1.221
MS.274         	5.74           	1.198
MS.275         	5.727          	1.418
MS.276         	5.715          	1.14
MS.277         	5.705          	1.061
MS.278         	5.692          	1.055
MS.279         	5.682          	1.065
MS.280         	5.67           	1.078
MS.281         	5.66           	1.074
MS.282         	5.648          	0.933
MS.283         	5.637          	1.265
MS.284         	5.625          	0.933
MS.285         	5.615          	0.86
MS.286         	5.602          	0.83
MS.287         	5.592          	0.894
MS.288         	5.58           	0.88
MS.289         	5.57           	0.852
MS.290         	5.557          	0.947
MS.291         	5.547          	0.878
MS.292         	5.535          	0.947
MS.293         	5.525          	0.751
MS.294         	5.515          	0.902
MS.295         	5.503          	0.836
MS.296         	5.492          	0.844
MS.297         	5.48           	0.761
MS.298         	5.47           	0.767
MS.299         	5.46           	0.874
MS.300         	5.447          	0.798
MS.301         	5.438          	0.784
MS.302         	5.427          	0.755
MS.303         	5.415          	0.687
MS.304         	5.405          	0.739
MS.305         	5.395          	0.57
MS.306         	5.382          	0.612
MS.307         	5.372          	0.673
MS.308         	5.362          	0.61
MS.309         	5.35           	0.608
MS.310         	5.34           	0.483
MS.311         	5.33           	0.475
MS.312         	5.32           	0.673
MS.313         	5.307          	0.594
MS.314         	5.297          	0.675
MS.315         	5.287          	0.6
MS.316         	5.277          	0.588
MS.317         	5.265          	0.455
MS.318         	5.255          	0.518
MS.319         	5.245          	0.544
MS.320         	5.235          	0.554
MS.321         	5.225          	0.489
MS.322         	5.213          	0.491
MS.323         	5.202          	0.437
MS.324         	5.193          	0.342
MS.325         	5.182          	0.367
MS.326         	5.172          	0.413
MS.327         	5.162          	0.336
MS.328         	5.152          	0.28
MS.329         	5.14           	0.338
MS.330         	5.13           	0.175
MS.331         	5.12           	0.383
MS.332         	5.11           	0.171
MS.333         	5.1            	0.365
MS.334         	5.09           	0.197
MS.335         	5.08           	0.026
MS.336         	5.07           	0.173
MS.337         	5.06           	0.151
MS.338         	5.05           	0.195
MS.339         	5.04           	0.024
MS.340         	5.03           	0.153
MS.341         	5.02           	0.149
MS.342         	5.01           	0.026
MS.343         	5              	0.026
MS.344         	4.99           	0.026
MS.345         	4.98           	0.171
MS.346         	4.97           	0.026
MS.347         	4.96           	0.028
MS.348         	4.95           	0.024
MS.349         	4.94           	0.028
MS.350         	4.93           	0.03
MS.351         	4.92           	0.028
MS.352         	4.91           	0.026
MS.353         	4.9            	0.026
MS.354         	4.89           	0.026
MS.355         	4.88           	0.024
MS.356         	4.87           	0.026
MS.357         	4.86           	0.026
MS.358         	4.852          	0.03
MS.359         	4.842          	0.032
MS.360         	4.832          	0.028
MS.361         	4.822          	0.024
MS.362         	4.812          	0.03
MS.363         	4.802          	0.03
MS.364         	4.793          	0.032
MS.365         	4.785          	0.03
MS.366         	4.775          	0.032
MS.367         	4.765          	0.03
MS.368         	4.755          	0.03
MS.369         	4.745          	0.03
MS.370         	4.737          	0.03
MS.371         	4.727          	0.026
MS.372         	4.717          	0.03
MS.373         	4.707          	0.03
MS.374         	4.697          	0.032
MS.375         	4.69           	0.028
MS.376         	4.68           	0.032
MS.377         	4.67           	0.028
MS.378         	4.662          	0.028
MS.379         	4.652          	0.026
MS.380         	4.642          	0.03
MS.381         	4.632          	0.03
MS.382         	4.625          	0.03
MS.383         	4.615          	0.026
MS.384         	4.605          	0.008
MS.385         	4.597          	0.03
MS.386         	4.588          	0.032
MS.387         	4.577          	0.008
MS.388         	4.57           	0.028
MS.389         	4.56           	0.008
MS.390         	4.55           	0.026
MS.391         	4.543          	0.03
MS.392         	4.532          	0.01
MS.393         	4.523          	0.034
MS.394         	4.515          	0.03
MS.395         	4.505          	0.006
MS.396         	4.497          	0.008
MS.397         	4.487          	0.004
MS.398         	4.477          	0.03
MS.399         	4.47           	0.01
MS.400         	4.46           	0.008
MS.401         	4.452          	0.006
MS.402         	4.443          	0.008
MS.403         	4.435          	0.008
MS.404         	4.425          	0.01
MS.405         	4.415          	0.01
MS.406         	4.407          	0.008
MS.407         	4.398          	0.008
MS.408         	4.39           	0.008
MS.409         	4.38           	0.01
MS.410         	4.372          	0.006
MS.411         	4.362          	0.006
MS.412         	4.355          	0.006
DERIVED EXCITABILITY VARIABLES
Program = QTracP 3/4/2020
Threshold method = 6 (optimised for CAP, using data for present condition only)
SR method = 1 (using actual data values)
6.                 	0.000               	Peak response\(mV)
9.                 	31.3                	Temperature ( C)
17.                	41                  	Age (years)
18.                	2                   	Sex (M=1, F=2)

EXTRA VARIABLES

MScPeak(mV) = 9.97
MScS5(mA) = 5.28
MScS50(mA) = 6.57
MScS95(mA) = 7.75
MScNSteps = 4
MScSteps(%) = 9.2
MScStepMax(%) = 2.4
MScD50 = 37
MScSlope = 6.95
MSFPeakAmp(mV) = 9.96
MSFNUnits = 116
MSFMeanUnitAmp(uV) = 85.9
MSFHuntTime(m) = 2.14
MSFError(%) = 8.73
MSFNLarge = 27.15
MSFMedianAmp(%) = 0.636
MSFMedianAmp(mV) = 0.0633
MSFHalfAmpAmp(%) = 1.05
MSFHalfAmpAmp(mV) = 0.104
MSFLargestAmp(%) = 3.85
MSFLargestAmp(mV) = 0.383
MSFMeanRS(%) = 2
MSFOpts = 10106121
MScDuration(min) = 3.6
MSFTraces = 357
MSFSizeLimit(uV) = 24.9
MSFLimitType = 1
MSFSmallestAmp(uV) = 26.4

EXTRA WAVEFORMS


!MScan Model
!116
	1	5.03	0.67	2
	2	5.08	0.74	2
	3	5.13	0.97	2
	4	5.16	0.69	2
	5	5.18	0.4	2
	6	5.2	0.44	2
	7	5.22	0.27	2
	8	5.24	0.56	2
	9	5.31	0.7	2
	10	5.36	0.38	2
	11	5.39	0.42	2
	12	5.4	0.29	2
	13	5.42	0.27	2
	14	5.44	0.41	2
	15	5.48	0.64	2
	16	5.53	0.43	2
	17	5.61	0.85	2
	18	5.66	0.96	2
	19	5.7	1.22	2
	20	5.71	0.29	2
	21	5.73	0.37	2
	22	5.74	0.37	2
	23	5.75	0.55	2
	24	5.77	0.69	2
	25	5.79	0.61	2
	26	5.86	1.91	2
	27	5.89	0.58	2
	28	5.91	0.67	2
	29	5.93	0.66	2
	30	5.94	0.57	2
	31	5.95	0.54	2
	32	5.97	0.56	2
	33	5.98	0.74	2
	34	6	0.76	2
	35	6.01	0.9	2
	36	6.03	0.81	2
	37	6.05	0.89	2
	38	6.07	1.07	2
	39	6.09	1.06	2
	40	6.11	0.96	2
	41	6.12	0.58	2
	42	6.13	0.37	2
	43	6.13	0.37	2
	44	6.14	0.37	2
	45	6.15	0.34	2
	46	6.16	0.46	2
	47	6.16	0.3	2
	48	6.17	0.3	2
	49	6.18	0.91	2
	50	6.19	1.16	2
	51	6.21	0.85	2
	52	6.23	0.67	2
	53	6.24	0.55	2
	54	6.26	0.91	2
	55	6.29	1.1	2
	56	6.35	2.85	2
	57	6.41	3.85	2
	58	6.44	2.01	2
	59	6.47	0.62	2
	60	6.47	0.41	2
	61	6.5	1.69	2
	62	6.57	3.69	2
	63	6.61	1.91	2
	64	6.64	1.9	2
	65	6.67	0.86	2
	66	6.72	2.9	2
	67	6.78	2.05	2
	68	6.82	1.45	2
	69	6.84	1.21	2
	70	6.87	1.46	2
	71	6.89	1.9	2
	72	6.93	2.61	2
	73	6.96	1.92	2
	74	6.99	1.35	2
	75	7.01	1.54	2
	76	7.04	0.98	2
	77	7.05	0.43	2
	78	7.06	0.4	2
	79	7.07	0.41	2
	80	7.07	0.36	2
	81	7.08	0.38	2
	82	7.09	0.41	2
	83	7.1	0.32	2
	84	7.11	0.31	2
	85	7.12	0.31	2
	86	7.12	0.31	2
	87	7.13	0.31	2
	88	7.14	0.31	2
	89	7.15	0.31	2
	90	7.15	0.31	2
	91	7.16	0.32	2
	92	7.17	0.32	2
	93	7.18	0.32	2
	94	7.18	0.42	2
	95	7.2	0.59	2
	96	7.21	0.49	2
	97	7.23	0.45	2
	98	7.24	0.55	2
	99	7.26	1.08	2
	100	7.27	0.71	2
	101	7.29	1	2
	102	7.31	1.13	2
	103	7.34	0.92	2
	104	7.39	1.73	2
	105	7.42	0.67	2
	106	7.44	0.59	2
	107	7.47	0.63	2
	108	7.74	2.08	2
	109	7.78	0.54	2
	110	7.87	0.94	2
	111	7.92	1.05	2
	112	7.99	0.78	2
	113	8.05	0.55	2
	114	8.67	0.78	2
	115	8.77	0.56	2
	116	8.93	0.6	2

