File:              	C:\Qtrac\Data\Daniel M Sørensen\MScan multicentre study\Data from centres\Oslo\IronKey\Oslo_NC_first examination\SZC00618D.QZD
Name:              	NO.OSL.NC.20.1
Protocol:          	MSCAN-R2
Date:              	18/6/20
Start time:        	10:59:58
Age:               	59
Sex:               	M
Temperature:       	34.1
S/R sites:         	Median Wr-APB
NC/disease:        	NC20
Operator:          	SZ
Comments:          	Test1
M-SCAN DATA (8.4-3.6m)
Scanpts: 6, 14, 447, 468
Stim. (mA)     	Amp. (mV)
MS.1           	13.5           	13.277
MS.2           	13.5           	13.302
MS.3           	13.5           	13.31
MS.4           	13.5           	13.279
MS.5           	13.5           	13.277
MS.6           	13.5           	13.285
MS.7           	13.5           	13.31
MS.8           	13.5           	13.267
MS.9           	13.5           	13.281
MS.10          	13.5           	13.259
MS.11          	13.5           	13.281
MS.12          	13.5           	13.285
MS.13          	13.5           	13.271
MS.14          	13.5           	13.297
MS.15          	13.5           	13.291
MS.16          	13.5           	13.291
MS.17          	13.5           	13.283
MS.18          	13.5           	13.287
MS.19          	13.5           	13.293
MS.20          	13.5           	13.285
MS.21          	13.5           	13.291
MS.22          	13.5           	13.283
MS.23          	13.5           	13.32
MS.24          	13.42          	13.281
MS.25          	13.392         	13.31
MS.26          	13.365         	13.308
MS.27          	13.34          	13.336
MS.28          	13.312         	13.334
MS.29          	13.285         	13.326
MS.30          	13.26          	13.312
MS.31          	13.233         	13.322
MS.32          	13.205         	13.338
MS.33          	13.18          	13.12
MS.34          	13.153         	13.126
MS.35          	13.127         	13.132
MS.36          	13.1           	13.128
MS.37          	13.075         	13.044
MS.38          	13.047         	13.013
MS.39          	13.023         	13.028
MS.40          	12.997         	13.046
MS.41          	12.97          	13.352
MS.42          	12.945         	13.138
MS.43          	12.92          	12.983
MS.44          	12.892         	13.026
MS.45          	12.867         	13.036
MS.46          	12.842         	13.056
MS.47          	12.815         	13.064
MS.48          	12.79          	13.026
MS.49          	12.765         	13.1
MS.50          	12.74          	13.026
MS.51          	12.715         	12.947
MS.52          	12.688         	12.939
MS.53          	12.662         	12.911
MS.54          	12.637         	12.943
MS.55          	12.613         	12.935
MS.56          	12.587         	12.907
MS.57          	12.562         	12.905
MS.58          	12.537         	12.883
MS.59          	12.512         	12.895
MS.60          	12.488         	12.887
MS.61          	12.462         	12.979
MS.62          	12.438         	12.889
MS.63          	12.412         	12.903
MS.64          	12.387         	12.466
MS.65          	12.363         	12.778
MS.66          	12.337         	12.651
MS.67          	12.312         	12.542
MS.68          	12.29          	12.595
MS.69          	12.265         	12.552
MS.70          	12.24          	12.593
MS.71          	12.215         	12.804
MS.72          	12.19          	12.81
MS.73          	12.167         	12.425
MS.74          	12.142         	12.448
MS.75          	12.117         	12.45
MS.76          	12.092         	12.357
MS.77          	12.07          	12.355
MS.78          	12.045         	12.474
MS.79          	12.023         	12.331
MS.80          	11.997         	12.347
MS.81          	11.972         	12.282
MS.82          	11.95          	12.302
MS.83          	11.925         	12.276
MS.84          	11.903         	12.341
MS.85          	11.877         	12.298
MS.86          	11.855         	12.397
MS.87          	11.83          	12.266
MS.88          	11.807         	12.341
MS.89          	11.782         	12.224
MS.90          	11.76          	12.21
MS.91          	11.738         	12.254
MS.92          	11.712         	12.097
MS.93          	11.69          	12.172
MS.94          	11.665         	12.103
MS.95          	11.642         	12.164
MS.96          	11.62          	12.117
MS.97          	11.597         	12.155
MS.98          	11.572         	12.131
MS.99          	11.55          	12.069
MS.100         	11.528         	11.994
MS.101         	11.505         	12.095
MS.102         	11.48          	11.865
MS.103         	11.457         	12.192
MS.104         	11.435         	11.759
MS.105         	11.412         	11.743
MS.106         	11.39          	11.688
MS.107         	11.367         	11.801
MS.108         	11.345         	11.878
MS.109         	11.322         	11.523
MS.110         	11.297         	11.622
MS.111         	11.275         	11.485
MS.112         	11.252         	11.346
MS.113         	11.23          	11.422
MS.114         	11.207         	11.364
MS.115         	11.188         	11.416
MS.116         	11.165         	11.503
MS.117         	11.142         	11.026
MS.118         	11.12          	11.195
MS.119         	11.097         	11.108
MS.120         	11.075         	11.245
MS.121         	11.052         	11.013
MS.122         	11.03          	11.068
MS.123         	11.007         	10.794
MS.124         	10.988         	10.955
MS.125         	10.965         	10.947
MS.126         	10.943         	10.784
MS.127         	10.92          	10.987
MS.128         	10.9           	10.858
MS.129         	10.877         	10.816
MS.130         	10.855         	10.496
MS.131         	10.835         	10.506
MS.132         	10.812         	10.498
MS.133         	10.79          	10.655
MS.134         	10.77          	10.582
MS.135         	10.747         	10.498
MS.136         	10.725         	10.395
MS.137         	10.705         	10.389
MS.138         	10.682         	10.474
MS.139         	10.662         	10.01
MS.140         	10.64          	10.742
MS.141         	10.62          	10.18
MS.142         	10.597         	10.208
MS.143         	10.577         	10.159
MS.144         	10.555         	10.174
MS.145         	10.535         	10.256
MS.146         	10.515         	9.928
MS.147         	10.492         	10.178
MS.148         	10.472         	9.994
MS.149         	10.45          	10.063
MS.150         	10.43          	9.805
MS.151         	10.41          	9.879
MS.152         	10.387         	9.638
MS.153         	10.367         	9.805
MS.154         	10.347         	9.851
MS.155         	10.325         	9.561
MS.156         	10.305         	9.843
MS.157         	10.285         	9.789
MS.158         	10.265         	9.722
MS.159         	10.245         	9.491
MS.160         	10.222         	9.634
MS.161         	10.202         	9.527
MS.162         	10.182         	9.569
MS.163         	10.162         	9.434
MS.164         	10.142         	9.207
MS.165         	10.122         	9.146
MS.166         	10.102         	9.072
MS.167         	10.082         	9.263
MS.168         	10.06          	9.128
MS.169         	10.04          	8.891
MS.170         	10.02          	8.82
MS.171         	10             	8.977
MS.172         	9.98           	8.8
MS.173         	9.96           	8.754
MS.174         	9.94           	8.846
MS.175         	9.922          	9.013
MS.176         	9.903          	8.508
MS.177         	9.882          	8.351
MS.178         	9.863          	8.012
MS.179         	9.842          	8.248
MS.180         	9.823          	8.357
MS.181         	9.802          	8.21
MS.182         	9.782          	7.95
MS.183         	9.765          	7.819
MS.184         	9.745          	7.845
MS.185         	9.725          	7.684
MS.186         	9.705          	8.151
MS.187         	9.685          	7.638
MS.188         	9.667          	7.505
MS.189         	9.648          	7.45
MS.190         	9.627          	7.426
MS.191         	9.61           	7.338
MS.192         	9.59           	7.483
MS.193         	9.57           	7.319
MS.194         	9.552          	7.066
MS.195         	9.532          	6.687
MS.196         	9.512          	6.463
MS.197         	9.495          	6.619
MS.198         	9.475          	6.586
MS.199         	9.457          	6.447
MS.200         	9.438          	6.647
MS.201         	9.417          	6.063
MS.202         	9.4            	6.294
MS.203         	9.38           	6.192
MS.204         	9.363          	6.085
MS.205         	9.342          	6.087
MS.206         	9.325          	5.895
MS.207         	9.305          	5.857
MS.208         	9.287          	5.964
MS.209         	9.27           	5.974
MS.210         	9.25           	5.879
MS.211         	9.233          	5.416
MS.212         	9.212          	5.231
MS.213         	9.195          	5.251
MS.214         	9.177          	4.999
MS.215         	9.158          	5.62
MS.216         	9.14           	5.243
MS.217         	9.122          	5.418
MS.218         	9.102          	5.124
MS.219         	9.085          	5.247
MS.220         	9.068          	4.963
MS.221         	9.05           	4.763
MS.222         	9.03           	4.56
MS.223         	9.012          	4.647
MS.224         	8.995          	4.729
MS.225         	8.977          	4.518
MS.226         	8.96           	4.61
MS.227         	8.943          	4.512
MS.228         	8.922          	4.135
MS.229         	8.905          	4.103
MS.230         	8.887          	4.081
MS.231         	8.87           	4.222
MS.232         	8.852          	4.181
MS.233         	8.835          	3.654
MS.234         	8.818          	4.099
MS.235         	8.8            	3.94
MS.236         	8.783          	3.992
MS.237         	8.765          	4.111
MS.238         	8.747          	4.165
MS.239         	8.73           	3.672
MS.240         	8.712          	3.539
MS.241         	8.695          	3.452
MS.242         	8.677          	3.591
MS.243         	8.66           	3.305
MS.244         	8.642          	3.134
MS.245         	8.625          	3.072
MS.246         	8.608          	2.923
MS.247         	8.59           	3.303
MS.248         	8.573          	3.152
MS.249         	8.557          	2.792
MS.250         	8.54           	2.87
MS.251         	8.523          	2.729
MS.252         	8.505          	2.876
MS.253         	8.488          	2.538
MS.254         	8.472          	2.548
MS.255         	8.455          	2.614
MS.256         	8.438          	2.814
MS.257         	8.42           	2.397
MS.258         	8.405          	2.548
MS.259         	8.387          	2.504
MS.260         	8.37           	2.429
MS.261         	8.352          	2.483
MS.262         	8.337          	2.389
MS.263         	8.32           	2.264
MS.264         	8.302          	2.137
MS.265         	8.287          	2.02
MS.266         	8.27           	2.034
MS.267         	8.255          	1.867
MS.268         	8.238          	2.056
MS.269         	8.22           	1.946
MS.270         	8.205          	1.736
MS.271         	8.188          	1.954
MS.272         	8.172          	1.644
MS.273         	8.155          	1.638
MS.274         	8.14           	1.595
MS.275         	8.122          	1.654
MS.276         	8.108          	1.633
MS.277         	8.09           	1.65
MS.278         	8.075          	1.726
MS.279         	8.057          	1.662
MS.280         	8.042          	1.488
MS.281         	8.025          	1.42
MS.282         	8.01           	1.436
MS.283         	7.995          	1.521
MS.284         	7.977          	1.358
MS.285         	7.962          	1.46
MS.286         	7.945          	1.456
MS.287         	7.93           	1.243
MS.288         	7.915          	1.146
MS.289         	7.898          	1.374
MS.290         	7.882          	1.198
MS.291         	7.867          	1.271
MS.292         	7.852          	1.116
MS.293         	7.835          	1.148
MS.294         	7.82           	1.029
MS.295         	7.805          	1.059
MS.296         	7.79           	0.9
MS.297         	7.773          	0.989
MS.298         	7.757          	0.886
MS.299         	7.742          	0.916
MS.300         	7.727          	0.697
MS.301         	7.712          	0.975
MS.302         	7.695          	0.878
MS.303         	7.68           	0.689
MS.304         	7.665          	0.874
MS.305         	7.65           	0.655
MS.306         	7.635          	0.667
MS.307         	7.62           	0.636
MS.308         	7.605          	0.884
MS.309         	7.59           	0.701
MS.310         	7.572          	0.767
MS.311         	7.557          	0.602
MS.312         	7.543          	0.6
MS.313         	7.527          	0.804
MS.314         	7.512          	0.671
MS.315         	7.497          	0.663
MS.316         	7.482          	0.685
MS.317         	7.467          	0.655
MS.318         	7.452          	0.608
MS.319         	7.438          	0.582
MS.320         	7.425          	0.602
MS.321         	7.41           	0.592
MS.322         	7.395          	0.6
MS.323         	7.38           	0.58
MS.324         	7.365          	0.606
MS.325         	7.35           	0.582
MS.326         	7.335          	0.606
MS.327         	7.32           	0.606
MS.328         	7.305          	0.612
MS.329         	7.293          	0.524
MS.330         	7.277          	0.538
MS.331         	7.262          	0.54
MS.332         	7.247          	0.536
MS.333         	7.233          	0.522
MS.334         	7.22           	0.52
MS.335         	7.205          	0.524
MS.336         	7.19           	0.59
MS.337         	7.175          	0.518
MS.338         	7.162          	0.528
MS.339         	7.148          	0.449
MS.340         	7.132          	0.522
MS.341         	7.117          	0.522
MS.342         	7.105          	0.445
MS.343         	7.09           	0.52
MS.344         	7.075          	0.453
MS.345         	7.062          	0.449
MS.346         	7.047          	0.453
MS.347         	7.032          	0.445
MS.348         	7.02           	0.425
MS.349         	7.005          	0.419
MS.350         	6.992          	0.504
MS.351         	6.977          	0.425
MS.352         	6.962          	0.423
MS.353         	6.95           	0.425
MS.354         	6.935          	0.449
MS.355         	6.922          	0.421
MS.356         	6.907          	0.526
MS.357         	6.895          	0.439
MS.358         	6.88           	0.415
MS.359         	6.867          	0.417
MS.360         	6.852          	0.421
MS.361         	6.84           	0.417
MS.362         	6.825          	0.419
MS.363         	6.812          	0.361
MS.364         	6.797          	0.433
MS.365         	6.785          	0.413
MS.366         	6.773          	0.415
MS.367         	6.757          	0.33
MS.368         	6.745          	0.33
MS.369         	6.73           	0.411
MS.370         	6.717          	0.427
MS.371         	6.705          	0.411
MS.372         	6.69           	0.401
MS.373         	6.677          	0.33
MS.374         	6.665          	0.33
MS.375         	6.65           	0.413
MS.376         	6.637          	0.409
MS.377         	6.625          	0.413
MS.378         	6.61           	0.336
MS.379         	6.597          	0.326
MS.380         	6.585          	0.336
MS.381         	6.57           	0.324
MS.382         	6.557          	0.334
MS.383         	6.545          	0.324
MS.384         	6.532          	0.326
MS.385         	6.52           	0.326
MS.386         	6.505          	0.328
MS.387         	6.492          	0.338
MS.388         	6.48           	0.33
MS.389         	6.467          	0.328
MS.390         	6.455          	0.326
MS.391         	6.44           	0.328
MS.392         	6.427          	0.324
MS.393         	6.415          	0.3
MS.394         	6.402          	0.334
MS.395         	6.39           	0.33
MS.396         	6.378          	0.336
MS.397         	6.365          	0.33
MS.398         	6.352          	0.334
MS.399         	6.34           	0.334
MS.400         	6.325          	0.33
MS.401         	6.312          	0.296
MS.402         	6.3            	0.23
MS.403         	6.287          	0.185
MS.404         	6.275          	0.292
MS.405         	6.262          	0.187
MS.406         	6.25           	0.183
MS.407         	6.237          	0.191
MS.408         	6.225          	0.183
MS.409         	6.213          	0.189
MS.410         	6.2            	0.173
MS.411         	6.188          	0.183
MS.412         	6.175          	0.173
MS.413         	6.165          	0.181
MS.414         	6.152          	0.179
MS.415         	6.14           	0.181
MS.416         	6.128          	0.187
MS.417         	6.115          	0.169
MS.418         	6.102          	0.173
MS.419         	6.09           	0.175
MS.420         	6.077          	0.115
MS.421         	6.065          	0.115
MS.422         	6.055          	0.173
MS.423         	6.043          	0.177
MS.424         	6.03           	0.151
MS.425         	6.017          	0.177
MS.426         	6.005          	0.115
MS.427         	5.992          	0.091
MS.428         	5.983          	0.111
MS.429         	5.97           	0.115
MS.430         	5.957          	0.115
MS.431         	5.945          	0.113
MS.432         	5.935          	0.095
MS.433         	5.922          	0.097
MS.434         	5.91           	0.101
MS.435         	5.898          	0.115
MS.436         	5.887          	0.117
MS.437         	5.875          	0.089
MS.438         	5.862          	0.087
MS.439         	5.852          	0.095
MS.440         	5.84           	0.103
MS.441         	5.827          	0.107
MS.442         	5.817          	0.099
MS.443         	5.805          	0.093
MS.444         	5.793          	0.091
MS.445         	5.782          	0.095
MS.446         	5.77           	0.091
MS.447         	5.757          	0.091
MS.448         	5.747          	0.089
MS.449         	5.735          	0.087
MS.450         	5.725          	0.089
MS.451         	5.713          	0.093
MS.452         	5.702          	0.091
MS.453         	5.69           	0.093
MS.454         	5.677          	0.091
MS.455         	5.668          	0.089
MS.456         	5.655          	0.089
MS.457         	5.645          	0.089
MS.458         	5.632          	0.093
MS.459         	5.622          	0.089
MS.460         	5.61           	0.095
MS.461         	5.6            	0.091
MS.462         	5.588          	0.089
MS.463         	5.577          	0.091
MS.464         	5.565          	0.089
MS.465         	5.555          	0.093
MS.466         	5.545          	0.087
MS.467         	5.532          	0.091
MS.468         	5.523          	0.091
MS.469         	5.51           	0.093
MS.470         	5.5            	0.093
MS.471         	5.487          	0.089
MS.472         	5.477          	0.089
MS.473         	5.467          	0.093
MS.474         	5.455          	0.087
MS.475         	5.445          	0.097
MS.476         	5.435          	0.091
MS.477         	5.422          	0.097
MS.478         	5.412          	0.089
MS.479         	5.402          	0.091
MS.480         	5.39           	0.093
MS.481         	5.38           	0.093
MS.482         	5.37           	0.095
MS.483         	5.358          	0.095
MS.484         	5.347          	0.095
MS.485         	5.338          	0.093
MS.486         	5.327          	0.095
MS.487         	5.315          	0.097
MS.488         	5.305          	0.091
MS.489         	5.295          	0.089
MS.490         	5.285          	0.091
MS.491         	5.273          	0.091
MS.492         	5.262          	0.087
MS.493         	5.253          	0.097
MS.494         	5.242          	0.097
MS.495         	5.233          	0.091
MS.496         	5.22           	0.087
