File:              	C:\Qtrac\Data\Daniel M Sørensen\MScan multicentre study\Data from centres\Oslo\IronKey\Oslo_NC_first examination\SZC00528A.QZD
Name:              	NO.OSL.NC.14.1
Protocol:          	MSCAN-R2
Date:              	28/5/20
Start time:        	16:31:02
Age:               	28
Sex:               	F
Temperature:       	30.7
S/R sites:         	Median Wr-APB
NC/disease:        	NC14
Operator:          	SZ
Comments:          	Test1
M-SCAN DATA (6.6-2.9m)
Scanpts: 11, 17, 358, 369
Stim. (mA)     	Amp. (mV)
MS.1           	12             	9.803
MS.2           	12             	9.807
MS.3           	12             	9.815
MS.4           	12             	9.809
MS.5           	12             	9.783
MS.6           	12             	9.793
MS.7           	12             	9.714
MS.8           	12             	9.807
MS.9           	12             	9.791
MS.10          	12             	9.789
MS.11          	12             	9.805
MS.12          	12             	9.767
MS.13          	12             	9.787
MS.14          	12             	9.763
MS.15          	12             	9.777
MS.16          	12             	9.769
MS.17          	12             	9.791
MS.18          	12             	9.769
MS.19          	12             	9.767
MS.20          	12             	9.775
MS.21          	12             	9.734
MS.22          	12             	9.688
MS.23          	12             	9.694
MS.24          	11.952         	9.696
MS.25          	11.927         	9.747
MS.26          	11.905         	9.702
MS.27          	11.88          	9.753
MS.28          	11.858         	9.742
MS.29          	11.832         	9.712
MS.30          	11.81          	9.753
MS.31          	11.785         	9.618
MS.32          	11.762         	9.688
MS.33          	11.74          	9.692
MS.34          	11.715         	9.686
MS.35          	11.693         	9.696
MS.36          	11.667         	9.622
MS.37          	11.645         	9.749
MS.38          	11.622         	9.616
MS.39          	11.6           	9.682
MS.40          	11.575         	9.678
MS.41          	11.552         	9.636
MS.42          	11.53          	9.62
MS.43          	11.507         	9.674
MS.44          	11.483         	9.68
MS.45          	11.46          	9.618
MS.46          	11.438         	9.599
MS.47          	11.415         	9.606
MS.48          	11.392         	9.614
MS.49          	11.37          	9.608
MS.50          	11.347         	9.686
MS.51          	11.325         	9.535
MS.52          	11.3           	9.636
MS.53          	11.278         	9.616
MS.54          	11.255         	9.602
MS.55          	11.233         	9.628
MS.56          	11.21          	9.575
MS.57          	11.188         	9.547
MS.58          	11.167         	9.541
MS.59          	11.145         	9.553
MS.60          	11.122         	9.636
MS.61          	11.1           	9.527
MS.62          	11.077         	9.612
MS.63          	11.055         	9.537
MS.64          	11.032         	9.509
MS.65          	11.01          	9.454
MS.66          	10.99          	9.513
MS.67          	10.967         	9.45
MS.68          	10.945         	9.356
MS.69          	10.922         	9.432
MS.70          	10.903         	9.342
MS.71          	10.88          	9.467
MS.72          	10.858         	9.43
MS.73          	10.837         	9.424
MS.74          	10.815         	9.418
MS.75          	10.792         	9.267
MS.76          	10.773         	9.4
MS.77          	10.75          	9.291
MS.78          	10.727         	9.239
MS.79          	10.707         	9.249
MS.80          	10.685         	9.243
MS.81          	10.665         	9.193
MS.82          	10.642         	9.177
MS.83          	10.622         	9.172
MS.84          	10.6           	9.191
MS.85          	10.58          	9.201
MS.86          	10.557         	9.106
MS.87          	10.537         	9.203
MS.88          	10.515         	9.13
MS.89          	10.495         	9.162
MS.90          	10.475         	9.191
MS.91          	10.452         	9.172
MS.92          	10.432         	9.098
MS.93          	10.412         	9.177
MS.94          	10.39          	9.11
MS.95          	10.37          	8.951
MS.96          	10.35          	9.098
MS.97          	10.327         	9.007
MS.98          	10.307         	8.828
MS.99          	10.287         	9.088
MS.100         	10.267         	8.838
MS.101         	10.245         	8.818
MS.102         	10.225         	8.711
MS.103         	10.205         	8.884
MS.104         	10.185         	8.888
MS.105         	10.165         	8.705
MS.106         	10.145         	8.629
MS.107         	10.125         	8.697
MS.108         	10.102         	8.538
MS.109         	10.082         	8.629
MS.110         	10.062         	8.592
MS.111         	10.042         	8.633
MS.112         	10.023         	8.756
MS.113         	10.002         	8.276
MS.114         	9.983          	8.304
MS.115         	9.962          	7.984
MS.116         	9.943          	8.323
MS.117         	9.922          	7.92
MS.118         	9.903          	7.912
MS.119         	9.885          	8.276
MS.120         	9.865          	7.775
MS.121         	9.845          	8.014
MS.122         	9.825          	7.714
MS.123         	9.805          	7.748
MS.124         	9.785          	8.081
MS.125         	9.765          	7.724
MS.126         	9.747          	7.666
MS.127         	9.727          	7.936
MS.128         	9.707          	7.062
MS.129         	9.688          	7.599
MS.130         	9.67           	7.432
MS.131         	9.65           	7.215
MS.132         	9.63           	6.796
MS.133         	9.61           	7.168
MS.134         	9.592          	6.735
MS.135         	9.573          	7.372
MS.136         	9.552          	7.042
MS.137         	9.535          	6.715
MS.138         	9.515          	6.633
MS.139         	9.497          	6.274
MS.140         	9.477          	6.27
MS.141         	9.457          	6.373
MS.142         	9.44           	6.063
MS.143         	9.42           	6.413
MS.144         	9.403          	5.912
MS.145         	9.382          	6.107
MS.146         	9.365          	5.632
MS.147         	9.345          	5.551
MS.148         	9.327          	5.817
MS.149         	9.307          	5.497
MS.150         	9.29           	5.319
MS.151         	9.27           	5.229
MS.152         	9.252          	5.245
MS.153         	9.235          	5.229
MS.154         	9.215          	5.307
MS.155         	9.198          	4.651
MS.156         	9.18           	5.156
MS.157         	9.16           	4.622
MS.158         	9.142          	4.906
MS.159         	9.125          	4.798
MS.160         	9.105          	4.826
MS.161         	9.087          	4.697
MS.162         	9.07           	4.506
MS.163         	9.052          	4.822
MS.164         	9.033          	4.437
MS.165         	9.015          	4.616
MS.166         	8.997          	4.324
MS.167         	8.98           	4.22
MS.168         	8.96           	4.157
MS.169         	8.943          	4.282
MS.170         	8.925          	4.2
MS.171         	8.908          	3.676
MS.172         	8.89           	3.702
MS.173         	8.872          	3.781
MS.174         	8.855          	3.706
MS.175         	8.837          	3.603
MS.176         	8.82           	3.777
MS.177         	8.802          	3.112
MS.178         	8.783          	3.468
MS.179         	8.765          	3.4
MS.180         	8.747          	3.176
MS.181         	8.73           	3.253
MS.182         	8.715          	3.13
MS.183         	8.698          	2.838
MS.184         	8.68           	2.878
MS.185         	8.662          	2.737
MS.186         	8.645          	2.721
MS.187         	8.627          	2.923
MS.188         	8.61           	2.387
MS.189         	8.592          	2.788
MS.190         	8.575          	2.487
MS.191         	8.557          	2.455
MS.192         	8.54           	2.395
MS.193         	8.525          	1.944
MS.194         	8.507          	2.016
MS.195         	8.49           	2.028
MS.196         	8.472          	1.891
MS.197         	8.455          	1.819
MS.198         	8.44           	1.922
MS.199         	8.422          	2.062
MS.200         	8.405          	1.98
MS.201         	8.39           	1.797
MS.202         	8.372          	1.724
MS.203         	8.355          	1.682
MS.204         	8.337          	1.779
MS.205         	8.323          	1.615
MS.206         	8.305          	1.674
MS.207         	8.29           	1.285
MS.208         	8.273          	1.561
MS.209         	8.255          	1.674
MS.210         	8.24           	1.472
MS.211         	8.222          	1.398
MS.212         	8.207          	1.374
MS.213         	8.19           	1.358
MS.214         	8.172          	1.15
MS.215         	8.158          	1.174
MS.216         	8.14           	1.128
MS.217         	8.125          	1.307
MS.218         	8.108          	1.061
MS.219         	8.092          	1.053
MS.220         	8.075          	1.2
MS.221         	8.06           	1.092
MS.222         	8.045          	1.088
MS.223         	8.028          	1.144
MS.224         	8.012          	0.957
MS.225         	7.995          	0.927
MS.226         	7.98           	0.935
MS.227         	7.965          	0.9
MS.228         	7.947          	0.854
MS.229         	7.932          	0.955
MS.230         	7.915          	0.87
MS.231         	7.9            	0.957
MS.232         	7.885          	0.9
MS.233         	7.87           	0.8
MS.234         	7.852          	0.86
MS.235         	7.837          	0.79
MS.236         	7.822          	0.749
MS.237         	7.805          	0.759
MS.238         	7.79           	0.727
MS.239         	7.775          	0.767
MS.240         	7.76           	0.806
MS.241         	7.745          	0.725
MS.242         	7.727          	0.693
MS.243         	7.712          	0.693
MS.244         	7.697          	0.566
MS.245         	7.682          	0.699
MS.246         	7.668          	0.63
MS.247         	7.652          	0.614
MS.248         	7.635          	0.675
MS.249         	7.62           	0.727
MS.250         	7.605          	0.534
MS.251         	7.59           	0.691
MS.252         	7.575          	0.479
MS.253         	7.56           	0.542
MS.254         	7.545          	0.572
MS.255         	7.53           	0.471
MS.256         	7.515          	0.504
MS.257         	7.5            	0.475
MS.258         	7.485          	0.369
MS.259         	7.47           	0.405
MS.260         	7.455          	0.419
MS.261         	7.44           	0.397
MS.262         	7.425          	0.435
MS.263         	7.41           	0.344
MS.264         	7.395          	0.427
MS.265         	7.38           	0.469
MS.266         	7.365          	0.236
MS.267         	7.352          	0.189
MS.268         	7.337          	0.203
MS.269         	7.322          	0.266
MS.270         	7.307          	0.167
MS.271         	7.293          	0.316
MS.272         	7.277          	0.187
MS.273         	7.265          	0.189
MS.274         	7.25           	0.3
MS.275         	7.235          	0.244
MS.276         	7.22           	0.143
MS.277         	7.205          	0.244
MS.278         	7.192          	0.189
MS.279         	7.177          	0.145
MS.280         	7.162          	0.137
MS.281         	7.148          	0.139
MS.282         	7.135          	0.139
MS.283         	7.12           	0.141
MS.284         	7.105          	0.129
MS.285         	7.092          	0.141
MS.286         	7.077          	0.139
MS.287         	7.062          	0.143
MS.288         	7.05           	0.141
MS.289         	7.035          	0.077
MS.290         	7.02           	0.137
MS.291         	7.007          	0.143
MS.292         	6.992          	0.077
MS.293         	6.98           	0.131
MS.294         	6.965          	0.141
MS.295         	6.95           	0.073
MS.296         	6.938          	0.133
MS.297         	6.922          	0.075
MS.298         	6.91           	0.068
MS.299         	6.895          	0.137
MS.300         	6.882          	0.135
MS.301         	6.867          	0.129
MS.302         	6.855          	0.066
MS.303         	6.84           	0.133
MS.304         	6.827          	0.075
MS.305         	6.812          	0.068
MS.306         	6.8            	0.068
MS.307         	6.787          	0.068
MS.308         	6.773          	0.073
MS.309         	6.76           	0.06
MS.310         	6.745          	0.073
MS.311         	6.733          	0.068
MS.312         	6.72           	0.066
MS.313         	6.705          	0.062
MS.314         	6.692          	0.068
MS.315         	6.677          	0.064
MS.316         	6.665          	0.064
MS.317         	6.652          	0.062
MS.318         	6.637          	0.064
MS.319         	6.625          	0.073
MS.320         	6.612          	0.064
MS.321         	6.6            	0.062
MS.322         	6.585          	0.066
MS.323         	6.572          	0.066
MS.324         	6.56           	0.068
MS.325         	6.547          	0.062
MS.326         	6.532          	0.068
MS.327         	6.52           	0.06
MS.328         	6.507          	0.064
MS.329         	6.495          	0.062
MS.330         	6.48           	0.064
MS.331         	6.467          	0.06
MS.332         	6.455          	0.066
MS.333         	6.442          	0.064
MS.334         	6.43           	0.062
MS.335         	6.418          	0.062
MS.336         	6.405          	0.062
MS.337         	6.39           	0.064
MS.338         	6.378          	0.064
MS.339         	6.365          	0.058
MS.340         	6.352          	0.06
MS.341         	6.34           	0.062
MS.342         	6.327          	0.068
MS.343         	6.315          	0.062
MS.344         	6.302          	0.066
MS.345         	6.29           	0.064
MS.346         	6.277          	0.06
MS.347         	6.265          	0.06
MS.348         	6.253          	0.064
MS.349         	6.24           	0.062
MS.350         	6.227          	0.062
MS.351         	6.215          	0.068
MS.352         	6.202          	0.06
MS.353         	6.19           	0.064
MS.354         	6.177          	0.064
MS.355         	6.165          	0.066
MS.356         	6.152          	0.064
MS.357         	6.14           	0.068
MS.358         	6.128          	0.07
MS.359         	6.115          	0.064
MS.360         	6.102          	0.06
MS.361         	6.092          	0.064
MS.362         	6.08           	0.066
MS.363         	6.067          	0.066
MS.364         	6.055          	0.064
MS.365         	6.043          	0.066
MS.366         	6.03           	0.064
MS.367         	6.02           	0.062
MS.368         	6.007          	0.062
MS.369         	5.995          	0.062
MS.370         	5.983          	0.062
MS.371         	5.97           	0.066
MS.372         	5.96           	0.058
MS.373         	5.947          	0.068
MS.374         	5.935          	0.06
MS.375         	5.922          	0.062
MS.376         	5.912          	0.062
MS.377         	5.9            	0.062
MS.378         	5.887          	0.066
MS.379         	5.875          	0.066
MS.380         	5.865          	0.062
MS.381         	5.852          	0.068
MS.382         	5.84           	0.062
MS.383         	5.83           	0.068
MS.384         	5.817          	0.062
MS.385         	5.805          	0.064
MS.386         	5.795          	0.068
MS.387         	5.782          	0.066
MS.388         	5.773          	0.068
MS.389         	5.76           	0.062
MS.390         	5.747          	0.064
MS.391         	5.737          	0.064
MS.392         	5.725          	0.068
MS.393         	5.715          	0.068
MS.394         	5.702          	0.064
MS.395         	5.69           	0.066
MS.396         	5.68           	0.064
MS.397         	5.668          	0.062
MS.398         	5.657          	0.062
MS.399         	5.645          	0.068
MS.400         	5.635          	0.06
MS.401         	5.622          	0.064
MS.402         	5.612          	0.066
MS.403         	5.6            	0.066
MS.404         	5.59           	0.064
MS.405         	5.577          	0.062
MS.406         	5.567          	0.068
MS.407         	5.555          	0.062
MS.408         	5.545          	0.062
MS.409         	5.535          	0.064
MS.410         	5.523          	0.064
MS.411         	5.512          	0.064
MS.412         	5.5            	0.064
MS.413         	5.49           	0.062
MS.414         	5.48           	0.06
DERIVED EXCITABILITY VARIABLES
Program = QTracP 3/4/2020
Threshold method = 6 (optimised for CAP, using data for present condition only)
SR method = 1 (using actual data values)
6.                 	0.000               	Peak response\(mV)
9.                 	30.7                	Temperature ( C)
17.                	28                  	Age (years)
18.                	2                   	Sex (M=1, F=2)

EXTRA VARIABLES

MScPeak(mV) = 9.71
MScS5(mA) = 7.54
MScS50(mA) = 9.17
MScS95(mA) = 10.68
MScNSteps = 8
MScSteps(%) = 21.2
MScStepMax(%) = 3.9
MScD50 = 31
MScSlope = 8.71
MSFPeakAmp(mV) = 9.72
MSFNUnits = 135
MSFMeanUnitAmp(uV) = 72
MSFHuntTime(m) = 1.89
MSFError(%) = 4.69
MSFNLarge = 43.47
MSFMedianAmp(%) = 0.646
MSFMedianAmp(mV) = 0.0628
MSFHalfAmpAmp(%) = 0.792
MSFHalfAmpAmp(mV) = 0.077
MSFLargestAmp(%) = 2.05
MSFLargestAmp(mV) = 0.199
MSFMeanRS(%) = 2
MSFOpts = 10106121
MScDuration(min) = 3.7
MSFTraces = 359
MSFSizeLimit(uV) = 24.3
MSFLimitType = 1
MSFSmallestAmp(uV) = 24.9

EXTRA WAVEFORMS


!MScan Model
!135
	1	6.99	0.38	2
	2	7.12	0.45	2
	3	7.25	0.48	2
	4	7.33	0.92	2
	5	7.38	0.49	2
	6	7.42	0.38	2
	7	7.46	0.45	2
	8	7.49	0.5	2
	9	7.52	0.47	2
	10	7.61	0.79	2
	11	7.67	0.77	2
	12	7.72	0.55	2
	13	7.77	0.35	2
	14	7.82	0.49	2
	15	7.85	0.31	2
	16	7.88	0.28	2
	17	7.91	0.32	2
	18	7.94	0.39	2
	19	7.97	0.5	2
	20	8	0.52	2
	21	8.04	0.26	2
	22	8.07	0.53	2
	23	8.11	0.86	2
	24	8.15	0.74	2
	25	8.17	0.54	2
	26	8.2	0.31	2
	27	8.22	0.56	2
	28	8.24	0.61	2
	29	8.27	0.74	2
	30	8.3	0.76	2
	31	8.35	1.29	2
	32	8.41	1.32	2
	33	8.43	0.7	2
	34	8.46	1.16	2
	35	8.48	0.84	2
	36	8.5	0.78	2
	37	8.51	0.66	2
	38	8.53	0.29	2
	39	8.55	0.74	2
	40	8.57	0.85	2
	41	8.59	0.77	2
	42	8.6	0.8	2
	43	8.62	0.86	2
	44	8.64	0.82	2
	45	8.66	0.8	2
	46	8.67	0.8	2
	47	8.69	0.77	2
	48	8.71	0.68	2
	49	8.72	0.59	2
	50	8.74	0.62	2
	51	8.75	0.64	2
	52	8.76	0.54	2
	53	8.78	0.44	2
	54	8.79	0.61	2
	55	8.8	0.76	2
	56	8.81	0.85	2
	57	8.83	0.62	2
	58	8.84	0.46	2
	59	8.85	0.58	2
	60	8.87	0.62	2
	61	8.88	0.63	2
	62	8.89	0.63	2
	63	8.91	0.65	2
	64	8.92	0.79	2
	65	8.93	0.73	2
	66	8.95	0.79	2
	67	8.97	0.74	2
	68	8.98	0.59	2
	69	9	0.44	2
	70	9.01	0.81	2
	71	9.03	0.67	2
	72	9.06	1.07	2
	73	9.08	1.05	2
	74	9.11	0.93	2
	75	9.14	0.83	2
	76	9.16	1.17	2
	77	9.19	1.1	2
	78	9.22	0.87	2
	79	9.23	0.53	2
	80	9.25	0.55	2
	81	9.26	0.68	2
	82	9.27	0.77	2
	83	9.29	0.76	2
	84	9.3	0.48	2
	85	9.31	0.46	2
	86	9.32	0.52	2
	87	9.32	0.52	2
	88	9.33	0.38	2
	89	9.34	0.33	2
	90	9.35	0.38	2
	91	9.36	0.4	2
	92	9.37	0.45	2
	93	9.38	0.53	2
	94	9.39	0.51	2
	95	9.4	0.49	2
	96	9.41	0.57	2
	97	9.43	1.1	2
	98	9.45	1.09	2
	99	9.47	1.03	2
	100	9.49	1.21	2
	101	9.52	1.35	2
	102	9.55	1.78	2
	103	9.57	1.36	2
	104	9.61	1.61	2
	105	9.65	0.6	2
	106	9.65	2.05	2
	107	9.69	1.81	2
	108	9.74	1.39	2
	109	9.79	1.77	2
	110	9.85	2.04	2
	111	9.89	1.24	2
	112	9.92	0.81	2
	113	9.95	0.49	2
	114	9.98	1.12	2
	115	10.01	0.86	2
	116	10.01	0.99	2
	117	10.11	1.41	2
	118	10.17	1.89	2
	119	10.21	0.53	2
	120	10.23	0.32	2
	121	10.26	0.41	2
	122	10.31	0.78	2
	123	10.36	0.49	2
	124	10.55	0.77	2
	125	10.65	0.71	2
	126	10.68	0.27	2
	127	10.72	0.46	2
	128	10.8	0.41	2
	129	10.86	0.5	2
	130	10.93	0.5	2
	131	11	0.51	2
	132	11.09	0.45	2
	133	11.38	0.91	2
