File:              	C:\Qtrac\Data\Daniel M Sørensen\MScan multicentre study\Data from centres\Oslo\Processed data\SZC00611A (2).QZD
Name:              	NO.OSL.NC.16.2
Protocol:          	MSCAN-R2
Date:              	11/6/20
Start time:        	15:19:40
Age:               	64
Sex:               	M
Temperature:       	33.5
S/R sites:         	APB
NC/disease:        	NC16
Operator:          	SZ
Comments:          	Test2
M-SCAN DATA (8.2-3.3m)
Scanpts: 25, 52, 518, 540
Stim. (mA)     	Amp. (mV)
MS.1           	18             	11.581
MS.2           	18             	11.589
MS.3           	18             	11.591
MS.4           	18             	11.573
MS.5           	18             	11.573
MS.6           	18             	11.567
MS.7           	18             	11.581
MS.8           	18             	11.591
MS.9           	18             	11.573
MS.10          	18             	11.565
MS.11          	18             	11.581
MS.12          	18             	11.591
MS.13          	18             	11.587
MS.14          	18             	11.598
MS.15          	18             	11.596
MS.16          	18             	11.585
MS.17          	18             	11.577
MS.18          	18             	11.573
MS.19          	18             	11.575
MS.20          	18             	11.571
MS.21          	18             	11.571
MS.22          	18             	11.581
MS.23          	18             	11.589
MS.24          	17.927         	11.569
MS.25          	17.892         	11.559
MS.26          	17.858         	11.559
MS.27          	17.82          	11.567
MS.28          	17.785         	11.559
MS.29          	17.75          	11.567
MS.30          	17.715         	11.585
MS.31          	17.68          	11.559
MS.32          	17.642         	11.559
MS.33          	17.608         	11.571
MS.34          	17.573         	11.606
MS.35          	17.538         	11.589
MS.36          	17.503         	11.596
MS.37          	17.467         	11.583
MS.38          	17.432         	11.585
MS.39          	17.397         	11.579
MS.40          	17.362         	11.589
MS.41          	17.33          	11.573
MS.42          	17.295         	11.569
MS.43          	17.26          	11.579
MS.44          	17.225         	11.579
MS.45          	17.19          	11.563
MS.46          	17.157         	11.577
MS.47          	17.122         	11.589
MS.48          	17.087         	11.589
MS.49          	17.052         	11.594
MS.50          	17.02          	11.596
MS.51          	16.985         	11.596
MS.52          	16.952         	11.604
MS.53          	16.917         	11.579
MS.54          	16.885         	11.543
MS.55          	16.85          	11.531
MS.56          	16.817         	11.591
MS.57          	16.782         	11.575
MS.58          	16.75          	11.577
MS.59          	16.715         	11.589
MS.60          	16.682         	11.604
MS.61          	16.65          	11.598
MS.62          	16.615         	11.606
MS.63          	16.583         	11.547
MS.64          	16.55          	11.551
MS.65          	16.517         	11.6
MS.66          	16.483         	11.527
MS.67          	16.45          	11.541
MS.68          	16.417         	11.553
MS.69          	16.385         	11.549
MS.70          	16.352         	11.602
MS.71          	16.32          	11.551
MS.72          	16.288         	11.567
MS.73          	16.255         	11.559
MS.74          	16.222         	11.539
MS.75          	16.19          	11.598
MS.76          	16.157         	11.575
MS.77          	16.125         	11.529
MS.78          	16.092         	11.553
MS.79          	16.06          	11.527
MS.80          	16.028         	11.517
MS.81          	15.997         	11.573
MS.82          	15.965         	11.565
MS.83          	15.932         	11.527
MS.84          	15.9           	11.453
MS.85          	15.87          	11.539
MS.86          	15.837         	11.561
MS.87          	15.805         	11.501
MS.88          	15.775         	11.505
MS.89          	15.742         	11.455
MS.90          	15.71          	11.529
MS.91          	15.68          	11.517
MS.92          	15.648         	11.438
MS.93          	15.617         	11.485
MS.94          	15.585         	11.475
MS.95          	15.555         	11.457
MS.96          	15.523         	11.418
MS.97          	15.492         	11.44
MS.98          	15.462         	11.446
MS.99          	15.43          	11.428
MS.100         	15.4           	11.374
MS.101         	15.37          	11.436
MS.102         	15.337         	11.414
MS.103         	15.307         	11.396
MS.104         	15.277         	11.4
MS.105         	15.247         	11.36
MS.106         	15.217         	11.39
MS.107         	15.185         	11.406
MS.108         	15.155         	11.33
MS.109         	15.125         	11.35
MS.110         	15.095         	11.354
MS.111         	15.065         	11.396
MS.112         	15.035         	11.354
MS.113         	15.005         	11.366
MS.114         	14.975         	11.322
MS.115         	14.945         	11.366
MS.116         	14.915         	10.744
MS.117         	14.885         	10.83
MS.118         	14.855         	10.695
MS.119         	14.825         	10.762
MS.120         	14.795         	10.695
MS.121         	14.767         	10.594
MS.122         	14.737         	10.464
MS.123         	14.707         	10.453
MS.124         	14.677         	10.401
MS.125         	14.65          	10.373
MS.126         	14.62          	10.268
MS.127         	14.59          	10.308
MS.128         	14.562         	10.429
MS.129         	14.532         	10.337
MS.130         	14.502         	9.863
MS.131         	14.475         	10.268
MS.132         	14.445         	9.908
MS.133         	14.417         	9.896
MS.134         	14.387         	10.071
MS.135         	14.36          	9.988
MS.136         	14.33          	9.676
MS.137         	14.302         	9.565
MS.138         	14.273         	9.678
MS.139         	14.245         	9.755
MS.140         	14.215         	9.664
MS.141         	14.188         	9.867
MS.142         	14.16          	9.781
MS.143         	14.13          	9.519
MS.144         	14.102         	8.665
MS.145         	14.075         	9.531
MS.146         	14.047         	8.625
MS.147         	14.017         	9.551
MS.148         	13.99          	9.527
MS.149         	13.962         	9.418
MS.150         	13.935         	8.661
MS.151         	13.907         	9.483
MS.152         	13.88          	8.466
MS.153         	13.85          	9.44
MS.154         	13.822         	8.54
MS.155         	13.795         	8.496
MS.156         	13.767         	8.526
MS.157         	13.74          	8.464
MS.158         	13.712         	7.658
MS.159         	13.685         	8.582
MS.160         	13.657         	9.374
MS.161         	13.632         	7.628
MS.162         	13.605         	8.5
MS.163         	13.577         	8.542
MS.164         	13.55          	7.515
MS.165         	13.523         	8.429
MS.166         	13.495         	8.294
MS.167         	13.467         	7.603
MS.168         	13.443         	7.233
MS.169         	13.415         	7.303
MS.170         	13.387         	7.456
MS.171         	13.362         	7.303
MS.172         	13.335         	8.262
MS.173         	13.307         	7.086
MS.174         	13.282         	7.384
MS.175         	13.255         	7.414
MS.176         	13.227         	8.26
MS.177         	13.202         	7.422
MS.178         	13.175         	7.334
MS.179         	13.15          	7.193
MS.180         	13.122         	6.983
MS.181         	13.097         	6.802
MS.182         	13.07          	6.86
MS.183         	13.045         	7.013
MS.184         	13.017         	6.836
MS.185         	12.992         	6.099
MS.186         	12.967         	6.816
MS.187         	12.94          	6.582
MS.188         	12.915         	6.582
MS.189         	12.89          	6.399
MS.190         	12.862         	6.77
MS.191         	12.837         	6.516
MS.192         	12.812         	5.912
MS.193         	12.785         	5.668
MS.194         	12.76          	6.532
MS.195         	12.735         	6.036
MS.196         	12.71          	5.787
MS.197         	12.685         	5.64
MS.198         	12.66          	5.71
MS.199         	12.632         	6.151
MS.200         	12.608         	6.532
MS.201         	12.582         	5.97
MS.202         	12.557         	5.331
MS.203         	12.532         	5.611
MS.204         	12.507         	5.505
MS.205         	12.483         	6.018
MS.206         	12.457         	5.507
MS.207         	12.432         	5.485
MS.208         	12.407         	5.19
MS.209         	12.382         	5.045
MS.210         	12.36          	5.174
MS.211         	12.335         	5.082
MS.212         	12.31          	5.029
MS.213         	12.285         	4.991
MS.214         	12.26          	5.45
MS.215         	12.235         	4.804
MS.216         	12.212         	4.82
MS.217         	12.188         	5.088
MS.218         	12.162         	4.77
MS.219         	12.137         	4.703
MS.220         	12.115         	4.78
MS.221         	12.09          	4.747
MS.222         	12.065         	4.824
MS.223         	12.042         	4.308
MS.224         	12.017         	4.351
MS.225         	11.992         	4.631
MS.226         	11.97          	5.039
MS.227         	11.945         	4.292
MS.228         	11.922         	4.606
MS.229         	11.898         	4.536
MS.230         	11.875         	3.926
MS.231         	11.85          	3.98
MS.232         	11.827         	3.617
MS.233         	11.802         	3.932
MS.234         	11.78          	3.579
MS.235         	11.755         	3.593
MS.236         	11.733         	4.278
MS.237         	11.71          	3.922
MS.238         	11.685         	3.476
MS.239         	11.662         	3.273
MS.240         	11.64          	3.531
MS.241         	11.615         	3.617
MS.242         	11.592         	3.285
MS.243         	11.57          	3.901
MS.244         	11.547         	3.623
MS.245         	11.523         	3.335
MS.246         	11.5           	3.416
MS.247         	11.477         	3.487
MS.248         	11.455         	3.231
MS.249         	11.432         	3.249
MS.250         	11.407         	3.267
MS.251         	11.385         	3.553
MS.252         	11.363         	3.432
MS.253         	11.34          	3.267
MS.254         	11.318         	3.269
MS.255         	11.295         	3.414
MS.256         	11.273         	2.993
MS.257         	11.25          	3.166
MS.258         	11.227         	3.035
MS.259         	11.205         	3.154
MS.260         	11.182         	2.947
MS.261         	11.16          	3.178
MS.262         	11.137         	3.068
MS.263         	11.115         	3.035
MS.264         	11.092         	2.836
MS.265         	11.073         	2.814
MS.266         	11.05          	2.824
MS.267         	11.028         	2.838
MS.268         	11.005         	2.765
MS.269         	10.983         	2.492
MS.270         	10.962         	2.647
MS.271         	10.94          	2.467
MS.272         	10.917         	2.606
MS.273         	10.895         	2.596
MS.274         	10.875         	2.481
MS.275         	10.852         	2.338
MS.276         	10.83          	2.32
MS.277         	10.81          	2.487
MS.278         	10.787         	2.641
MS.279         	10.765         	2.109
MS.280         	10.745         	2.413
MS.281         	10.722         	2.048
MS.282         	10.702         	1.974
MS.283         	10.68          	1.954
MS.284         	10.657         	2.137
MS.285         	10.637         	2.264
MS.286         	10.615         	1.948
MS.287         	10.595         	2.185
MS.288         	10.573         	1.93
MS.289         	10.552         	1.553
MS.290         	10.532         	1.768
MS.291         	10.51          	1.813
MS.292         	10.49          	1.936
MS.293         	10.467         	1.2
MS.294         	10.448         	1.958
MS.295         	10.427         	1.452
MS.296         	10.405         	1.529
MS.297         	10.385         	1.507
MS.298         	10.365         	1.323
MS.299         	10.342         	1.279
MS.300         	10.323         	1.341
MS.301         	10.302         	1.4
MS.302         	10.282         	1.13
MS.303         	10.26          	1.525
MS.304         	10.24          	1.329
MS.305         	10.22          	1.315
MS.306         	10.2           	1.414
MS.307         	10.18          	1.068
MS.308         	10.16          	0.937
MS.309         	10.14          	0.888
MS.310         	10.117         	1.154
MS.311         	10.097         	0.957
MS.312         	10.077         	1.349
MS.313         	10.057         	0.759
MS.314         	10.037         	0.868
MS.315         	10.017         	0.769
MS.316         	9.997          	0.904
MS.317         	9.977          	0.812
MS.318         	9.957          	0.761
MS.319         	9.938          	0.731
MS.320         	9.917          	0.949
MS.321         	9.898          	0.788
MS.322         	9.877          	0.731
MS.323         	9.86           	0.703
MS.324         	9.84           	0.594
MS.325         	9.82           	0.681
MS.326         	9.8            	0.675
MS.327         	9.78           	0.657
MS.328         	9.76           	0.806
MS.329         	9.74           	0.697
MS.330         	9.722          	0.512
MS.331         	9.702          	0.743
MS.332         	9.682          	0.626
MS.333         	9.662          	0.495
MS.334         	9.645          	0.695
MS.335         	9.625          	0.5
MS.336         	9.605          	0.665
MS.337         	9.587          	0.502
MS.338         	9.568          	0.483
MS.339         	9.547          	0.647
MS.340         	9.53           	0.8
MS.341         	9.51           	0.457
MS.342         	9.49           	0.518
MS.343         	9.472          	0.463
MS.344         	9.452          	0.485
MS.345         	9.435          	0.481
MS.346         	9.415          	0.401
MS.347         	9.398          	0.461
MS.348         	9.377          	0.461
MS.349         	9.36           	0.473
MS.350         	9.34           	0.51
MS.351         	9.323          	0.479
MS.352         	9.302          	0.463
MS.353         	9.285          	0.465
MS.354         	9.265          	0.485
MS.355         	9.247          	0.491
MS.356         	9.23           	0.504
MS.357         	9.21           	0.441
MS.358         	9.193          	0.421
MS.359         	9.175          	0.455
MS.360         	9.155          	0.506
MS.361         	9.137          	0.497
MS.362         	9.12           	0.389
MS.363         	9.1            	0.465
MS.364         	9.082          	0.512
MS.365         	9.065          	0.411
MS.366         	9.047          	0.433
MS.367         	9.028          	0.403
MS.368         	9.01           	0.437
MS.369         	8.992          	0.449
MS.370         	8.975          	0.465
MS.371         	8.957          	0.453
MS.372         	8.938          	0.405
MS.373         	8.92           	0.459
MS.374         	8.903          	0.391
MS.375         	8.885          	0.433
MS.376         	8.867          	0.443
MS.377         	8.85           	0.401
MS.378         	8.832          	0.403
MS.379         	8.815          	0.403
MS.380         	8.797          	0.429
MS.381         	8.78           	0.497
MS.382         	8.762          	0.405
MS.383         	8.745          	0.33
MS.384         	8.727          	0.403
MS.385         	8.71           	0.405
MS.386         	8.693          	0.403
MS.387         	8.675          	0.451
MS.388         	8.658          	0.403
MS.389         	8.64           	0.403
MS.390         	8.622          	0.407
MS.391         	8.605          	0.409
MS.392         	8.587          	0.395
MS.393         	8.57           	0.395
MS.394         	8.552          	0.391
MS.395         	8.537          	0.409
MS.396         	8.52           	0.399
MS.397         	8.502          	0.397
MS.398         	8.485          	0.391
MS.399         	8.467          	0.395
MS.400         	8.452          	0.397
MS.401         	8.435          	0.326
MS.402         	8.417          	0.338
MS.403         	8.4            	0.332
MS.404         	8.385          	0.399
MS.405         	8.367          	0.393
MS.406         	8.35           	0.397
MS.407         	8.335          	0.391
MS.408         	8.318          	0.328
MS.409         	8.3            	0.326
MS.410         	8.285          	0.399
MS.411         	8.267          	0.33
MS.412         	8.252          	0.33
MS.413         	8.235          	0.395
MS.414         	8.217          	0.397
MS.415         	8.202          	0.316
MS.416         	8.185          	0.314
MS.417         	8.17           	0.33
MS.418         	8.153          	0.316
MS.419         	8.137          	0.326
MS.420         	8.12           	0.316
MS.421         	8.105          	0.322
MS.422         	8.087          	0.33
MS.423         	8.073          	0.328
MS.424         	8.055          	0.326
MS.425         	8.04           	0.312
MS.426         	8.023          	0.28
MS.427         	8.007          	0.334
MS.428         	7.992          	0.318
MS.429         	7.975          	0.316
MS.430         	7.96           	0.27
MS.431         	7.942          	0.326
MS.432         	7.927          	0.32
MS.433         	7.912          	0.32
MS.434         	7.895          	0.316
MS.435         	7.88           	0.308
MS.436         	7.865          	0.306
MS.437         	7.85           	0.314
MS.438         	7.832          	0.268
MS.439         	7.817          	0.264
MS.440         	7.802          	0.312
MS.441         	7.787          	0.264
MS.442         	7.77           	0.272
MS.443         	7.755          	0.266
MS.444         	7.74           	0.282
MS.445         	7.725          	0.31
MS.446         	7.71           	0.27
MS.447         	7.692          	0.268
MS.448         	7.677          	0.266
MS.449         	7.662          	0.268
MS.450         	7.648          	0.266
MS.451         	7.632          	0.27
MS.452         	7.617          	0.272
MS.453         	7.602          	0.266
MS.454         	7.587          	0.27
MS.455         	7.572          	0.27
MS.456         	7.555          	0.268
MS.457         	7.54           	0.268
MS.458         	7.525          	0.268
MS.459         	7.51           	0.272
MS.460         	7.495          	0.27
MS.461         	7.48           	0.268
MS.462         	7.465          	0.272
MS.463         	7.45           	0.266
MS.464         	7.438          	0.268
MS.465         	7.422          	0.272
MS.466         	7.407          	0.268
MS.467         	7.392          	0.266
MS.468         	7.378          	0.27
MS.469         	7.362          	0.272
MS.470         	7.347          	0.268
MS.471         	7.332          	0.27
MS.472         	7.317          	0.27
MS.473         	7.302          	0.268
MS.474         	7.29           	0.27
MS.475         	7.275          	0.27
MS.476         	7.26           	0.27
MS.477         	7.245          	0.272
MS.478         	7.23           	0.27
MS.479         	7.217          	0.252
MS.480         	7.202          	0.264
MS.481         	7.188          	0.26
MS.482         	7.172          	0.27
MS.483         	7.16           	0.27
MS.484         	7.145          	0.268
MS.485         	7.13           	0.272
MS.486         	7.115          	0.268
MS.487         	7.102          	0.266
MS.488         	7.087          	0.27
MS.489         	7.072          	0.268
MS.490         	7.06           	0.268
MS.491         	7.045          	0.264
MS.492         	7.032          	0.268
MS.493         	7.017          	0.254
MS.494         	7.003          	0.258
MS.495         	6.99           	0.262
MS.496         	6.975          	0.26
MS.497         	6.962          	0.04
MS.498         	6.947          	0.26
