File:              	C:\Qtrac\Data\Daniel M Sørensen\MScan multicentre study\Data from centres\Oslo\IronKey\Oslo_NC_first examination\SZC00622A.QZD
Name:              	NO.OSL.NC.22.1
Protocol:          	MSCAN-R2
Date:              	22/6/20
Start time:        	16:16:48
Age:               	23
Sex:               	F
Temperature:       	34.2
S/R sites:         	Median Wr-APB
NC/disease:        	NC22
Operator:          	SZ
Comments:          	Test1
M-SCAN DATA (4.9-0.9m)
Scanpts: 100, 107, 428, 449
Stim. (mA)     	Amp. (mV)
MS.1           	12.5           	9.217
MS.2           	12.5           	9.215
MS.3           	12.5           	9.172
MS.4           	12.5           	9.164
MS.5           	12.5           	9.112
MS.6           	12.5           	9.138
MS.7           	12.5           	9.126
MS.8           	12.5           	9.138
MS.9           	12.5           	9.152
MS.10          	12.5           	9.16
MS.11          	12.5           	9.172
MS.12          	12.5           	9.154
MS.13          	12.5           	9.156
MS.14          	12.5           	9.134
MS.15          	12.5           	9.138
MS.16          	12.5           	9.138
MS.17          	12.5           	9.136
MS.18          	12.5           	9.122
MS.19          	12.5           	9.126
MS.20          	12.5           	9.124
MS.21          	12.5           	9.138
MS.22          	12.5           	9.12
MS.23          	12.5           	9.138
MS.24          	12.425         	9.108
MS.25          	12.4           	9.114
MS.26          	12.375         	9.128
MS.27          	12.35          	9.1
MS.28          	12.325         	9.102
MS.29          	12.302         	9.098
MS.30          	12.278         	9.094
MS.31          	12.252         	9.082
MS.32          	12.227         	9.084
MS.33          	12.202         	9.088
MS.34          	12.18          	9.102
MS.35          	12.155         	9.106
MS.36          	12.13          	9.094
MS.37          	12.108         	9.108
MS.38          	12.082         	9.118
MS.39          	12.057         	9.128
MS.40          	12.035         	9.122
MS.41          	12.01          	9.116
MS.42          	11.985         	9.138
MS.43          	11.962         	9.128
MS.44          	11.938         	9.16
MS.45          	11.915         	9.154
MS.46          	11.89          	9.148
MS.47          	11.867         	9.15
MS.48          	11.842         	9.152
MS.49          	11.82          	9.15
MS.50          	11.795         	9.15
MS.51          	11.773         	9.15
MS.52          	11.747         	9.162
MS.53          	11.725         	9.15
MS.54          	11.702         	9.152
MS.55          	11.677         	9.16
MS.56          	11.655         	9.16
MS.57          	11.632         	9.162
MS.58          	11.608         	9.158
MS.59          	11.585         	9.177
MS.60          	11.562         	9.181
MS.61          	11.54          	9.174
MS.62          	11.515         	9.187
MS.63          	11.492         	9.183
MS.64          	11.47          	9.189
MS.65          	11.447         	9.183
MS.66          	11.425         	9.189
MS.67          	11.403         	9.197
MS.68          	11.377         	9.201
MS.69          	11.355         	9.207
MS.70          	11.332         	9.213
MS.71          	11.31          	9.203
MS.72          	11.287         	9.209
MS.73          	11.265         	9.215
MS.74          	11.242         	9.213
MS.75          	11.22          	9.225
MS.76          	11.197         	9.225
MS.77          	11.175         	9.229
MS.78          	11.153         	9.241
MS.79          	11.13          	9.243
MS.80          	11.108         	9.249
MS.81          	11.087         	9.239
MS.82          	11.065         	9.251
MS.83          	11.042         	9.251
MS.84          	11.02          	9.263
MS.85          	10.997         	9.263
MS.86          	10.975         	9.259
MS.87          	10.955         	9.261
MS.88          	10.932         	9.263
MS.89          	10.91          	9.273
MS.90          	10.887         	9.275
MS.91          	10.867         	9.269
MS.92          	10.845         	9.267
MS.93          	10.823         	9.265
MS.94          	10.802         	9.275
MS.95          	10.78          	9.269
MS.96          	10.76          	9.271
MS.97          	10.738         	9.277
MS.98          	10.715         	9.265
MS.99          	10.695         	9.263
MS.100         	10.672         	9.271
MS.101         	10.653         	9.265
MS.102         	10.63          	9.261
MS.103         	10.61          	9.275
MS.104         	10.587         	9.273
MS.105         	10.568         	9.263
MS.106         	10.545         	9.271
MS.107         	10.525         	9.263
MS.108         	10.502         	9.255
MS.109         	10.483         	9.257
MS.110         	10.462         	9.279
MS.111         	10.44          	9.269
MS.112         	10.42          	9.271
MS.113         	10.4           	9.277
MS.114         	10.377         	9.275
MS.115         	10.358         	9.283
MS.116         	10.337         	9.295
MS.117         	10.318         	9.267
MS.118         	10.295         	9.269
MS.119         	10.275         	9.279
MS.120         	10.255         	9.269
MS.121         	10.235         	9.267
MS.122         	10.212         	9.259
MS.123         	10.193         	9.263
MS.124         	10.172         	9.259
MS.125         	10.153         	9.247
MS.126         	10.132         	9.245
MS.127         	10.113         	9.251
MS.128         	10.092         	9.241
MS.129         	10.073         	9.243
MS.130         	10.052         	9.235
MS.131         	10.032         	9.221
MS.132         	10.012         	9.241
MS.133         	9.992          	9.229
MS.134         	9.972          	9.229
MS.135         	9.952          	9.229
MS.136         	9.932          	9.209
MS.137         	9.912          	9.215
MS.138         	9.892          	9.054
MS.139         	9.872          	9.056
MS.140         	9.852          	9.062
MS.141         	9.832          	9.054
MS.142         	9.812          	9.211
MS.143         	9.792          	9.06
MS.144         	9.775          	8.997
MS.145         	9.755          	9.207
MS.146         	9.735          	9.058
MS.147         	9.715          	8.989
MS.148         	9.695          	8.995
MS.149         	9.677          	9.209
MS.150         	9.657          	8.975
MS.151         	9.637          	8.977
MS.152         	9.62           	9.13
MS.153         	9.6            	8.977
MS.154         	9.58           	8.979
MS.155         	9.562          	8.963
MS.156         	9.542          	8.961
MS.157         	9.523          	8.957
MS.158         	9.505          	8.959
MS.159         	9.485          	8.939
MS.160         	9.465          	8.818
MS.161         	9.448          	8.943
MS.162         	9.427          	8.812
MS.163         	9.41           	8.935
MS.164         	9.39           	8.802
MS.165         	9.372          	8.818
MS.166         	9.352          	8.852
MS.167         	9.335          	8.804
MS.168         	9.315          	8.737
MS.169         	9.297          	8.731
MS.170         	9.278          	8.83
MS.171         	9.26           	8.709
MS.172         	9.242          	8.774
MS.173         	9.222          	8.719
MS.174         	9.205          	8.834
MS.175         	9.188          	8.24
MS.176         	9.167          	8.687
MS.177         	9.15           	8.659
MS.178         	9.132          	8.574
MS.179         	9.113          	8.741
MS.180         	9.095          	8.689
MS.181         	9.077          	8.594
MS.182         	9.057          	8.546
MS.183         	9.04           	8.159
MS.184         	9.023          	8.566
MS.185         	9.005          	8.177
MS.186         	8.988          	8.105
MS.187         	8.967          	8.566
MS.188         	8.95           	8.643
MS.189         	8.932          	8.208
MS.190         	8.915          	8.165
MS.191         	8.898          	8.153
MS.192         	8.88           	8.327
MS.193         	8.863          	8.075
MS.194         	8.845          	7.98
MS.195         	8.825          	8.026
MS.196         	8.807          	8.002
MS.197         	8.79           	7.912
MS.198         	8.773          	8.043
MS.199         	8.755          	7.948
MS.200         	8.738          	8.316
MS.201         	8.72           	7.962
MS.202         	8.702          	7.966
MS.203         	8.685          	7.982
MS.204         	8.67           	7.938
MS.205         	8.653          	7.779
MS.206         	8.635          	7.817
MS.207         	8.617          	7.807
MS.208         	8.6            	7.831
MS.209         	8.582          	7.781
MS.210         	8.565          	7.859
MS.211         	8.547          	7.9
MS.212         	8.53           	7.877
MS.213         	8.515          	7.807
MS.214         	8.497          	7.841
MS.215         	8.48           	7.847
MS.216         	8.462          	7.398
MS.217         	8.448          	7.753
MS.218         	8.43           	7.708
MS.219         	8.412          	7.783
MS.220         	8.395          	7.759
MS.221         	8.38           	7.759
MS.222         	8.363          	7.402
MS.223         	8.345          	7.763
MS.224         	8.33           	7.354
MS.225         	8.312          	7.376
MS.226         	8.295          	7.686
MS.227         	8.28           	7.362
MS.228         	8.262          	7.338
MS.229         	8.245          	7.414
MS.230         	8.23           	7.38
MS.231         	8.212          	7.593
MS.232         	8.198          	7.148
MS.233         	8.18           	7.344
MS.234         	8.165          	7.277
MS.235         	8.148          	7.338
MS.236         	8.132          	7.225
MS.237         	8.115          	7.221
MS.238         	8.1            	6.85
MS.239         	8.082          	6.876
MS.240         	8.068          	6.818
MS.241         	8.05           	6.766
MS.242         	8.035          	6.905
MS.243         	8.017          	6.747
MS.244         	8.002          	6.729
MS.245         	7.987          	6.961
MS.246         	7.97           	6.8
MS.247         	7.955          	6.808
MS.248         	7.938          	6.802
MS.249         	7.922          	6.693
MS.250         	7.907          	6.788
MS.251         	7.89           	6.459
MS.252         	7.875          	6.465
MS.253         	7.86           	6.538
MS.254         	7.845          	6.598
MS.255         	7.827          	6.693
MS.256         	7.812          	6.514
MS.257         	7.797          	6.314
MS.258         	7.782          	6.421
MS.259         	7.765          	6.133
MS.260         	7.75           	6.415
MS.261         	7.735          	6.167
MS.262         	7.72           	6.214
MS.263         	7.705          	6.022
MS.264         	7.688          	6.21
MS.265         	7.672          	6.006
MS.266         	7.657          	5.787
MS.267         	7.642          	6.129
MS.268         	7.628          	6.01
MS.269         	7.612          	5.813
MS.270         	7.597          	5.736
MS.271         	7.582          	5.617
MS.272         	7.567          	5.571
MS.273         	7.552          	5.767
MS.274         	7.535          	5.178
MS.275         	7.52           	5.321
MS.276         	7.505          	5.398
MS.277         	7.49           	5.491
MS.278         	7.475          	4.945
MS.279         	7.462          	5.142
MS.280         	7.447          	5.422
MS.281         	7.432          	5.277
MS.282         	7.418          	4.904
MS.283         	7.402          	4.8
MS.284         	7.387          	4.582
MS.285         	7.372          	4.981
MS.286         	7.357          	4.951
MS.287         	7.342          	4.915
MS.288         	7.327          	4.802
MS.289         	7.312          	4.675
MS.290         	7.3            	4.437
MS.291         	7.285          	4.894
MS.292         	7.27           	4.318
MS.293         	7.255          	4.451
MS.294         	7.24           	4.51
MS.295         	7.227          	4.042
MS.296         	7.212          	4.032
MS.297         	7.197          	4.071
MS.298         	7.182          	4.127
MS.299         	7.168          	4.177
MS.300         	7.155          	3.986
MS.301         	7.14           	4.008
MS.302         	7.125          	3.525
MS.303         	7.112          	3.883
MS.304         	7.097          	3.684
MS.305         	7.082          	3.942
MS.306         	7.07           	3.495
MS.307         	7.055          	3.184
MS.308         	7.04           	3.196
MS.309         	7.027          	3.404
MS.310         	7.012          	3.07
MS.311         	6.997          	2.985
MS.312         	6.985          	3.184
MS.313         	6.97           	2.923
MS.314         	6.957          	2.647
MS.315         	6.942          	2.628
MS.316         	6.93           	2.917
MS.317         	6.915          	2.697
MS.318         	6.902          	2.788
MS.319         	6.887          	2.651
MS.320         	6.875          	2.62
MS.321         	6.86           	2.633
MS.322         	6.847          	2.419
MS.323         	6.832          	2.016
MS.324         	6.82           	2.318
MS.325         	6.805          	2.091
MS.326         	6.793          	2.062
MS.327         	6.777          	1.944
MS.328         	6.765          	1.962
MS.329         	6.75           	1.692
MS.330         	6.737          	1.748
MS.331         	6.725          	1.922
MS.332         	6.71           	1.913
MS.333         	6.697          	1.829
MS.334         	6.685          	1.708
MS.335         	6.67           	1.603
MS.336         	6.657          	1.416
MS.337         	6.645          	1.613
MS.338         	6.63           	1.456
MS.339         	6.617          	1.422
MS.340         	6.605          	1.301
MS.341         	6.59           	1.323
MS.342         	6.577          	1.569
MS.343         	6.565          	1.198
MS.344         	6.552          	1.098
MS.345         	6.537          	1.394
MS.346         	6.525          	1.253
MS.347         	6.512          	1.088
MS.348         	6.5            	1.08
MS.349         	6.487          	1.088
MS.350         	6.472          	1.186
MS.351         	6.46           	1.186
MS.352         	6.447          	1.249
MS.353         	6.435          	0.8
MS.354         	6.422          	1.092
MS.355         	6.41           	0.916
MS.356         	6.398          	0.886
MS.357         	6.382          	1.045
MS.358         	6.37           	0.918
MS.359         	6.358          	0.864
MS.360         	6.345          	0.58
MS.361         	6.332          	0.781
MS.362         	6.32           	0.713
MS.363         	6.307          	0.681
MS.364         	6.295          	0.699
MS.365         	6.282          	0.659
MS.366         	6.27           	0.487
MS.367         	6.257          	0.594
MS.368         	6.245          	0.632
MS.369         	6.233          	0.665
MS.370         	6.22           	0.463
MS.371         	6.207          	0.638
MS.372         	6.195          	0.463
MS.373         	6.182          	0.361
MS.374         	6.17           	0.306
MS.375         	6.157          	0.405
MS.376         	6.145          	0.357
MS.377         	6.132          	0.234
MS.378         	6.12           	0.441
MS.379         	6.11           	0.254
MS.380         	6.097          	0.163
MS.381         	6.085          	0.218
MS.382         	6.072          	0.348
MS.383         	6.06           	0.365
MS.384         	6.047          	0.169
MS.385         	6.035          	0.282
MS.386         	6.025          	0.224
MS.387         	6.012          	0.177
MS.388         	6              	0.203
MS.389         	5.987          	0.169
MS.390         	5.975          	0.224
MS.391         	5.965          	0.187
MS.392         	5.952          	0.328
MS.393         	5.94           	0.228
MS.394         	5.927          	0.113
MS.395         	5.918          	0.103
MS.396         	5.905          	0.048
MS.397         	5.892          	0.087
MS.398         	5.88           	0.141
MS.399         	5.87           	0.131
MS.400         	5.858          	0.083
MS.401         	5.845          	0.052
MS.402         	5.835          	0.028
MS.403         	5.822          	0.024
MS.404         	5.81           	0.089
MS.405         	5.8            	0.016
MS.406         	5.787          	0.054
MS.407         	5.775          	0.026
MS.408         	5.765          	0.095
MS.409         	5.753          	0.026
MS.410         	5.742          	0.034
MS.411         	5.73           	0.024
MS.412         	5.717          	0.016
MS.413         	5.707          	0.081
MS.414         	5.695          	0.008
MS.415         	5.685          	0.004
MS.416         	5.672          	0.01
MS.417         	5.662          	0.058
MS.418         	5.65           	0.028
MS.419         	5.64           	0.008
MS.420         	5.628          	0.02
MS.421         	5.617          	-0.008
MS.422         	5.605          	0.006
MS.423         	5.595          	0.014
MS.424         	5.582          	0.008
MS.425         	5.572          	-0.004
MS.426         	5.56           	-0.008
MS.427         	5.55           	-0.006
MS.428         	5.537          	-0.002
MS.429         	5.527          	0.006
MS.430         	5.517          	-0.006
MS.431         	5.505          	-0.008
MS.432         	5.495          	-0.006
MS.433         	5.483          	-0.008
MS.434         	5.472          	-0.006
MS.435         	5.463          	-0.004
MS.436         	5.45           	-0.006
MS.437         	5.44           	-0.004
MS.438         	5.43           	-0.004
MS.439         	5.418          	-0.004
MS.440         	5.407          	-0.004
MS.441         	5.398          	-0.002
MS.442         	5.385          	-0.006
MS.443         	5.375          	-0.006
MS.444         	5.365          	-0.004
MS.445         	5.352          	-0.008
MS.446         	5.342          	-0.006
MS.447         	5.332          	-0.006
MS.448         	5.322          	-0.004
MS.449         	5.31           	-0.008
DERIVED EXCITABILITY VARIABLES
Program = QTracP 3/4/2020
Threshold method = 6 (optimised for CAP, using data for present condition only)
SR method = 1 (using actual data values)
6.                 	0.000               	Peak response\(mV)
9.                 	34.2                	Temperature ( C)
17.                	23                  	Age (years)
18.                	2                   	Sex (M=1, F=2)

EXTRA VARIABLES

MScPeak(mV) = 9.15
MScS5(mA) = 6.19
MScS50(mA) = 7.29
MScS95(mA) = 9.14
MScNSteps = 4
MScSteps(%) = 8.8
MScStepMax(%) = 2.4
MScD50 = 37
MScSlope = 5.99
MSFPeakAmp(mV) = 9.27
MSFNUnits = 112
MSFMeanUnitAmp(uV) = 82.8
MSFHuntTime(m) = 1.89
MSFError(%) = 5.43
MSFNLarge = 36.56
MSFMedianAmp(%) = 0.775
MSFMedianAmp(mV) = 0.0719
MSFHalfAmpAmp(%) = 0.938
MSFHalfAmpAmp(mV) = 0.087
MSFLargestAmp(%) = 3.47
MSFLargestAmp(mV) = 0.322
MSFMeanRS(%) = 1.98
MSFOpts = 10106121
MScDuration(min) = 4
MSFTraces = 350
MSFSizeLimit(uV) = 23.2
MSFLimitType = 1
MSFSmallestAmp(uV) = 23.9

EXTRA WAVEFORMS


!MScan Model
!112
	1	5.66	0.29	2
	2	5.83	0.55	2
	3	5.89	0.48	2
	4	5.95	0.64	2
	5	6.07	0.98	2
	6	6.12	0.71	2
	7	6.16	0.72	2
	8	6.18	0.4	2
	9	6.2	0.43	2
	10	6.22	0.49	2
	11	6.25	0.56	2
	12	6.27	0.58	2
	13	6.3	0.69	2
	14	6.33	0.8	2
	15	6.36	0.82	2
	16	6.39	0.66	2
	17	6.42	0.94	2
	18	6.48	1.53	2
	19	6.54	1.33	2
	20	6.55	0.38	2
	21	6.57	0.43	2
	22	6.59	0.61	2
	23	6.61	0.63	2
	24	6.63	0.7	2
	25	6.65	0.38	2
	26	6.67	0.69	2
	27	6.68	0.64	2
	28	6.7	0.64	2
	29	6.72	0.77	2
	30	6.73	0.73	2
	31	6.75	0.59	2
	32	6.76	0.53	2
	33	6.77	0.61	2
	34	6.78	0.72	2
	35	6.79	0.67	2
	36	6.81	0.64	2
	37	6.82	0.71	2
	38	6.83	0.62	2
	39	6.85	0.26	2
	40	6.86	0.59	2
	41	6.87	0.58	2
	42	6.89	0.92	2
	43	6.91	1.03	2
	44	6.92	1	2
	45	6.94	0.86	2
	46	6.96	0.73	2
	47	6.97	0.8	2
	48	6.99	1.04	2
	49	7	0.91	2
	50	7.02	0.83	2
	51	7.03	0.74	2
	52	7.04	0.68	2
	53	7.06	0.57	2
