File:              	C:\Qtrac\Data\Daniel M Sørensen\MScan multicentre study\Data from centres\Oslo\IronKey\Oslo_NC_first examination\SZC00430A.QZD
Name:              	NO.OSL.NC.5.1
Protocol:          	MSCAN-R2
Date:              	30/4/20
Start time:        	12:34:34
Age:               	56
Sex:               	F
Temperature:       	31.3
S/R sites:         	Median Wr-APB
NC/disease:        	NC5
Operator:          	SZ
Comments:          	Test1
M-SCAN DATA (10-1.7m)
Scanpts: 530, 539, 852, 873
Stim. (mA)     	Amp. (mV)
MS.1           	26             	11.503
MS.2           	26             	11.438
MS.3           	26             	11.446
MS.4           	26             	11.457
MS.5           	26             	11.457
MS.6           	26             	11.475
MS.7           	26             	11.446
MS.8           	26             	11.521
MS.9           	26             	11.537
MS.10          	26             	11.525
MS.11          	26             	11.545
MS.12          	26             	11.555
MS.13          	26             	11.543
MS.14          	26             	11.557
MS.15          	26             	11.559
MS.16          	26             	11.519
MS.17          	26             	11.525
MS.18          	26             	11.533
MS.19          	26             	11.505
MS.20          	26             	11.523
MS.21          	26             	11.535
MS.22          	26             	11.513
MS.23          	26             	11.489
MS.24          	25.845         	11.507
MS.25          	25.792         	11.539
MS.26          	25.74          	11.513
MS.27          	25.69          	11.495
MS.28          	25.637         	11.481
MS.29          	25.587         	11.541
MS.30          	25.535         	11.501
MS.31          	25.485         	11.444
MS.32          	25.435         	11.376
MS.33          	25.382         	11.382
MS.34          	25.332         	11.374
MS.35          	25.282         	11.4
MS.36          	25.233         	11.414
MS.37          	25.18          	11.416
MS.38          	25.13          	11.42
MS.39          	25.08          	11.432
MS.40          	25.03          	11.434
MS.41          	24.98          	11.398
MS.42          	24.93          	11.424
MS.43          	24.88          	11.38
MS.44          	24.83          	11.384
MS.45          	24.782         	11.436
MS.46          	24.733         	11.44
MS.47          	24.682         	11.432
MS.48          	24.632         	11.416
MS.49          	24.585         	11.42
MS.50          	24.535         	11.434
MS.51          	24.485         	11.402
MS.52          	24.438         	11.392
MS.53          	24.387         	11.364
MS.54          	24.34          	11.394
MS.55          	24.29          	11.404
MS.56          	24.243         	11.398
MS.57          	24.192         	11.406
MS.58          	24.145         	11.416
MS.59          	24.097         	11.394
MS.60          	24.05          	11.382
MS.61          	24             	11.43
MS.62          	23.952         	11.457
MS.63          	23.905         	11.451
MS.64          	23.858         	11.446
MS.65          	23.81          	11.444
MS.66          	23.762         	11.467
MS.67          	23.715         	11.469
MS.68          	23.667         	11.507
MS.69          	23.62          	11.491
MS.70          	23.573         	11.511
MS.71          	23.525         	11.529
MS.72          	23.477         	11.598
MS.73          	23.432         	11.646
MS.74          	23.385         	11.668
MS.75          	23.337         	11.67
MS.76          	23.292         	11.674
MS.77          	23.245         	11.674
MS.78          	23.198         	11.66
MS.79          	23.153         	11.676
MS.80          	23.105         	11.692
MS.81          	23.06          	11.704
MS.82          	23.015         	11.68
MS.83          	22.967         	11.706
MS.84          	22.922         	11.676
MS.85          	22.875         	11.718
MS.86          	22.83          	11.718
MS.87          	22.785         	11.755
MS.88          	22.74          	11.73
MS.89          	22.695         	11.72
MS.90          	22.647         	11.743
MS.91          	22.602         	11.72
MS.92          	22.557         	11.698
MS.93          	22.512         	11.66
MS.94          	22.467         	11.666
MS.95          	22.422         	11.614
MS.96          	22.377         	11.604
MS.97          	22.332         	11.577
MS.98          	22.29          	11.563
MS.99          	22.245         	11.557
MS.100         	22.2           	11.529
MS.101         	22.155         	11.531
MS.102         	22.112         	11.61
MS.103         	22.067         	11.65
MS.104         	22.022         	11.678
MS.105         	21.98          	11.66
MS.106         	21.935         	11.666
MS.107         	21.892         	11.668
MS.108         	21.847         	11.678
MS.109         	21.805         	11.652
MS.110         	21.76          	11.654
MS.111         	21.717         	11.612
MS.112         	21.672         	11.614
MS.113         	21.63          	11.602
MS.114         	21.587         	11.598
MS.115         	21.545         	11.594
MS.116         	21.5           	11.585
MS.117         	21.458         	11.614
MS.118         	21.415         	11.608
MS.119         	21.372         	11.589
MS.120         	21.33          	11.6
MS.121         	21.288         	11.594
MS.122         	21.245         	11.614
MS.123         	21.202         	11.626
MS.124         	21.16          	11.638
MS.125         	21.118         	11.648
MS.126         	21.075         	11.638
MS.127         	21.032         	11.65
MS.128         	20.99          	11.656
MS.129         	20.95          	11.674
MS.130         	20.907         	11.652
MS.131         	20.865         	11.676
MS.132         	20.823         	11.7
MS.133         	20.782         	11.724
MS.134         	20.74          	11.704
MS.135         	20.7           	11.724
MS.136         	20.657         	11.702
MS.137         	20.618         	11.698
MS.138         	20.575         	11.684
MS.139         	20.535         	11.686
MS.140         	20.493         	11.686
MS.141         	20.452         	11.69
MS.142         	20.413         	11.718
MS.143         	20.37          	11.722
MS.144         	20.33          	11.718
MS.145         	20.29          	11.712
MS.146         	20.247         	11.724
MS.147         	20.208         	11.728
MS.148         	20.167         	11.767
MS.149         	20.127         	11.769
MS.150         	20.087         	11.787
MS.151         	20.047         	11.787
MS.152         	20.007         	11.785
MS.153         	19.967         	11.783
MS.154         	19.927         	11.807
MS.155         	19.887         	11.793
MS.156         	19.847         	11.793
MS.157         	19.807         	11.803
MS.158         	19.767         	11.815
MS.159         	19.73          	11.779
MS.160         	19.69          	11.787
MS.161         	19.65          	11.767
MS.162         	19.61          	11.751
MS.163         	19.573         	11.739
MS.164         	19.532         	11.749
MS.165         	19.493         	11.767
MS.166         	19.455         	11.769
MS.167         	19.415         	11.785
MS.168         	19.377         	11.785
MS.169         	19.337         	11.793
MS.170         	19.3           	11.789
MS.171         	19.26          	11.787
MS.172         	19.222         	11.779
MS.173         	19.185         	11.823
MS.174         	19.145         	11.823
MS.175         	19.108         	11.845
MS.176         	19.07          	11.841
MS.177         	19.032         	11.861
MS.178         	18.993         	11.882
MS.179         	18.955         	11.892
MS.180         	18.917         	11.894
MS.181         	18.88          	11.916
MS.182         	18.842         	11.918
MS.183         	18.805         	11.9
MS.184         	18.767         	11.908
MS.185         	18.73          	11.882
MS.186         	18.692         	11.896
MS.187         	18.655         	11.882
MS.188         	18.618         	11.9
MS.189         	18.58          	11.89
MS.190         	18.542         	11.875
MS.191         	18.505         	11.892
MS.192         	18.47          	11.9
MS.193         	18.432         	11.88
MS.194         	18.395         	11.896
MS.195         	18.358         	11.884
MS.196         	18.323         	11.89
MS.197         	18.285         	11.894
MS.198         	18.247         	11.894
MS.199         	18.212         	11.91
MS.200         	18.175         	11.912
MS.201         	18.14          	11.932
MS.202         	18.102         	11.94
MS.203         	18.067         	11.962
MS.204         	18.03          	11.96
MS.205         	17.995         	11.97
MS.206         	17.96          	11.942
MS.207         	17.922         	11.926
MS.208         	17.887         	11.914
MS.209         	17.852         	11.926
MS.210         	17.815         	11.94
MS.211         	17.78          	11.92
MS.212         	17.745         	11.926
MS.213         	17.71          	11.932
MS.214         	17.675         	11.938
MS.215         	17.637         	11.938
MS.216         	17.602         	11.936
MS.217         	17.567         	11.944
MS.218         	17.532         	11.926
MS.219         	17.497         	11.924
MS.220         	17.462         	11.922
MS.221         	17.427         	11.922
MS.222         	17.392         	11.894
MS.223         	17.358         	11.914
MS.224         	17.325         	11.912
MS.225         	17.29          	11.912
MS.226         	17.255         	11.886
MS.227         	17.22          	11.904
MS.228         	17.185         	11.88
MS.229         	17.153         	11.892
MS.230         	17.118         	11.894
MS.231         	17.083         	11.869
MS.232         	17.05          	11.853
MS.233         	17.015         	11.843
MS.234         	16.98          	11.875
MS.235         	16.948         	11.869
MS.236         	16.913         	11.873
MS.237         	16.88          	11.906
MS.238         	16.845         	11.896
MS.239         	16.812         	11.886
MS.240         	16.778         	11.91
MS.241         	16.745         	11.906
MS.242         	16.712         	11.916
MS.243         	16.677         	11.936
MS.244         	16.645         	11.946
MS.245         	16.612         	11.954
MS.246         	16.577         	11.938
MS.247         	16.545         	11.972
MS.248         	16.512         	11.946
MS.249         	16.48          	11.974
MS.250         	16.445         	11.976
MS.251         	16.413         	11.988
MS.252         	16.38          	12.006
MS.253         	16.347         	12.002
MS.254         	16.315         	11.996
MS.255         	16.282         	11.994
MS.256         	16.25          	11.992
MS.257         	16.217         	11.984
MS.258         	16.185         	11.988
MS.259         	16.153         	11.976
MS.260         	16.12          	11.974
MS.261         	16.087         	11.962
MS.262         	16.055         	11.958
MS.263         	16.025         	11.966
MS.264         	15.992         	11.95
MS.265         	15.96          	11.938
MS.266         	15.927         	11.948
MS.267         	15.898         	11.938
MS.268         	15.865         	11.926
MS.269         	15.832         	11.936
MS.270         	15.802         	11.928
MS.271         	15.77          	11.94
MS.272         	15.737         	11.924
MS.273         	15.707         	11.946
MS.274         	15.675         	11.94
MS.275         	15.645         	11.936
MS.276         	15.612         	11.954
MS.277         	15.582         	11.968
MS.278         	15.55          	11.98
MS.279         	15.52          	11.982
MS.280         	15.487         	11.98
MS.281         	15.457         	11.976
MS.282         	15.427         	11.984
MS.283         	15.395         	11.972
MS.284         	15.365         	11.982
MS.285         	15.335         	11.962
MS.286         	15.302         	11.984
MS.287         	15.273         	11.982
MS.288         	15.242         	11.972
MS.289         	15.212         	11.968
MS.290         	15.182         	11.964
MS.291         	15.152         	11.964
MS.292         	15.12          	11.96
MS.293         	15.09          	11.968
MS.294         	15.06          	11.952
MS.295         	15.03          	11.96
MS.296         	15             	11.966
MS.297         	14.97          	11.95
MS.298         	14.94          	11.97
MS.299         	14.91          	11.984
MS.300         	14.88          	11.966
MS.301         	14.852         	11.974
MS.302         	14.822         	11.972
MS.303         	14.792         	11.97
MS.304         	14.762         	11.97
MS.305         	14.733         	11.962
MS.306         	14.702         	11.962
MS.307         	14.675         	11.962
MS.308         	14.645         	11.936
MS.309         	14.615         	11.93
MS.310         	14.587         	11.93
MS.311         	14.557         	11.906
MS.312         	14.527         	11.89
MS.313         	14.5           	11.884
MS.314         	14.47          	11.888
MS.315         	14.443         	11.89
MS.316         	14.412         	11.886
MS.317         	14.382         	11.88
MS.318         	14.355         	11.89
MS.319         	14.325         	11.908
MS.320         	14.297         	11.914
MS.321         	14.27          	11.938
MS.322         	14.24          	11.954
MS.323         	14.212         	11.948
MS.324         	14.182         	11.968
MS.325         	14.155         	11.958
MS.326         	14.127         	11.962
MS.327         	14.1           	11.97
MS.328         	14.07          	11.954
MS.329         	14.042         	11.958
MS.330         	14.015         	11.948
MS.331         	13.987         	11.928
MS.332         	13.957         	11.93
MS.333         	13.93          	11.938
MS.334         	13.903         	11.96
MS.335         	13.875         	11.974
MS.336         	13.847         	11.984
MS.337         	13.82          	11.962
MS.338         	13.792         	11.978
MS.339         	13.765         	11.98
MS.340         	13.737         	11.986
MS.341         	13.71          	12.008
MS.342         	13.682         	12.002
MS.343         	13.655         	12.004
MS.344         	13.627         	12.01
MS.345         	13.6           	11.996
MS.346         	13.572         	12.018
MS.347         	13.545         	12.047
MS.348         	13.52          	12.055
MS.349         	13.492         	12.063
MS.350         	13.465         	12.027
MS.351         	13.438         	12.035
MS.352         	13.41          	12.049
MS.353         	13.385         	12.047
MS.354         	13.358         	12.057
MS.355         	13.33          	12.053
MS.356         	13.305         	12.055
MS.357         	13.278         	12.067
MS.358         	13.252         	12.051
MS.359         	13.225         	12.067
MS.360         	13.197         	12.053
MS.361         	13.172         	12.059
MS.362         	13.145         	12.029
MS.363         	13.12          	12.002
MS.364         	13.092         	12.014
MS.365         	13.068         	11.99
MS.366         	13.04          	11.986
MS.367         	13.015         	11.99
MS.368         	12.99          	11.978
MS.369         	12.962         	11.99
MS.370         	12.938         	12.004
MS.371         	12.91          	12.006
MS.372         	12.885         	12.012
MS.373         	12.86          	12.008
MS.374         	12.835         	12.01
MS.375         	12.807         	11.998
MS.376         	12.782         	12.018
MS.377         	12.757         	12
MS.378         	12.733         	12.008
MS.379         	12.705         	11.992
MS.380         	12.68          	11.986
MS.381         	12.655         	11.994
MS.382         	12.63          	11.986
MS.383         	12.605         	11.984
MS.384         	12.58          	11.982
MS.385         	12.555         	12.004
MS.386         	12.53          	11.97
MS.387         	12.505         	12
MS.388         	12.48          	11.998
MS.389         	12.455         	12.002
MS.390         	12.43          	11.998
MS.391         	12.405         	12.004
MS.392         	12.38          	11.99
MS.393         	12.355         	11.99
MS.394         	12.33          	11.982
MS.395         	12.305         	12.002
MS.396         	12.282         	11.998
MS.397         	12.257         	11.996
MS.398         	12.233         	12.01
MS.399         	12.207         	12
MS.400         	12.182         	12.006
MS.401         	12.16          	12.023
MS.402         	12.135         	12.039
MS.403         	12.11          	12.053
MS.404         	12.087         	12.031
MS.405         	12.062         	12.043
MS.406         	12.037         	12.043
MS.407         	12.015         	12.039
MS.408         	11.99          	12.073
MS.409         	11.967         	12.063
MS.410         	11.943         	12.057
MS.411         	11.917         	12.073
MS.412         	11.895         	12.069
MS.413         	11.87          	12.063
MS.414         	11.847         	12.077
MS.415         	11.822         	12.093
MS.416         	11.8           	12.095
MS.417         	11.778         	12.099
MS.418         	11.752         	12.083
MS.419         	11.73          	12.079
MS.420         	11.705         	12.087
MS.421         	11.682         	12.077
MS.422         	11.66          	12.081
MS.423         	11.635         	12.087
MS.424         	11.613         	12.087
MS.425         	11.59          	12.081
MS.426         	11.568         	12.095
MS.427         	11.542         	12.075
MS.428         	11.52          	12.075
MS.429         	11.497         	12.101
MS.430         	11.475         	12.069
MS.431         	11.45          	12.067
MS.432         	11.427         	12.063
MS.433         	11.405         	12.061
MS.434         	11.382         	12.063
MS.435         	11.36          	12.065
MS.436         	11.337         	12.057
MS.437         	11.315         	12.047
MS.438         	11.292         	12.043
MS.439         	11.27          	12.057
MS.440         	11.247         	12.041
MS.441         	11.225         	12.043
MS.442         	11.202         	12.049
MS.443         	11.18          	12.053
MS.444         	11.157         	12.045
MS.445         	11.135         	12.063
MS.446         	11.113         	12.051
MS.447         	11.09          	12.047
MS.448         	11.068         	12.069
MS.449         	11.047         	12.055
MS.450         	11.025         	12.087
MS.451         	11.002         	12.071
MS.452         	10.98          	12.071
MS.453         	10.957         	12.087
MS.454         	10.938         	12.087
MS.455         	10.915         	12.073
MS.456         	10.892         	12.079
MS.457         	10.87          	12.087
MS.458         	10.85          	12.113
MS.459         	10.827         	12.095
MS.460         	10.805         	12.113
MS.461         	10.785         	12.109
MS.462         	10.762         	12.107
MS.463         	10.742         	12.119
MS.464         	10.72          	11.648
MS.465         	10.698         	12.113
MS.466         	10.677         	12.085
MS.467         	10.655         	12.099
MS.468         	10.635         	11.62
MS.469         	10.613         	11.654
MS.470         	10.592         	11.638
MS.471         	10.57          	11.662
MS.472         	10.55          	11.61
MS.473         	10.528         	11.678
MS.474         	10.507         	11.672
MS.475         	10.488         	11.662
MS.476         	10.465         	11.678
MS.477         	10.445         	11.686
MS.478         	10.425         	11.694
MS.479         	10.403         	11.672
MS.480         	10.382         	11.708
MS.481         	10.363         	11.682
MS.482         	10.34          	11.7
MS.483         	10.32          	11.698
MS.484         	10.3           	11.708
MS.485         	10.28          	11.694
MS.486         	10.257         	11.706
MS.487         	10.238         	11.692
MS.488         	10.217         	11.666
