File:              	C:\Qtrac\Data\Daniel M Sørensen\MScan multicentre study\Data from centres\Oslo\IronKey\Oslo_NC_first examination\SZC00508A.QZD
Name:              	NO.OSL.NC.8.1
Protocol:          	MSCAN-R2
Date:              	8/5/20
Start time:        	11:17:13
Age:               	68
Sex:               	F
Temperature:       	32.2
S/R sites:         	Median Wr-APB
NC/disease:        	NC8
Operator:          	SZ
Comments:          	Test1
M-SCAN DATA (21.7-12.8m)
Scanpts: 398, 411, 862, 870
Stim. (mA)     	Amp. (mV)
MS.1           	32             	9.68
MS.2           	32             	9.684
MS.3           	32             	9.686
MS.4           	32             	9.686
MS.5           	32             	9.666
MS.6           	32             	9.73
MS.7           	32             	9.702
MS.8           	32             	9.704
MS.9           	32             	9.694
MS.10          	32             	9.682
MS.11          	32             	9.694
MS.12          	32             	9.755
MS.13          	32             	9.732
MS.14          	32             	9.751
MS.15          	32             	9.706
MS.16          	32             	9.694
MS.17          	32             	9.664
MS.18          	32             	9.706
MS.19          	32             	9.734
MS.20          	32             	9.777
MS.21          	32             	9.732
MS.22          	32             	9.749
MS.23          	32             	9.734
MS.24          	31.872         	9.716
MS.25          	31.807         	9.73
MS.26          	31.745         	9.736
MS.27          	31.682         	9.732
MS.28          	31.617         	9.745
MS.29          	31.555         	9.738
MS.30          	31.492         	9.738
MS.31          	31.43          	9.738
MS.32          	31.365         	9.755
MS.33          	31.302         	9.783
MS.34          	31.24          	9.765
MS.35          	31.177         	9.763
MS.36          	31.117         	9.765
MS.37          	31.055         	9.761
MS.38          	30.992         	9.785
MS.39          	30.93          	9.753
MS.40          	30.867         	9.767
MS.41          	30.807         	9.747
MS.42          	30.745         	9.751
MS.43          	30.682         	9.761
MS.44          	30.622         	9.765
MS.45          	30.56          	9.779
MS.46          	30.5           	9.781
MS.47          	30.44          	9.801
MS.48          	30.377         	9.799
MS.49          	30.317         	9.779
MS.50          	30.257         	9.793
MS.51          	30.198         	9.795
MS.52          	30.137         	9.787
MS.53          	30.075         	9.803
MS.54          	30.015         	9.801
MS.55          	29.955         	9.813
MS.56          	29.895         	9.821
MS.57          	29.837         	9.823
MS.58          	29.778         	9.823
MS.59          	29.717         	9.815
MS.60          	29.657         	9.815
MS.61          	29.597         	9.825
MS.62          	29.54          	9.839
MS.63          	29.48          	9.825
MS.64          	29.422         	9.837
MS.65          	29.362         	9.833
MS.66          	29.305         	9.831
MS.67          	29.245         	9.837
MS.68          	29.188         	9.849
MS.69          	29.13          	9.859
MS.70          	29.07          	9.847
MS.71          	29.012         	9.837
MS.72          	28.955         	9.851
MS.73          	28.897         	9.851
MS.74          	28.84          	9.857
MS.75          	28.782         	9.849
MS.76          	28.725         	9.853
MS.77          	28.667         	9.865
MS.78          	28.61          	9.853
MS.79          	28.552         	9.867
MS.80          	28.495         	9.869
MS.81          	28.438         	9.881
MS.82          	28.382         	9.883
MS.83          	28.325         	9.9
MS.84          	28.267         	9.89
MS.85          	28.212         	9.89
MS.86          	28.155         	9.877
MS.87          	28.1           	9.879
MS.88          	28.042         	9.867
MS.89          	27.987         	9.863
MS.90          	27.93          	9.871
MS.91          	27.875         	9.869
MS.92          	27.82          	9.879
MS.93          	27.765         	9.879
MS.94          	27.707         	9.888
MS.95          	27.653         	9.896
MS.96          	27.597         	9.908
MS.97          	27.542         	9.914
MS.98          	27.487         	9.912
MS.99          	27.432         	9.912
MS.100         	27.377         	9.91
MS.101         	27.323         	9.918
MS.102         	27.267         	9.92
MS.103         	27.215         	9.914
MS.104         	27.16          	9.918
MS.105         	27.105         	9.922
MS.106         	27.05          	9.924
MS.107         	26.997         	9.918
MS.108         	26.942         	9.932
MS.109         	26.89          	9.934
MS.110         	26.835         	9.934
MS.111         	26.782         	9.936
MS.112         	26.727         	9.938
MS.113         	26.675         	9.928
MS.114         	26.622         	9.928
MS.115         	26.567         	9.928
MS.116         	26.515         	9.936
MS.117         	26.462         	9.932
MS.118         	26.41          	9.936
MS.119         	26.358         	9.932
MS.120         	26.305         	9.952
MS.121         	26.252         	9.922
MS.122         	26.2           	9.94
MS.123         	26.147         	9.93
MS.124         	26.095         	9.936
MS.125         	26.042         	9.946
MS.126         	25.99          	9.942
MS.127         	25.938         	9.94
MS.128         	25.887         	9.952
MS.129         	25.835         	9.948
MS.130         	25.782         	9.95
MS.131         	25.733         	9.944
MS.132         	25.68          	9.95
MS.133         	25.63          	9.962
MS.134         	25.577         	9.96
MS.135         	25.528         	9.948
MS.136         	25.475         	9.958
MS.137         	25.425         	9.96
MS.138         	25.375         	9.954
MS.139         	25.323         	9.962
MS.140         	25.272         	9.952
MS.141         	25.222         	9.95
MS.142         	25.172         	9.954
MS.143         	25.122         	9.97
MS.144         	25.073         	9.97
MS.145         	25.022         	9.97
MS.146         	24.972         	9.972
MS.147         	24.922         	9.974
MS.148         	24.872         	9.974
MS.149         	24.823         	9.972
MS.150         	24.772         	9.972
MS.151         	24.722         	9.98
MS.152         	24.672         	9.976
MS.153         	24.625         	9.978
MS.154         	24.575         	9.964
MS.155         	24.525         	9.978
MS.156         	24.477         	9.968
MS.157         	24.427         	9.968
MS.158         	24.38          	9.968
MS.159         	24.33          	9.964
MS.160         	24.282         	9.966
MS.161         	24.233         	9.98
MS.162         	24.185         	9.97
MS.163         	24.137         	9.97
MS.164         	24.087         	9.974
MS.165         	24.04          	9.964
MS.166         	23.993         	9.966
MS.167         	23.945         	9.98
MS.168         	23.897         	9.97
MS.169         	23.85          	9.974
MS.170         	23.8           	9.988
MS.171         	23.752         	9.966
MS.172         	23.705         	9.976
MS.173         	23.657         	9.974
MS.174         	23.612         	9.988
MS.175         	23.565         	9.984
MS.176         	23.517         	9.98
MS.177         	23.47          	9.984
MS.178         	23.422         	9.986
MS.179         	23.377         	9.972
MS.180         	23.33          	9.982
MS.181         	23.282         	9.99
MS.182         	23.237         	9.984
MS.183         	23.19          	9.976
MS.184         	23.145         	9.992
MS.185         	23.097         	9.98
MS.186         	23.052         	9.982
MS.187         	23.005         	9.994
MS.188         	22.96          	9.97
MS.189         	22.913         	9.94
MS.190         	22.868         	9.968
MS.191         	22.823         	9.968
MS.192         	22.778         	9.974
MS.193         	22.73          	9.984
MS.194         	22.685         	9.982
MS.195         	22.64          	9.994
MS.196         	22.595         	9.994
MS.197         	22.55          	9.972
MS.198         	22.505         	9.984
MS.199         	22.46          	9.982
MS.200         	22.415         	9.994
MS.201         	22.37          	9.988
MS.202         	22.325         	9.988
MS.203         	22.28          	9.972
MS.204         	22.237         	9.978
MS.205         	22.192         	9.972
MS.206         	22.147         	9.976
MS.207         	22.102         	9.98
MS.208         	22.06          	9.984
MS.209         	22.015         	9.974
MS.210         	21.97          	9.972
MS.211         	21.927         	9.97
MS.212         	21.882         	9.968
MS.213         	21.84          	9.966
MS.214         	21.795         	9.966
MS.215         	21.752         	9.984
MS.216         	21.71          	9.956
MS.217         	21.665         	9.962
MS.218         	21.622         	9.978
MS.219         	21.58          	9.974
MS.220         	21.535         	9.97
MS.221         	21.493         	9.97
MS.222         	21.45          	9.98
MS.223         	21.407         	9.962
MS.224         	21.365         	9.964
MS.225         	21.323         	9.974
MS.226         	21.28          	9.982
MS.227         	21.237         	9.982
MS.228         	21.195         	9.966
MS.229         	21.153         	9.962
MS.230         	21.11          	9.972
MS.231         	21.067         	9.98
MS.232         	21.025         	9.97
MS.233         	20.983         	9.958
MS.234         	20.942         	9.964
MS.235         	20.9           	9.978
MS.236         	20.858         	9.972
MS.237         	20.815         	9.98
MS.238         	20.775         	9.976
MS.239         	20.733         	9.984
MS.240         	20.692         	9.974
MS.241         	20.65          	9.97
MS.242         	20.61          	9.976
MS.243         	20.567         	9.972
MS.244         	20.528         	9.974
MS.245         	20.485         	9.976
MS.246         	20.445         	9.97
MS.247         	20.405         	9.984
MS.248         	20.362         	9.986
MS.249         	20.323         	9.954
MS.250         	20.282         	9.978
MS.251         	20.243         	9.978
MS.252         	20.2           	9.982
MS.253         	20.16          	9.982
MS.254         	20.12          	9.986
MS.255         	20.08          	9.994
MS.256         	20.04          	9.988
MS.257         	20             	9.99
MS.258         	19.96          	9.988
MS.259         	19.92          	9.994
MS.260         	19.88          	9.988
MS.261         	19.84          	9.996
MS.262         	19.8           	9.994
MS.263         	19.762         	10
MS.264         	19.722         	10
MS.265         	19.682         	9.998
MS.266         	19.642         	9.99
MS.267         	19.605         	10.008
MS.268         	19.565         	10
MS.269         	19.525         	10.004
MS.270         	19.487         	9.998
MS.271         	19.448         	9.984
MS.272         	19.41          	9.984
MS.273         	19.37          	9.984
MS.274         	19.333         	10.006
MS.275         	19.292         	9.996
MS.276         	19.255         	10.004
MS.277         	19.215         	9.994
MS.278         	19.177         	10.006
MS.279         	19.14          	10
MS.280         	19.1           	9.988
MS.281         	19.062         	9.986
MS.282         	19.025         	9.984
MS.283         	18.987         	9.988
MS.284         	18.948         	9.998
MS.285         	18.91          	10
MS.286         	18.872         	10
MS.287         	18.835         	9.992
MS.288         	18.797         	10.006
MS.289         	18.76          	10.006
MS.290         	18.722         	10
MS.291         	18.685         	9.998
MS.292         	18.647         	10
MS.293         	18.61          	10.01
MS.294         	18.573         	9.99
MS.295         	18.538         	10
MS.296         	18.5           	10.004
MS.297         	18.462         	9.996
MS.298         	18.425         	10
MS.299         	18.387         	9.998
MS.300         	18.352         	9.986
MS.301         	18.315         	10.004
MS.302         	18.278         	10
MS.303         	18.243         	10.004
MS.304         	18.205         	10.004
MS.305         	18.17          	10.022
MS.306         	18.132         	10.012
MS.307         	18.097         	10.008
MS.308         	18.06          	10.006
MS.309         	18.025         	10.014
MS.310         	17.987         	10.002
MS.311         	17.952         	9.998
MS.312         	17.917         	10
MS.313         	17.88          	10.008
MS.314         	17.845         	10.006
MS.315         	17.81          	10.008
MS.316         	17.775         	10.002
MS.317         	17.737         	10.01
MS.318         	17.702         	10
MS.319         	17.667         	10.008
MS.320         	17.632         	10.002
MS.321         	17.597         	10.004
MS.322         	17.562         	10
MS.323         	17.528         	10.006
MS.324         	17.493         	9.994
MS.325         	17.458         	9.998
MS.326         	17.422         	10
MS.327         	17.387         	9.99
MS.328         	17.352         	10.004
MS.329         	17.317         	10.002
MS.330         	17.282         	9.998
MS.331         	17.247         	10.01
MS.332         	17.215         	10.008
MS.333         	17.18          	10.004
MS.334         	17.145         	10
MS.335         	17.11          	10
MS.336         	17.077         	10.002
MS.337         	17.042         	10.008
MS.338         	17.01          	9.998
MS.339         	16.975         	9.996
MS.340         	16.94          	10
MS.341         	16.907         	10.018
MS.342         	16.872         	9.992
MS.343         	16.84          	10.004
MS.344         	16.805         	10.008
MS.345         	16.772         	10.014
MS.346         	16.74          	9.994
MS.347         	16.705         	9.986
MS.348         	16.672         	10
MS.349         	16.637         	10.006
MS.350         	16.605         	10.004
MS.351         	16.573         	10.008
MS.352         	16.54          	10.002
MS.353         	16.505         	10.006
MS.354         	16.472         	10.008
MS.355         	16.44          	9.998
MS.356         	16.407         	9.998
MS.357         	16.375         	9.99
MS.358         	16.342         	10.01
MS.359         	16.31          	9.996
MS.360         	16.278         	9.976
MS.361         	16.245         	9.992
MS.362         	16.212         	9.988
MS.363         	16.18          	9.996
MS.364         	16.147         	9.998
MS.365         	16.115         	10.014
MS.366         	16.083         	9.998
MS.367         	16.05          	9.994
MS.368         	16.017         	9.992
MS.369         	15.987         	10.012
MS.370         	15.955         	10.01
MS.371         	15.922         	10
MS.372         	15.89          	10.006
MS.373         	15.86          	9.994
MS.374         	15.827         	9.998
MS.375         	15.795         	9.996
MS.376         	15.765         	10
MS.377         	15.733         	10.01
MS.378         	15.7           	10.002
MS.379         	15.67          	10.002
MS.380         	15.637         	9.998
MS.381         	15.608         	10.014
MS.382         	15.575         	10.008
MS.383         	15.545         	10.016
MS.384         	15.515         	10.006
MS.385         	15.483         	10.008
MS.386         	15.452         	10.018
MS.387         	15.42          	10.014
MS.388         	15.39          	10.024
MS.389         	15.36          	10.014
MS.390         	15.33          	10.02
MS.391         	15.297         	10.01
MS.392         	15.267         	10.002
MS.393         	15.237         	10.02
MS.394         	15.207         	10.022
MS.395         	15.177         	10.026
MS.396         	15.145         	10.029
MS.397         	15.115         	10.018
MS.398         	15.085         	10.02
MS.399         	15.055         	10.022
MS.400         	15.025         	10.016
MS.401         	14.995         	10.02
MS.402         	14.965         	10.008
MS.403         	14.935         	10.002
MS.404         	14.905         	10.004
MS.405         	14.875         	10.008
MS.406         	14.845         	10.014
MS.407         	14.818         	10.01
MS.408         	14.787         	10.008
MS.409         	14.757         	10.014
MS.410         	14.727         	10.018
MS.411         	14.697         	10.014
MS.412         	14.67          	10.002
MS.413         	14.64          	10.016
MS.414         	14.61          	10.016
MS.415         	14.58          	10.016
MS.416         	14.552         	10.016
MS.417         	14.523         	10.01
MS.418         	14.495         	10.014
MS.419         	14.465         	10.01
MS.420         	14.435         	10.018
MS.421         	14.407         	10.033
MS.422         	14.377         	10.01
MS.423         	14.35          	10.018
MS.424         	14.32          	10.018
MS.425         	14.292         	10.02
MS.426         	14.265         	10.022
MS.427         	14.235         	10.02
MS.428         	14.207         	10.024
MS.429         	14.177         	10.018
MS.430         	14.15          	10.029
MS.431         	14.122         	10.029
MS.432         	14.095         	10.018
MS.433         	14.065         	10.022
MS.434         	14.037         	10.047
MS.435         	14.01          	10.029
MS.436         	13.983         	10.031
MS.437         	13.952         	10.014
MS.438         	13.925         	10.024
MS.439         	13.898         	10.01
MS.440         	13.87          	10.004
MS.441         	13.842         	9.998
MS.442         	13.815         	10.008
MS.443         	13.787         	10.004
MS.444         	13.76          	10.031
MS.445         	13.733         	9.986
MS.446         	13.705         	10.024
MS.447         	13.677         	10.012
MS.448         	13.65          	10.029
MS.449         	13.622         	10.026
MS.450         	13.595         	10.016
MS.451         	13.568         	9.881
MS.452         	13.54          	9.954
MS.453         	13.515         	9.978
MS.454         	13.487         	10.012
MS.455         	13.46          	9.785
MS.456         	13.432         	10.002
MS.457         	13.407         	9.843
MS.458         	13.38          	9.885
MS.459         	13.352         	9.984
MS.460         	13.325         	10.004
MS.461         	13.3           	9.972
MS.462         	13.273         	9.972
MS.463         	13.247         	9.839
MS.464         	13.22          	9.873
MS.465         	13.193         	9.861
MS.466         	13.167         	9.714
MS.467         	13.14          	9.855
MS.468         	13.115         	9.843
MS.469         	13.087         	9.658
MS.470         	13.062         	9.654
MS.471         	13.035         	9.672
MS.472         	13.01          	9.845
MS.473         	12.985         	9.827
MS.474         	12.957         	9.662
MS.475         	12.932         	9.809
MS.476         	12.907         	9.672
MS.477         	12.88          	9.491
MS.478         	12.855         	9.66
MS.479         	12.83          	9.672
MS.480         	12.802         	9.664
MS.481         	12.778         	9.799
MS.482         	12.752         	9.666
MS.483         	12.727         	9.479
MS.484         	12.702         	9.495
MS.485         	12.677         	9.487
MS.486         	12.65          	9.487
MS.487         	12.625         	9.66
MS.488         	12.6           	9.491
MS.489         	12.575         	9.495
MS.490         	12.55          	9.493
MS.491         	12.525         	9.485
MS.492         	12.5           	9.493
MS.493         	12.475         	9.483
MS.494         	12.45          	9.497
MS.495         	12.425         	9.475
MS.496         	12.4           	9.475
MS.497         	12.375         	9.485
MS.498         	12.35          	9.485
MS.499         	12.327         	9.497
