File:              	C:\Qtrac\Data\Daniel M Sørensen\MScan multicentre study\Data from centres\Oslo\Processed data\SZC00518A.QZD
Name:              	NO.OSL.NC.7.2
Protocol:          	MSCAN-R2
Date:              	18/5/20
Start time:        	15:59:48
Age:               	30
Sex:               	F
Temperature:       	34.0
S/R sites:         	APB
NC/disease:        	NC7
Operator:          	SZ
Comments:          	Test2
M-SCAN DATA (10.1-3.3m)
Scanpts: 37, 45, 705, 726
Stim. (mA)     	Amp. (mV)
MS.1           	14             	11.775
MS.2           	14             	11.787
MS.3           	14             	11.789
MS.4           	14             	11.734
MS.5           	14             	11.734
MS.6           	14             	11.734
MS.7           	14             	11.726
MS.8           	14             	11.732
MS.9           	14             	11.708
MS.10          	14             	11.696
MS.11          	14             	11.7
MS.12          	14             	11.71
MS.13          	14             	11.688
MS.14          	14             	11.662
MS.15          	14             	11.65
MS.16          	14             	11.64
MS.17          	14             	11.634
MS.18          	14             	11.628
MS.19          	14             	11.632
MS.20          	14             	11.618
MS.21          	14             	11.644
MS.22          	14             	11.61
MS.23          	14             	11.636
MS.24          	13.945         	11.63
MS.25          	13.915         	11.587
MS.26          	13.887         	11.612
MS.27          	13.86          	11.608
MS.28          	13.832         	11.594
MS.29          	13.805         	11.571
MS.30          	13.778         	11.565
MS.31          	13.75          	11.567
MS.32          	13.722         	11.563
MS.33          	13.695         	11.589
MS.34          	13.667         	11.591
MS.35          	13.64          	11.573
MS.36          	13.612         	11.589
MS.37          	13.585         	11.575
MS.38          	13.56          	11.589
MS.39          	13.532         	11.569
MS.40          	13.505         	11.575
MS.41          	13.477         	11.587
MS.42          	13.45          	11.581
MS.43          	13.425         	11.594
MS.44          	13.398         	11.585
MS.45          	13.37          	11.575
MS.46          	13.345         	11.583
MS.47          	13.318         	11.565
MS.48          	13.29          	11.573
MS.49          	13.265         	11.553
MS.50          	13.237         	11.567
MS.51          	13.21          	11.565
MS.52          	13.185         	11.567
MS.53          	13.157         	11.549
MS.54          	13.132         	11.545
MS.55          	13.105         	11.537
MS.56          	13.08          	11.553
MS.57          	13.052         	11.541
MS.58          	13.028         	11.549
MS.59          	13.002         	11.557
MS.60          	12.975         	11.535
MS.61          	12.95          	11.557
MS.62          	12.922         	11.531
MS.63          	12.898         	11.569
MS.64          	12.872         	11.547
MS.65          	12.847         	11.531
MS.66          	12.82          	11.557
MS.67          	12.795         	11.525
MS.68          	12.77          	11.545
MS.69          	12.745         	11.555
MS.70          	12.717         	11.535
MS.71          	12.693         	11.561
MS.72          	12.667         	11.543
MS.73          	12.642         	11.539
MS.74          	12.617         	11.551
MS.75          	12.592         	11.557
MS.76          	12.568         	11.549
MS.77          	12.542         	11.565
MS.78          	12.517         	11.561
MS.79          	12.492         	11.565
MS.80          	12.467         	11.553
MS.81          	12.443         	11.557
MS.82          	12.417         	11.561
MS.83          	12.392         	11.567
MS.84          	12.367         	11.551
MS.85          	12.342         	11.547
MS.86          	12.318         	11.451
MS.87          	12.292         	11.549
MS.88          	12.267         	11.555
MS.89          	12.245         	11.551
MS.90          	12.22          	11.455
MS.91          	12.195         	11.469
MS.92          	12.17          	11.573
MS.93          	12.148         	11.473
MS.94          	12.122         	11.471
MS.95          	12.097         	11.473
MS.96          	12.075         	11.455
MS.97          	12.05          	11.561
MS.98          	12.025         	11.098
MS.99          	12.002         	11.461
MS.100         	11.977         	11.451
MS.101         	11.955         	11.455
MS.102         	11.93          	11.426
MS.103         	11.905         	11.453
MS.104         	11.882         	11.444
MS.105         	11.858         	11.444
MS.106         	11.835         	11.438
MS.107         	11.812         	10.923
MS.108         	11.787         	10.874
MS.109         	11.765         	11.424
MS.110         	11.74          	11.316
MS.111         	11.717         	11.062
MS.112         	11.693         	11.078
MS.113         	11.67          	10.955
MS.114         	11.648         	11.324
MS.115         	11.625         	11.263
MS.116         	11.6           	11.283
MS.117         	11.577         	10.891
MS.118         	11.555         	10.965
MS.119         	11.53          	10.975
MS.120         	11.507         	10.915
MS.121         	11.485         	11.042
MS.122         	11.462         	11.058
MS.123         	11.44          	10.919
MS.124         	11.417         	10.921
MS.125         	11.392         	10.939
MS.126         	11.37          	10.935
MS.127         	11.347         	10.937
MS.128         	11.325         	10.953
MS.129         	11.302         	10.947
MS.130         	11.28          	10.945
MS.131         	11.257         	11.023
MS.132         	11.235         	10.957
MS.133         	11.212         	10.963
MS.134         	11.19          	10.961
MS.135         	11.167         	10.949
MS.136         	11.145         	10.905
MS.137         	11.122         	10.973
MS.138         	11.1           	10.812
MS.139         	11.08          	10.979
MS.140         	11.057         	10.808
MS.141         	11.035         	10.788
MS.142         	11.012         	10.937
MS.143         	10.99          	10.794
MS.144         	10.97          	10.798
MS.145         	10.948         	10.796
MS.146         	10.925         	10.804
MS.147         	10.903         	10.8
MS.148         	10.882         	10.788
MS.149         	10.86          	10.796
MS.150         	10.837         	10.786
MS.151         	10.818         	10.766
MS.152         	10.795         	10.671
MS.153         	10.773         	10.655
MS.154         	10.752         	10.895
MS.155         	10.73          	10.665
MS.156         	10.707         	10.756
MS.157         	10.688         	10.744
MS.158         	10.665         	10.756
MS.159         	10.645         	10.75
MS.160         	10.622         	10.637
MS.161         	10.602         	10.641
MS.162         	10.58          	10.647
MS.163         	10.56          	10.645
MS.164         	10.537         	10.762
MS.165         	10.517         	10.645
MS.166         	10.497         	10.629
MS.167         	10.475         	10.635
MS.168         	10.455         	10.637
MS.169         	10.435         	10.51
MS.170         	10.412         	10.504
MS.171         	10.392         	10.496
MS.172         	10.372         	10.48
MS.173         	10.35          	10.49
MS.174         	10.33          	10.611
MS.175         	10.31          	10.325
MS.176         	10.29          	10.333
MS.177         	10.267         	10.476
MS.178         	10.247         	10.458
MS.179         	10.227         	10.47
MS.180         	10.207         	10.325
MS.181         	10.188         	10.472
MS.182         	10.165         	10.468
MS.183         	10.145         	10.447
MS.184         	10.125         	10.325
MS.185         	10.105         	10.163
MS.186         	10.085         	10.157
MS.187         	10.065         	10.306
MS.188         	10.045         	10.141
MS.189         	10.025         	10.149
MS.190         	10.005         	10.139
MS.191         	9.985          	10.298
MS.192         	9.965          	10.238
MS.193         	9.945          	10.033
MS.194         	9.925          	10.147
MS.195         	9.905          	9.948
MS.196         	9.885          	10.129
MS.197         	9.865          	10.172
MS.198         	9.845          	10.079
MS.199         	9.825          	10.002
MS.200         	9.807          	9.994
MS.201         	9.787          	9.946
MS.202         	9.767          	9.763
MS.203         	9.747          	9.974
MS.204         	9.727          	9.885
MS.205         	9.71           	9.9
MS.206         	9.69           	9.845
MS.207         	9.67           	9.722
MS.208         	9.65           	9.648
MS.209         	9.632          	9.565
MS.210         	9.613          	9.636
MS.211         	9.592          	9.676
MS.212         	9.575          	9.509
MS.213         	9.555          	9.624
MS.214         	9.535          	9.418
MS.215         	9.517          	9.525
MS.216         	9.497          	9.759
MS.217         	9.48           	9.541
MS.218         	9.46           	9.352
MS.219         	9.44           	9.424
MS.220         	9.422          	9.402
MS.221         	9.403          	9.33
MS.222         	9.385          	9.168
MS.223         	9.365          	8.911
MS.224         	9.347          	9.396
MS.225         	9.327          	9.247
MS.226         	9.31           	9.14
MS.227         	9.29           	8.947
MS.228         	9.273          	8.546
MS.229         	9.255          	8.407
MS.230         	9.235          	8.377
MS.231         	9.217          	8.641
MS.232         	9.198          	8.459
MS.233         	9.18           	8.419
MS.234         	9.162          	8.631
MS.235         	9.142          	8.476
MS.236         	9.125          	8.248
MS.237         	9.108          	8.173
MS.238         	9.09           	8.252
MS.239         	9.07           	8.093
MS.240         	9.052          	7.734
MS.241         	9.035          	8.325
MS.242         	9.017          	7.634
MS.243         	8.997          	7.519
MS.244         	8.98           	7.148
MS.245         	8.962          	7.446
MS.246         	8.945          	7.91
MS.247         	8.927          	7.338
MS.248         	8.91           	6.359
MS.249         	8.89           	6.623
MS.250         	8.872          	6.989
MS.251         	8.855          	6.832
MS.252         	8.837          	7.168
MS.253         	8.82           	7.257
MS.254         	8.802          	6.441
MS.255         	8.785          	6.23
MS.256         	8.767          	5.974
MS.257         	8.75           	6.306
MS.258         	8.733          	6.016
MS.259         	8.715          	5.793
MS.260         	8.698          	6.103
MS.261         	8.68           	5.765
MS.262         	8.662          	5.763
MS.263         	8.645          	5.593
MS.264         	8.627          	5.996
MS.265         	8.61           	5.942
MS.266         	8.595          	5.775
MS.267         	8.577          	5.585
MS.268         	8.56           	5.674
MS.269         	8.542          	5.426
MS.270         	8.525          	5.658
MS.271         	8.507          	5.452
MS.272         	8.492          	5.593
MS.273         	8.475          	5.551
MS.274         	8.457          	5.434
MS.275         	8.44           	5.456
MS.276         	8.422          	5.491
MS.277         	8.408          	5.412
MS.278         	8.39           	5.434
MS.279         	8.372          	5.515
MS.280         	8.358          	5.223
MS.281         	8.34           	5.259
MS.282         	8.323          	5.225
MS.283         	8.307          	5.178
MS.284         	8.29           	5.078
MS.285         	8.273          	5.132
MS.286         	8.257          	5.052
MS.287         	8.24           	4.888
MS.288         	8.225          	5.074
MS.289         	8.207          	4.965
MS.290         	8.19           	5.223
MS.291         	8.175          	4.842
MS.292         	8.158          	4.721
MS.293         	8.142          	4.413
MS.294         	8.125          	4.691
MS.295         	8.11           	4.772
MS.296         	8.092          	4.322
MS.297         	8.077          	4.137
MS.298         	8.06           	4.655
MS.299         	8.045          	4.435
MS.300         	8.03           	4.53
MS.301         	8.012          	3.821
MS.302         	7.997          	4.038
MS.303         	7.98           	3.811
MS.304         	7.965          	3.96
MS.305         	7.95           	4.157
MS.306         	7.932          	3.482
MS.307         	7.918          	3.299
MS.308         	7.902          	3.303
MS.309         	7.885          	3.43
MS.310         	7.87           	3.354
MS.311         	7.855          	3.203
MS.312         	7.837          	3.253
MS.313         	7.822          	3.14
MS.314         	7.807          	3.337
MS.315         	7.793          	2.949
MS.316         	7.775          	3.086
MS.317         	7.76           	3.178
MS.318         	7.745          	3.126
MS.319         	7.73           	2.898
MS.320         	7.715          	2.884
MS.321         	7.697          	3.003
MS.322         	7.682          	2.941
MS.323         	7.668          	2.79
MS.324         	7.652          	2.856
MS.325         	7.637          	2.588
MS.326         	7.622          	2.812
MS.327         	7.607          	2.528
MS.328         	7.592          	2.504
MS.329         	7.577          	2.586
MS.330         	7.562          	2.536
MS.331         	7.547          	2.63
MS.332         	7.53           	2.53
MS.333         	7.515          	2.55
MS.334         	7.5            	2.373
MS.335         	7.485          	2.375
MS.336         	7.47           	2.403
MS.337         	7.457          	2.288
MS.338         	7.442          	2.282
MS.339         	7.427          	2.28
MS.340         	7.412          	2.26
MS.341         	7.398          	2.175
MS.342         	7.382          	2.316
MS.343         	7.367          	2.232
MS.344         	7.352          	2.224
MS.345         	7.337          	2.05
MS.346         	7.322          	2.052
MS.347         	7.307          	2.038
MS.348         	7.295          	2.113
MS.349         	7.28           	2.062
MS.350         	7.265          	2.077
MS.351         	7.25           	1.913
MS.352         	7.235          	1.96
MS.353         	7.222          	2.052
MS.354         	7.207          	1.978
MS.355         	7.192          	2
MS.356         	7.177          	1.964
MS.357         	7.165          	1.942
MS.358         	7.15           	1.954
MS.359         	7.135          	1.978
MS.360         	7.12           	1.938
MS.361         	7.108          	1.996
MS.362         	7.092          	1.913
MS.363         	7.077          	1.853
MS.364         	7.065          	1.795
MS.365         	7.05           	1.835
MS.366         	7.035          	1.829
MS.367         	7.023          	1.913
MS.368         	7.007          	1.863
MS.369         	6.995          	1.772
MS.370         	6.98           	1.849
MS.371         	6.965          	1.839
MS.372         	6.952          	1.853
MS.373         	6.938          	1.839
MS.374         	6.925          	1.789
MS.375         	6.91           	1.787
MS.376         	6.898          	1.803
MS.377         	6.882          	1.779
MS.378         	6.87           	1.75
MS.379         	6.855          	1.754
MS.380         	6.842          	1.772
MS.381         	6.827          	1.658
MS.382         	6.815          	1.68
MS.383         	6.8            	1.756
MS.384         	6.787          	1.774
MS.385         	6.773          	1.688
MS.386         	6.76           	1.702
MS.387         	6.747          	1.702
MS.388         	6.733          	1.682
MS.389         	6.72           	1.698
MS.390         	6.707          	1.696
MS.391         	6.692          	1.742
MS.392         	6.68           	1.589
MS.393         	6.665          	1.654
MS.394         	6.652          	1.648
MS.395         	6.64           	1.587
MS.396         	6.628          	1.569
MS.397         	6.612          	1.627
MS.398         	6.6            	1.565
MS.399         	6.587          	1.575
MS.400         	6.572          	1.674
MS.401         	6.56           	1.627
MS.402         	6.547          	1.559
MS.403         	6.535          	1.621
MS.404         	6.52           	1.603
MS.405         	6.507          	1.593
MS.406         	6.495          	1.513
MS.407         	6.483          	1.579
MS.408         	6.47           	1.553
MS.409         	6.457          	1.577
MS.410         	6.442          	1.531
MS.411         	6.43           	1.599
MS.412         	6.418          	1.509
MS.413         	6.405          	1.511
MS.414         	6.392          	1.529
MS.415         	6.38           	1.545
MS.416         	6.367          	1.535
MS.417         	6.355          	1.509
MS.418         	6.34           	1.509
MS.419         	6.327          	1.529
MS.420         	6.315          	1.539
MS.421         	6.302          	1.503
MS.422         	6.29           	1.499
MS.423         	6.277          	1.549
MS.424         	6.265          	1.549
MS.425         	6.253          	1.505
MS.426         	6.24           	1.505
MS.427         	6.227          	1.573
MS.428         	6.215          	1.507
MS.429         	6.202          	1.541
MS.430         	6.19           	1.511
MS.431         	6.177          	1.501
MS.432         	6.165          	1.507
MS.433         	6.152          	1.505
MS.434         	6.142          	1.515
MS.435         	6.13           	1.509
MS.436         	6.117          	1.511
MS.437         	6.105          	1.509
MS.438         	6.092          	1.515
MS.439         	6.08           	1.513
MS.440         	6.067          	1.505
MS.441         	6.055          	1.519
MS.442         	6.045          	1.464
MS.443         	6.032          	1.515
MS.444         	6.02           	1.521
MS.445         	6.007          	1.513
MS.446         	5.995          	1.515
MS.447         	5.985          	1.454
MS.448         	5.972          	1.468
MS.449         	5.96           	1.462
MS.450         	5.947          	1.519
MS.451         	5.935          	1.46
MS.452         	5.925          	1.458
MS.453         	5.912          	1.46
MS.454         	5.9            	1.45
MS.455         	5.89           	1.456
MS.456         	5.878          	1.46
MS.457         	5.865          	1.466
MS.458         	5.852          	1.454
MS.459         	5.842          	1.464
MS.460         	5.83           	1.464
MS.461         	5.817          	1.46
MS.462         	5.807          	1.46
MS.463         	5.795          	1.464
MS.464         	5.785          	1.454
MS.465         	5.773          	1.468
MS.466         	5.76           	1.464
MS.467         	5.75           	1.46
MS.468         	5.737          	1.462
MS.469         	5.725          	1.452
MS.470         	5.715          	1.452
MS.471         	5.702          	1.464
MS.472         	5.692          	1.454
MS.473         	5.68           	1.456
MS.474         	5.67           	1.458
MS.475         	5.657          	1.466
MS.476         	5.648          	1.46
MS.477         	5.635          	1.466
MS.478         	5.625          	1.468
MS.479         	5.612          	1.454
MS.480         	5.602          	1.468
MS.481         	5.59           	1.458
MS.482         	5.58           	1.462
MS.483         	5.567          	1.466
MS.484         	5.557          	1.46
MS.485         	5.545          	1.462
MS.486         	5.535          	1.474
MS.487         	5.523          	1.476
MS.488         	5.512          	1.458
MS.489         	5.503          	1.472
MS.490         	5.49           	1.456
MS.491         	5.48           	1.456
MS.492         	5.47           	1.458
MS.493         	5.457          	1.474
MS.494         	5.447          	1.458
MS.495         	5.435          	1.464
