File:              	C:\Qtrac\Data\Daniel M Sørensen\MScan multicentre study\Data from centres\Bucharest\Processed data\TDLC00910A.QZD
Name:              	RO.BU.NC.5.2
Protocol:          	MSCAN-R2
Date:              	10/9/20
Start time:        	15:59:40
Age:               	53
Sex:               	F
Temperature:       	36.2
S/R sites:         	APB
NC/disease:        	NC
Operator:          	TL
Comments:          	RONC5.2.
M-SCAN DATA (9-0.9m)
Scanpts: 314, 321, 835, 857
Stim. (mA)     	Amp. (mV)
MS.1           	17             	13.253
MS.2           	17             	13.249
MS.3           	17             	13.253
MS.4           	17             	13.259
MS.5           	17             	13.265
MS.6           	17             	13.271
MS.7           	17             	13.291
MS.8           	17             	13.271
MS.9           	17             	13.314
MS.10          	17             	13.338
MS.11          	17             	13.35
MS.12          	17             	13.358
MS.13          	17             	13.354
MS.14          	17             	13.328
MS.15          	17             	13.354
MS.16          	17             	13.382
MS.17          	17             	13.374
MS.18          	17             	13.4
MS.19          	17             	13.408
MS.20          	17             	13.43
MS.21          	17             	13.451
MS.22          	17             	13.434
MS.23          	17             	13.414
MS.24          	16.932         	13.394
MS.25          	16.897         	13.302
MS.26          	16.865         	13.392
MS.27          	16.83          	13.42
MS.28          	16.797         	13.42
MS.29          	16.762         	13.418
MS.30          	16.73          	13.43
MS.31          	16.698         	13.414
MS.32          	16.663         	13.424
MS.33          	16.63          	13.402
MS.34          	16.597         	13.408
MS.35          	16.562         	13.418
MS.36          	16.53          	13.404
MS.37          	16.497         	13.396
MS.38          	16.465         	13.384
MS.39          	16.432         	13.396
MS.40          	16.4           	13.416
MS.41          	16.365         	13.396
MS.42          	16.333         	13.39
MS.43          	16.3           	13.39
MS.44          	16.267         	13.404
MS.45          	16.235         	13.408
MS.46          	16.202         	13.404
MS.47          	16.17          	13.39
MS.48          	16.137         	13.382
MS.49          	16.108         	13.386
MS.50          	16.075         	13.408
MS.51          	16.042         	13.394
MS.52          	16.01          	13.386
MS.53          	15.977         	13.41
MS.54          	15.945         	13.39
MS.55          	15.915         	13.406
MS.56          	15.882         	13.408
MS.57          	15.85          	13.39
MS.58          	15.82          	13.394
MS.59          	15.787         	13.354
MS.60          	15.755         	13.362
MS.61          	15.725         	13.384
MS.62          	15.693         	13.354
MS.63          	15.662         	13.34
MS.64          	15.63          	13.368
MS.65          	15.6           	13.368
MS.66          	15.568         	13.354
MS.67          	15.537         	13.366
MS.68          	15.505         	13.336
MS.69          	15.475         	13.354
MS.70          	15.445         	13.376
MS.71          	15.412         	13.372
MS.72          	15.382         	13.356
MS.73          	15.352         	13.368
MS.74          	15.32          	13.368
MS.75          	15.29          	13.382
MS.76          	15.26          	13.384
MS.77          	15.23          	13.388
MS.78          	15.197         	13.384
MS.79          	15.167         	13.404
MS.80          	15.137         	13.394
MS.81          	15.108         	13.396
MS.82          	15.077         	13.386
MS.83          	15.047         	13.394
MS.84          	15.017         	13.384
MS.85          	14.987         	13.374
MS.86          	14.957         	13.394
MS.87          	14.927         	13.374
MS.88          	14.898         	13.374
MS.89          	14.867         	13.38
MS.90          	14.837         	13.376
MS.91          	14.807         	13.38
MS.92          	14.78          	13.368
MS.93          	14.75          	13.346
MS.94          	14.72          	13.368
MS.95          	14.69          	13.364
MS.96          	14.662         	13.364
MS.97          	14.632         	13.378
MS.98          	14.602         	13.376
MS.99          	14.572         	13.352
MS.100         	14.545         	13.374
MS.101         	14.515         	13.392
MS.102         	14.487         	13.404
MS.103         	14.457         	13.384
MS.104         	14.427         	13.38
MS.105         	14.4           	13.392
MS.106         	14.37          	13.388
MS.107         	14.342         	13.414
MS.108         	14.312         	13.376
MS.109         	14.285         	13.396
MS.110         	14.257         	13.408
MS.111         	14.227         	13.392
MS.112         	14.2           	13.386
MS.113         	14.17          	13.394
MS.114         	14.142         	13.366
MS.115         	14.115         	13.368
MS.116         	14.087         	13.348
MS.117         	14.057         	13.362
MS.118         	14.03          	13.354
MS.119         	14.002         	13.376
MS.120         	13.975         	13.364
MS.121         	13.945         	13.384
MS.122         	13.917         	13.382
MS.123         	13.89          	13.368
MS.124         	13.862         	13.364
MS.125         	13.835         	13.38
MS.126         	13.807         	13.37
MS.127         	13.78          	13.358
MS.128         	13.752         	13.37
MS.129         	13.725         	13.364
MS.130         	13.697         	13.356
MS.131         	13.67          	13.374
MS.132         	13.642         	13.404
MS.133         	13.615         	13.378
MS.134         	13.587         	13.398
MS.135         	13.56          	13.394
MS.136         	13.535         	13.394
MS.137         	13.507         	13.38
MS.138         	13.48          	13.39
MS.139         	13.452         	13.388
MS.140         	13.425         	13.382
MS.141         	13.4           	13.406
MS.142         	13.372         	13.398
MS.143         	13.345         	13.374
MS.144         	13.32          	13.398
MS.145         	13.292         	13.386
MS.146         	13.265         	13.386
MS.147         	13.24          	13.398
MS.148         	13.212         	13.388
MS.149         	13.188         	13.382
MS.150         	13.16          	13.392
MS.151         	13.135         	13.4
MS.152         	13.108         	13.404
MS.153         	13.082         	13.386
MS.154         	13.055         	13.4
MS.155         	13.03          	13.396
MS.156         	13.002         	13.396
MS.157         	12.977         	13.392
MS.158         	12.952         	13.39
MS.159         	12.925         	13.386
MS.160         	12.9           	13.392
MS.161         	12.875         	13.408
MS.162         	12.847         	13.398
MS.163         	12.822         	13.382
MS.164         	12.797         	13.404
MS.165         	12.773         	13.4
MS.166         	12.745         	13.4
MS.167         	12.72          	13.396
MS.168         	12.695         	13.39
MS.169         	12.67          	13.384
MS.170         	12.645         	13.374
MS.171         	12.62          	13.41
MS.172         	12.595         	13.406
MS.173         	12.568         	13.39
MS.174         	12.542         	13.41
MS.175         	12.517         	13.412
MS.176         	12.492         	13.408
MS.177         	12.467         	13.412
MS.178         	12.443         	13.44
MS.179         	12.42          	13.432
MS.180         	12.395         	13.426
MS.181         	12.37          	13.424
MS.182         	12.345         	13.43
MS.183         	12.32          	13.424
MS.184         	12.295         	13.418
MS.185         	12.27          	13.43
MS.186         	12.245         	13.447
MS.187         	12.222         	13.414
MS.188         	12.197         	13.414
MS.189         	12.172         	13.416
MS.190         	12.148         	13.434
MS.191         	12.125         	13.428
MS.192         	12.1           	13.436
MS.193         	12.075         	13.436
MS.194         	12.052         	13.42
MS.195         	12.028         	13.406
MS.196         	12.002         	13.438
MS.197         	11.98          	13.43
MS.198         	11.955         	13.443
MS.199         	11.932         	13.447
MS.200         	11.907         	13.438
MS.201         	11.885         	13.432
MS.202         	11.86          	13.428
MS.203         	11.837         	13.44
MS.204         	11.812         	13.432
MS.205         	11.79          	13.414
MS.206         	11.765         	13.424
MS.207         	11.742         	13.42
MS.208         	11.72          	13.43
MS.209         	11.695         	13.455
MS.210         	11.672         	13.445
MS.211         	11.65          	13.436
MS.212         	11.625         	13.453
MS.213         	11.602         	13.434
MS.214         	11.58          	13.416
MS.215         	11.555         	13.445
MS.216         	11.532         	13.451
MS.217         	11.51          	13.459
MS.218         	11.488         	13.451
MS.219         	11.465         	13.457
MS.220         	11.44          	13.443
MS.221         	11.417         	13.449
MS.222         	11.395         	13.471
MS.223         	11.372         	13.455
MS.224         	11.35          	13.455
MS.225         	11.327         	13.457
MS.226         	11.305         	13.481
MS.227         	11.282         	13.453
MS.228         	11.26          	13.469
MS.229         	11.238         	13.451
MS.230         	11.215         	13.463
MS.231         	11.193         	13.457
MS.232         	11.17          	13.443
MS.233         	11.148         	13.449
MS.234         	11.125         	13.485
MS.235         	11.102         	13.443
MS.236         	11.08          	13.449
MS.237         	11.057         	13.453
MS.238         	11.037         	13.44
MS.239         	11.015         	13.457
MS.240         	10.992         	13.467
MS.241         	10.97          	13.459
MS.242         	10.948         	13.465
MS.243         	10.927         	13.451
MS.244         	10.905         	13.453
MS.245         	10.882         	13.467
MS.246         	10.863         	13.475
MS.247         	10.84          	13.449
MS.248         	10.818         	13.461
MS.249         	10.797         	13.457
MS.250         	10.775         	13.463
MS.251         	10.752         	13.455
MS.252         	10.733         	13.465
MS.253         	10.71          	13.402
MS.254         	10.69          	13.443
MS.255         	10.667         	13.471
MS.256         	10.648         	13.463
MS.257         	10.625         	13.463
MS.258         	10.605         	13.483
MS.259         	10.582         	13.469
MS.260         	10.562         	13.453
MS.261         	10.54          	13.465
MS.262         	10.52          	13.445
MS.263         	10.497         	13.443
MS.264         	10.477         	13.467
MS.265         	10.457         	13.463
MS.266         	10.435         	13.457
MS.267         	10.415         	13.475
MS.268         	10.395         	13.461
MS.269         	10.372         	13.453
MS.270         	10.352         	13.473
MS.271         	10.332         	13.461
MS.272         	10.31          	13.451
MS.273         	10.29          	13.463
MS.274         	10.27          	13.447
MS.275         	10.25          	13.447
MS.276         	10.23          	13.467
MS.277         	10.207         	13.455
MS.278         	10.188         	13.455
MS.279         	10.167         	13.449
MS.280         	10.148         	13.453
MS.281         	10.127         	13.428
MS.282         	10.108         	13.465
MS.283         	10.087         	13.434
MS.284         	10.068         	13.43
MS.285         	10.047         	13.426
MS.286         	10.028         	13.432
MS.287         	10.005         	13.43
MS.288         	9.988          	13.447
MS.289         	9.967          	13.451
MS.290         	9.948          	13.445
MS.291         	9.927          	13.436
MS.292         	9.907          	13.447
MS.293         	9.887          	13.43
MS.294         	9.867          	13.43
MS.295         	9.847          	13.451
MS.296         	9.827          	13.449
MS.297         	9.807          	13.443
MS.298         	9.787          	13.465
MS.299         	9.77           	13.449
MS.300         	9.75           	13.461
MS.301         	9.73           	13.463
MS.302         	9.71           	13.457
MS.303         	9.69           	13.451
MS.304         	9.672          	13.457
MS.305         	9.653          	13.455
MS.306         	9.632          	13.463
MS.307         	9.615          	13.459
MS.308         	9.595          	13.451
MS.309         	9.575          	13.463
MS.310         	9.557          	13.443
MS.311         	9.537          	13.451
MS.312         	9.517          	13.467
MS.313         	9.5            	13.469
MS.314         	9.48           	13.453
MS.315         	9.462          	13.471
MS.316         	9.443          	13.459
MS.317         	9.422          	13.463
MS.318         	9.405          	13.461
MS.319         	9.385          	13.449
MS.320         	9.367          	13.438
MS.321         	9.347          	13.471
MS.322         	9.33           	13.451
MS.323         	9.31           	13.438
MS.324         	9.292          	13.436
MS.325         	9.275          	13.438
MS.326         	9.255          	13.428
MS.327         	9.238          	13.449
MS.328         	9.217          	13.432
MS.329         	9.2            	13.438
MS.330         	9.182          	13.467
MS.331         	9.162          	13.459
MS.332         	9.145          	13.451
MS.333         	9.127          	13.459
MS.334         	9.108          	13.465
MS.335         	9.09           	13.453
MS.336         	9.073          	13.44
MS.337         	9.055          	13.453
MS.338         	9.035          	13.445
MS.339         	9.017          	13.471
MS.340         	9              	13.457
MS.341         	8.983          	13.438
MS.342         	8.965          	13.463
MS.343         	8.945          	13.457
MS.344         	8.927          	13.455
MS.345         	8.91           	13.44
MS.346         	8.892          	13.449
MS.347         	8.875          	13.459
MS.348         	8.858          	13.436
MS.349         	8.84           	13.428
MS.350         	8.823          	13.44
MS.351         	8.805          	13.42
MS.352         	8.787          	13.428
MS.353         	8.77           	13.436
MS.354         	8.752          	13.436
MS.355         	8.735          	13.445
MS.356         	8.717          	13.43
MS.357         	8.7            	13.426
MS.358         	8.682          	13.447
MS.359         	8.665          	13.443
MS.360         	8.648          	13.428
MS.361         	8.63           	13.33
MS.362         	8.613          	13.434
MS.363         	8.595          	13.348
MS.364         	8.577          	13.461
MS.365         	8.56           	13.356
MS.366         	8.545          	13.338
MS.367         	8.528          	13.235
MS.368         	8.51           	13.346
MS.369         	8.492          	13.299
MS.370         	8.475          	13.221
MS.371         	8.46           	13.239
MS.372         	8.443          	13.169
MS.373         	8.425          	13.193
MS.374         	8.408          	13.209
MS.375         	8.392          	13.108
MS.376         	8.375          	13.205
MS.377         	8.358          	13.219
MS.378         	8.34           	13.203
MS.379         	8.325          	13.181
MS.380         	8.307          	13.108
MS.381         	8.292          	13.12
MS.382         	8.275          	12.77
MS.383         	8.257          	12.46
MS.384         	8.242          	12.836
MS.385         	8.225          	12.431
MS.386         	8.21           	12.204
MS.387         	8.193          	12.578
MS.388         	8.175          	12.705
MS.389         	8.16           	12.421
MS.390         	8.142          	12.192
MS.391         	8.127          	11.759
MS.392         	8.11           	11.968
MS.393         	8.095          	11.819
MS.394         	8.077          	11.668
MS.395         	8.062          	12.105
MS.396         	8.047          	11.952
MS.397         	8.03           	11.916
MS.398         	8.015          	11.453
MS.399         	7.997          	11.634
MS.400         	7.982          	11.801
MS.401         	7.965          	11.507
MS.402         	7.95           	11.487
MS.403         	7.935          	10.917
MS.404         	7.918          	10.947
MS.405         	7.902          	11.533
MS.406         	7.887          	10.989
MS.407         	7.87           	10.526
MS.408         	7.855          	10.109
MS.409         	7.84           	10.556
MS.410         	7.825          	10.506
MS.411         	7.807          	10.633
MS.412         	7.793          	10.429
MS.413         	7.777          	10.526
MS.414         	7.762          	10.26
MS.415         	7.747          	10.133
MS.416         	7.73           	9.702
MS.417         	7.715          	10.117
MS.418         	7.7            	10.147
MS.419         	7.685          	9.831
MS.420         	7.67           	9.311
MS.421         	7.655          	9.783
MS.422         	7.637          	9.418
MS.423         	7.622          	9.587
MS.424         	7.607          	9.362
MS.425         	7.592          	9.396
MS.426         	7.577          	9.315
MS.427         	7.562          	8.667
MS.428         	7.547          	9.295
MS.429         	7.532          	8.84
MS.430         	7.517          	8.913
MS.431         	7.503          	8.55
MS.432         	7.487          	8.911
MS.433         	7.472          	9.185
MS.434         	7.457          	8.935
MS.435         	7.442          	8.806
MS.436         	7.427          	8.327
MS.437         	7.412          	7.994
MS.438         	7.398          	7.785
MS.439         	7.382          	8.186
MS.440         	7.367          	8.208
MS.441         	7.352          	7.648
MS.442         	7.34           	7.323
MS.443         	7.325          	7.64
MS.444         	7.31           	7.452
MS.445         	7.295          	7.078
MS.446         	7.28           	7.503
MS.447         	7.265          	7.382
MS.448         	7.253          	7.277
MS.449         	7.237          	7.475
MS.450         	7.222          	6.602
MS.451         	7.207          	6.927
MS.452         	7.192          	6.552
MS.453         	7.18           	6.655
MS.454         	7.165          	6.838
MS.455         	7.15           	6.314
MS.456         	7.137          	6.484
MS.457         	7.122          	6.546
MS.458         	7.108          	6.403
MS.459         	7.092          	6.496
MS.460         	7.08           	6.087
MS.461         	7.065          	6.188
MS.462         	7.052          	6.435
MS.463         	7.037          	6.137
MS.464         	7.023          	5.511
MS.465         	7.01           	5.785
MS.466         	6.995          	5.7
MS.467         	6.98           	5.702
MS.468         	6.967          	5.976
MS.469         	6.952          	5.642
MS.470         	6.94           	5.531
MS.471         	6.925          	5.714
MS.472         	6.912          	5.686
MS.473         	6.898          	5.617
MS.474         	6.885          	5.543
MS.475         	6.87           	5.315
MS.476         	6.858          	5.485
MS.477         	6.842          	5.235
MS.478         	6.83           	5.279
MS.479         	6.815          	5.517
MS.480         	6.802          	5.229
MS.481         	6.787          	5.446
MS.482         	6.775          	5.926
MS.483         	6.762          	5.74
MS.484         	6.747          	5.585
MS.485         	6.735          	5.474
MS.486         	6.72           	5.122
MS.487         	6.707          	4.921
MS.488         	6.695          	4.872
MS.489         	6.68           	4.818
MS.490         	6.668          	5.015
