File:              	C:\Qtrac\Data\Daniel M Sørensen\MScan multicentre study\Data from centres\Bucharest\Processed data\TDLC00828A.QZD
Name:              	RO.BU.NC.5.1
Protocol:          	MSCAN-R2
Date:              	28/8/20
Start time:        	12:25:05
Age:               	53
Sex:               	F
Temperature:       	36.7
S/R sites:         	APB
NC/disease:        	NC
Operator:          	TL
Comments:          	RONC5.1.
M-SCAN DATA (9.9-0.8m)
Scanpts: 362, 370, 928, 950
Stim. (mA)     	Amp. (mV)
MS.1           	18             	11.038
MS.2           	18             	11.023
MS.3           	18             	11.074
MS.4           	18             	11.15
MS.5           	18             	11.126
MS.6           	18             	11.092
MS.7           	18             	11.108
MS.8           	18             	11.12
MS.9           	18             	11.11
MS.10          	18             	11.084
MS.11          	18             	11.102
MS.12          	18             	11.106
MS.13          	18             	11.102
MS.14          	18             	11.084
MS.15          	18             	11.058
MS.16          	18             	11.046
MS.17          	18             	11.038
MS.18          	18             	10.989
MS.19          	18             	10.985
MS.20          	18             	11.015
MS.21          	18             	11.036
MS.22          	18             	11.021
MS.23          	18             	11.06
MS.24          	17.927         	11.104
MS.25          	17.892         	10.991
MS.26          	17.858         	10.997
MS.27          	17.82          	11.015
MS.28          	17.785         	11.009
MS.29          	17.75          	11.015
MS.30          	17.715         	10.999
MS.31          	17.68          	10.981
MS.32          	17.642         	11.015
MS.33          	17.608         	10.979
MS.34          	17.573         	10.989
MS.35          	17.538         	10.983
MS.36          	17.503         	11.007
MS.37          	17.467         	11.013
MS.38          	17.432         	10.977
MS.39          	17.397         	10.939
MS.40          	17.362         	10.909
MS.41          	17.33          	10.83
MS.42          	17.295         	10.846
MS.43          	17.26          	10.905
MS.44          	17.225         	10.999
MS.45          	17.19          	11.009
MS.46          	17.157         	11.072
MS.47          	17.122         	11.088
MS.48          	17.087         	11.152
MS.49          	17.052         	11.148
MS.50          	17.02          	11.146
MS.51          	16.985         	11.144
MS.52          	16.952         	11.156
MS.53          	16.917         	11.171
MS.54          	16.885         	11.181
MS.55          	16.85          	11.185
MS.56          	16.817         	11.197
MS.57          	16.782         	11.219
MS.58          	16.75          	11.201
MS.59          	16.715         	11.16
MS.60          	16.682         	11.054
MS.61          	16.65          	11.102
MS.62          	16.615         	11.112
MS.63          	16.583         	11.038
MS.64          	16.55          	11.07
MS.65          	16.517         	11.044
MS.66          	16.483         	11.086
MS.67          	16.45          	11.148
MS.68          	16.417         	11.086
MS.69          	16.385         	11.126
MS.70          	16.352         	11.08
MS.71          	16.32          	11.066
MS.72          	16.288         	11.058
MS.73          	16.255         	11.036
MS.74          	16.222         	11.036
MS.75          	16.19          	11.021
MS.76          	16.157         	10.963
MS.77          	16.125         	11.015
MS.78          	16.092         	11.036
MS.79          	16.06          	11.06
MS.80          	16.028         	11.094
MS.81          	15.997         	11.146
MS.82          	15.965         	11.171
MS.83          	15.932         	11.102
MS.84          	15.9           	11.078
MS.85          	15.87          	11.034
MS.86          	15.837         	10.973
MS.87          	15.805         	10.941
MS.88          	15.775         	10.979
MS.89          	15.742         	10.967
MS.90          	15.71          	10.931
MS.91          	15.68          	10.939
MS.92          	15.648         	10.933
MS.93          	15.617         	10.955
MS.94          	15.585         	10.915
MS.95          	15.555         	10.903
MS.96          	15.523         	10.903
MS.97          	15.492         	10.903
MS.98          	15.462         	10.955
MS.99          	15.43          	10.909
MS.100         	15.4           	10.935
MS.101         	15.37          	10.933
MS.102         	15.337         	10.899
MS.103         	15.307         	10.87
MS.104         	15.277         	10.878
MS.105         	15.247         	10.868
MS.106         	15.217         	10.874
MS.107         	15.185         	10.909
MS.108         	15.155         	10.889
MS.109         	15.125         	10.874
MS.110         	15.095         	10.874
MS.111         	15.065         	10.864
MS.112         	15.035         	10.852
MS.113         	15.005         	10.8
MS.114         	14.975         	10.82
MS.115         	14.945         	10.816
MS.116         	14.915         	10.764
MS.117         	14.885         	10.784
MS.118         	14.855         	10.782
MS.119         	14.825         	10.854
MS.120         	14.795         	10.862
MS.121         	14.767         	10.84
MS.122         	14.737         	10.85
MS.123         	14.707         	10.862
MS.124         	14.677         	10.911
MS.125         	14.65          	10.929
MS.126         	14.62          	10.925
MS.127         	14.59          	10.911
MS.128         	14.562         	10.955
MS.129         	14.532         	10.963
MS.130         	14.502         	10.981
MS.131         	14.475         	10.995
MS.132         	14.445         	10.967
MS.133         	14.417         	10.971
MS.134         	14.387         	11.05
MS.135         	14.36          	11.042
MS.136         	14.33          	11.096
MS.137         	14.302         	11.096
MS.138         	14.273         	11.07
MS.139         	14.245         	11.1
MS.140         	14.215         	11.116
MS.141         	14.188         	11.148
MS.142         	14.16          	11.108
MS.143         	14.13          	11.088
MS.144         	14.102         	11.076
MS.145         	14.075         	11.023
MS.146         	14.047         	10.963
MS.147         	14.017         	11.005
MS.148         	13.99          	11.028
MS.149         	13.962         	11.032
MS.150         	13.935         	11.03
MS.151         	13.907         	11.005
MS.152         	13.88          	11.017
MS.153         	13.85          	11.013
MS.154         	13.822         	10.991
MS.155         	13.795         	10.949
MS.156         	13.767         	10.937
MS.157         	13.74          	10.937
MS.158         	13.712         	10.947
MS.159         	13.685         	10.965
MS.160         	13.657         	10.967
MS.161         	13.632         	10.967
MS.162         	13.605         	10.965
MS.163         	13.577         	10.939
MS.164         	13.55          	10.937
MS.165         	13.523         	10.891
MS.166         	13.495         	10.937
MS.167         	13.467         	10.935
MS.168         	13.443         	10.897
MS.169         	13.415         	10.883
MS.170         	13.387         	10.868
MS.171         	13.362         	10.862
MS.172         	13.335         	10.862
MS.173         	13.307         	10.872
MS.174         	13.282         	10.866
MS.175         	13.255         	10.921
MS.176         	13.227         	10.88
MS.177         	13.202         	10.872
MS.178         	13.175         	10.866
MS.179         	13.15          	10.826
MS.180         	13.122         	10.848
MS.181         	13.097         	10.868
MS.182         	13.07          	10.856
MS.183         	13.045         	10.874
MS.184         	13.017         	10.85
MS.185         	12.992         	10.848
MS.186         	12.967         	10.874
MS.187         	12.94          	10.854
MS.188         	12.915         	10.864
MS.189         	12.89          	10.846
MS.190         	12.862         	10.87
MS.191         	12.837         	10.878
MS.192         	12.812         	10.874
MS.193         	12.785         	10.887
MS.194         	12.76          	10.868
MS.195         	12.735         	10.862
MS.196         	12.71          	10.88
MS.197         	12.685         	10.876
MS.198         	12.66          	10.864
MS.199         	12.632         	10.836
MS.200         	12.608         	10.885
MS.201         	12.582         	10.872
MS.202         	12.557         	10.878
MS.203         	12.532         	10.86
MS.204         	12.507         	10.878
MS.205         	12.483         	10.889
MS.206         	12.457         	10.876
MS.207         	12.432         	10.86
MS.208         	12.407         	10.848
MS.209         	12.382         	10.889
MS.210         	12.36          	10.887
MS.211         	12.335         	10.866
MS.212         	12.31          	10.876
MS.213         	12.285         	10.866
MS.214         	12.26          	10.856
MS.215         	12.235         	10.854
MS.216         	12.212         	10.864
MS.217         	12.188         	10.856
MS.218         	12.162         	10.876
MS.219         	12.137         	10.85
MS.220         	12.115         	10.838
MS.221         	12.09          	10.86
MS.222         	12.065         	10.85
MS.223         	12.042         	10.854
MS.224         	12.017         	10.844
MS.225         	11.992         	10.866
MS.226         	11.97          	10.874
MS.227         	11.945         	10.88
MS.228         	11.922         	10.907
MS.229         	11.898         	10.874
MS.230         	11.875         	10.856
MS.231         	11.85          	10.852
MS.232         	11.827         	10.83
MS.233         	11.802         	10.856
MS.234         	11.78          	10.83
MS.235         	11.755         	10.792
MS.236         	11.733         	10.794
MS.237         	11.71          	10.838
MS.238         	11.685         	10.844
MS.239         	11.662         	10.874
MS.240         	11.64          	10.876
MS.241         	11.615         	10.891
MS.242         	11.592         	10.88
MS.243         	11.57          	10.885
MS.244         	11.547         	10.858
MS.245         	11.523         	10.876
MS.246         	11.5           	10.921
MS.247         	11.477         	10.937
MS.248         	11.455         	10.923
MS.249         	11.432         	10.925
MS.250         	11.407         	10.985
MS.251         	11.385         	10.943
MS.252         	11.363         	10.939
MS.253         	11.34          	10.931
MS.254         	11.318         	10.951
MS.255         	11.295         	10.951
MS.256         	11.273         	10.923
MS.257         	11.25          	10.931
MS.258         	11.227         	10.925
MS.259         	11.205         	10.909
MS.260         	11.182         	10.937
MS.261         	11.16          	10.951
MS.262         	11.137         	10.983
MS.263         	11.115         	10.979
MS.264         	11.092         	10.949
MS.265         	11.073         	10.921
MS.266         	11.05          	10.919
MS.267         	11.028         	10.919
MS.268         	11.005         	10.923
MS.269         	10.983         	10.907
MS.270         	10.962         	10.921
MS.271         	10.94          	10.939
MS.272         	10.917         	10.878
MS.273         	10.895         	10.931
MS.274         	10.875         	10.937
MS.275         	10.852         	10.905
MS.276         	10.83          	10.901
MS.277         	10.81          	10.905
MS.278         	10.787         	10.917
MS.279         	10.765         	10.933
MS.280         	10.745         	10.953
MS.281         	10.722         	10.911
MS.282         	10.702         	10.852
MS.283         	10.68          	10.842
MS.284         	10.657         	10.889
MS.285         	10.637         	10.911
MS.286         	10.615         	10.917
MS.287         	10.595         	10.919
MS.288         	10.573         	10.941
MS.289         	10.552         	10.951
MS.290         	10.532         	10.989
MS.291         	10.51          	10.967
MS.292         	10.49          	10.963
MS.293         	10.467         	10.981
MS.294         	10.448         	10.997
MS.295         	10.427         	10.935
MS.296         	10.405         	10.935
MS.297         	10.385         	10.945
MS.298         	10.365         	10.961
MS.299         	10.342         	10.961
MS.300         	10.323         	11.046
MS.301         	10.302         	11.046
MS.302         	10.282         	10.951
MS.303         	10.26          	10.949
MS.304         	10.24          	10.977
MS.305         	10.22          	11.013
MS.306         	10.2           	11.009
MS.307         	10.18          	11.044
MS.308         	10.16          	11.036
MS.309         	10.14          	11.028
MS.310         	10.117         	11.009
MS.311         	10.097         	11.019
MS.312         	10.077         	11.066
MS.313         	10.057         	11.054
MS.314         	10.037         	11.042
MS.315         	10.017         	10.975
MS.316         	9.997          	10.989
MS.317         	9.977          	10.911
MS.318         	9.957          	10.901
MS.319         	9.938          	10.909
MS.320         	9.917          	10.913
MS.321         	9.898          	10.897
MS.322         	9.877          	10.893
MS.323         	9.86           	10.903
MS.324         	9.84           	10.937
MS.325         	9.82           	10.991
MS.326         	9.8            	10.935
MS.327         	9.78           	11.03
MS.328         	9.76           	10.947
MS.329         	9.74           	10.895
MS.330         	9.722          	10.909
MS.331         	9.702          	10.917
MS.332         	9.682          	10.951
MS.333         	9.662          	10.973
MS.334         	9.645          	11.011
MS.335         	9.625          	10.979
MS.336         	9.605          	10.961
MS.337         	9.587          	10.947
MS.338         	9.568          	10.947
MS.339         	9.547          	10.975
MS.340         	9.53           	10.973
MS.341         	9.51           	10.955
MS.342         	9.49           	10.872
MS.343         	9.472          	10.913
MS.344         	9.452          	10.903
MS.345         	9.435          	10.864
MS.346         	9.415          	10.832
MS.347         	9.398          	10.866
MS.348         	9.377          	10.931
MS.349         	9.36           	10.85
MS.350         	9.34           	10.866
MS.351         	9.323          	10.868
MS.352         	9.302          	10.852
MS.353         	9.285          	10.858
MS.354         	9.265          	10.83
MS.355         	9.247          	10.816
MS.356         	9.23           	10.874
MS.357         	9.21           	10.887
MS.358         	9.193          	10.947
MS.359         	9.175          	10.895
MS.360         	9.155          	10.907
MS.361         	9.137          	10.947
MS.362         	9.12           	10.909
MS.363         	9.1            	10.931
MS.364         	9.082          	10.893
MS.365         	9.065          	10.921
MS.366         	9.047          	10.947
MS.367         	9.028          	10.941
MS.368         	9.01           	10.925
MS.369         	8.992          	10.921
MS.370         	8.975          	10.903
MS.371         	8.957          	10.949
MS.372         	8.938          	10.967
MS.373         	8.92           	10.901
MS.374         	8.903          	10.915
MS.375         	8.885          	10.921
MS.376         	8.867          	10.925
MS.377         	8.85           	10.864
MS.378         	8.832          	10.858
MS.379         	8.815          	10.856
MS.380         	8.797          	10.842
MS.381         	8.78           	10.878
MS.382         	8.762          	10.903
MS.383         	8.745          	10.921
MS.384         	8.727          	10.999
MS.385         	8.71           	10.923
MS.386         	8.693          	10.975
MS.387         	8.675          	10.84
MS.388         	8.658          	10.832
MS.389         	8.64           	10.86
MS.390         	8.622          	10.846
MS.391         	8.605          	10.826
MS.392         	8.587          	10.852
MS.393         	8.57           	10.868
MS.394         	8.552          	10.874
MS.395         	8.537          	10.852
MS.396         	8.52           	10.85
MS.397         	8.502          	10.854
MS.398         	8.485          	10.854
MS.399         	8.467          	10.848
MS.400         	8.452          	10.824
MS.401         	8.435          	10.842
MS.402         	8.417          	10.852
MS.403         	8.4            	10.814
MS.404         	8.385          	10.806
MS.405         	8.367          	10.788
MS.406         	8.35           	10.768
MS.407         	8.335          	10.754
MS.408         	8.318          	10.756
MS.409         	8.3            	10.796
MS.410         	8.285          	10.74
MS.411         	8.267          	10.746
MS.412         	8.252          	10.729
MS.413         	8.235          	10.721
MS.414         	8.217          	10.742
MS.415         	8.202          	10.735
MS.416         	8.185          	10.711
MS.417         	8.17           	10.701
MS.418         	8.153          	10.689
MS.419         	8.137          	10.723
MS.420         	8.12           	10.693
MS.421         	8.105          	10.754
MS.422         	8.087          	10.77
MS.423         	8.073          	10.8
MS.424         	8.055          	10.806
MS.425         	8.04           	10.778
MS.426         	8.023          	10.703
MS.427         	8.007          	10.744
MS.428         	7.992          	10.737
MS.429         	7.975          	10.748
MS.430         	7.96           	10.812
MS.431         	7.942          	10.889
MS.432         	7.927          	10.876
MS.433         	7.912          	10.967
MS.434         	7.895          	10.953
MS.435         	7.88           	10.951
MS.436         	7.865          	11.026
MS.437         	7.85           	10.933
MS.438         	7.832          	10.973
MS.439         	7.817          	10.913
MS.440         	7.802          	10.846
MS.441         	7.787          	10.828
MS.442         	7.77           	10.915
MS.443         	7.755          	10.844
MS.444         	7.74           	10.872
MS.445         	7.725          	10.818
MS.446         	7.71           	10.774
MS.447         	7.692          	10.796
MS.448         	7.677          	10.788
MS.449         	7.662          	10.359
MS.450         	7.648          	10.729
MS.451         	7.632          	10.391
MS.452         	7.617          	10.808
MS.453         	7.602          	10.782
MS.454         	7.587          	10.296
MS.455         	7.572          	10.433
MS.456         	7.555          	10.377
MS.457         	7.54           	10.433
MS.458         	7.525          	10.466
MS.459         	7.51           	10.371
MS.460         	7.495          	10.262
MS.461         	7.48           	10.518
MS.462         	7.465          	10.363
MS.463         	7.45           	10.218
MS.464         	7.438          	10.472
MS.465         	7.422          	10.369
MS.466         	7.407          	10.266
MS.467         	7.392          	9.926
MS.468         	7.378          	9.982
MS.469         	7.362          	10.107
MS.470         	7.347          	10.026
MS.471         	7.332          	9.972
MS.472         	7.317          	10.085
MS.473         	7.302          	9.908
MS.474         	7.29           	9.825
MS.475         	7.275          	9.803
MS.476         	7.26           	9.716
MS.477         	7.245          	9.843
MS.478         	7.23           	9.807
MS.479         	7.217          	9.831
MS.480         	7.202          	9.71
MS.481         	7.188          	9.722
MS.482         	7.172          	9.71
MS.483         	7.16           	9.789
MS.484         	7.145          	9.666
MS.485         	7.13           	9.652
MS.486         	7.115          	9.696
MS.487         	7.102          	9.666
MS.488         	7.087          	9.74
