File:              	C:\Qtrac\Data\Daniel M Sørensen\MScan multicentre study\Data from centres\Bucharest\Processed data\TDLC00302A.QZD
Name:              	RO.BU.NC.4.2
Protocol:          	MSCAN-R2
Date:              	2/3/20
Start time:        	13:59:13
Age:               	28
Sex:               	M
Temperature:       	36.7
S/R sites:         	APB
NC/disease:        	RONC4.2
Operator:          	TL
Comments:
M-SCAN DATA (7.9-1.4m)
Scanpts: 364, 369, 673, 695
Stim. (mA)     	Amp. (mV)
MS.1           	24.5           	14.909
MS.2           	24.5           	14.903
MS.3           	24.5           	14.899
MS.4           	24.5           	14.885
MS.5           	24.5           	14.887
MS.6           	24.5           	14.905
MS.7           	24.5           	14.883
MS.8           	24.5           	14.862
MS.9           	24.5           	14.933
MS.10          	24.5           	14.913
MS.11          	24.5           	14.911
MS.12          	24.5           	14.937
MS.13          	24.5           	14.933
MS.14          	24.5           	14.937
MS.15          	24.5           	14.935
MS.16          	24.5           	14.929
MS.17          	24.5           	14.943
MS.18          	24.5           	14.953
MS.19          	24.5           	14.969
MS.20          	24.5           	14.959
MS.21          	24.5           	14.967
MS.22          	24.5           	14.977
MS.23          	24.5           	14.961
MS.24          	24.403         	14.949
MS.25          	24.352         	14.951
MS.26          	24.305         	14.959
MS.27          	24.255         	14.951
MS.28          	24.207         	14.969
MS.29          	24.16          	14.983
MS.30          	24.11          	14.993
MS.31          	24.062         	14.989
MS.32          	24.015         	15.01
MS.33          	23.967         	15.005
MS.34          	23.92          	15.02
MS.35          	23.87          	14.995
MS.36          	23.823         	14.971
MS.37          	23.775         	14.977
MS.38          	23.727         	14.967
MS.39          	23.68          	14.991
MS.40          	23.632         	15.001
MS.41          	23.587         	14.965
MS.42          	23.54          	14.981
MS.43          	23.493         	14.967
MS.44          	23.445         	14.979
MS.45          	23.397         	14.985
MS.46          	23.352         	14.967
MS.47          	23.305         	14.963
MS.48          	23.257         	14.985
MS.49          	23.212         	14.991
MS.50          	23.165         	14.993
MS.51          	23.12          	14.995
MS.52          	23.073         	15.012
MS.53          	23.028         	14.999
MS.54          	22.98          	15.001
MS.55          	22.935         	15.005
MS.56          	22.89          	14.989
MS.57          	22.842         	15.024
MS.58          	22.797         	15.018
MS.59          	22.752         	15.03
MS.60          	22.707         	15.008
MS.61          	22.663         	15.016
MS.62          	22.618         	15.003
MS.63          	22.57          	14.997
MS.64          	22.525         	14.991
MS.65          	22.48          	15.02
MS.66          	22.435         	15.005
MS.67          	22.39          	14.995
MS.68          	22.347         	14.975
MS.69          	22.302         	15.005
MS.70          	22.257         	14.991
MS.71          	22.212         	15.003
MS.72          	22.167         	14.997
MS.73          	22.125         	14.991
MS.74          	22.08          	15.005
MS.75          	22.035         	15.012
MS.76          	21.993         	15.003
MS.77          	21.948         	15.014
MS.78          	21.905         	15.005
MS.79          	21.86          	15.012
MS.80          	21.817         	15.028
MS.81          	21.772         	15.005
MS.82          	21.73          	15.026
MS.83          	21.685         	15.018
MS.84          	21.642         	15.024
MS.85          	21.6           	15.022
MS.86          	21.557         	15.036
MS.87          	21.512         	15.028
MS.88          	21.47          	15.03
MS.89          	21.427         	15.034
MS.90          	21.385         	15.016
MS.91          	21.342         	15.032
MS.92          	21.3           	15.024
MS.93          	21.257         	15.022
MS.94          	21.215         	15.032
MS.95          	21.172         	15.038
MS.96          	21.13          	15.022
MS.97          	21.087         	15.032
MS.98          	21.045         	15.018
MS.99          	21.002         	15.026
MS.100         	20.96          	15.038
MS.101         	20.92          	15.014
MS.102         	20.877         	15.012
MS.103         	20.835         	15.026
MS.104         	20.795         	15.018
MS.105         	20.752         	15.014
MS.106         	20.71          	15.016
MS.107         	20.67          	15.01
MS.108         	20.627         	15.02
MS.109         	20.587         	15.018
MS.110         	20.545         	15.008
MS.111         	20.505         	15.026
MS.112         	20.465         	14.983
MS.113         	20.422         	14.999
MS.114         	20.382         	14.971
MS.115         	20.342         	14.991
MS.116         	20.3           	14.999
MS.117         	20.26          	15.008
MS.118         	20.22          	15.001
MS.119         	20.18          	14.993
MS.120         	20.14          	15.016
MS.121         	20.1           	15.018
MS.122         	20.06          	15.016
MS.123         	20.017         	15.001
MS.124         	19.977         	15.026
MS.125         	19.94          	15.008
MS.126         	19.9           	15.016
MS.127         	19.86          	15.01
MS.128         	19.82          	15.008
MS.129         	19.78          	15.014
MS.130         	19.74          	15.018
MS.131         	19.7           	15.03
MS.132         	19.663         	15.016
MS.133         	19.622         	15.016
MS.134         	19.583         	15.036
MS.135         	19.545         	15.036
MS.136         	19.505         	15.066
MS.137         	19.465         	15.042
MS.138         	19.427         	15.058
MS.139         	19.387         	15.058
MS.140         	19.35          	15.042
MS.141         	19.31          	15.056
MS.142         	19.272         	15.06
MS.143         	19.235         	15.044
MS.144         	19.195         	15.042
MS.145         	19.157         	15.044
MS.146         	19.118         	15.044
MS.147         	19.08          	15.034
MS.148         	19.042         	15.05
MS.149         	19.005         	15.068
MS.150         	18.967         	15.046
MS.151         	18.927         	15.04
MS.152         	18.89          	15.056
MS.153         	18.852         	15.048
MS.154         	18.815         	15.068
MS.155         	18.778         	15.04
MS.156         	18.74          	15.06
MS.157         	18.702         	15.066
MS.158         	18.665         	15.066
MS.159         	18.628         	15.05
MS.160         	18.59          	15.064
MS.161         	18.552         	15.05
MS.162         	18.517         	15.05
MS.163         	18.48          	15.056
MS.164         	18.442         	15.064
MS.165         	18.405         	15.054
MS.166         	18.37          	15.074
MS.167         	18.333         	15.06
MS.168         	18.295         	15.038
MS.169         	18.26          	15.048
MS.170         	18.222         	15.07
MS.171         	18.188         	15.05
MS.172         	18.15          	15.056
MS.173         	18.112         	15.044
MS.174         	18.077         	15.062
MS.175         	18.042         	15.054
MS.176         	18.005         	15.052
MS.177         	17.97          	15.042
MS.178         	17.932         	15.058
MS.179         	17.897         	15.058
MS.180         	17.862         	15.07
MS.181         	17.825         	15.036
MS.182         	17.79          	15.062
MS.183         	17.755         	15.052
MS.184         	17.72          	15.064
MS.185         	17.685         	15.078
MS.186         	17.65          	15.078
MS.187         	17.612         	15.024
MS.188         	17.577         	15.052
MS.189         	17.542         	15.048
MS.190         	17.507         	15.06
MS.191         	17.472         	15.058
MS.192         	17.438         	15.044
MS.193         	17.403         	15.042
MS.194         	17.368         	15.052
MS.195         	17.335         	15.038
MS.196         	17.3           	15.054
MS.197         	17.265         	15.07
MS.198         	17.23          	15.07
MS.199         	17.195         	15.068
MS.200         	17.163         	15.056
MS.201         	17.128         	15.084
MS.202         	17.092         	15.08
MS.203         	17.06          	15.064
MS.204         	17.025         	15.084
MS.205         	16.99          	15.064
MS.206         	16.958         	15.07
MS.207         	16.922         	15.07
MS.208         	16.89          	15.066
MS.209         	16.855         	15.074
MS.210         	16.823         	15.078
MS.211         	16.788         	15.082
MS.212         	16.755         	15.078
MS.213         	16.72          	15.098
MS.214         	16.688         	15.06
MS.215         	16.655         	15.064
MS.216         	16.62          	15.062
MS.217         	16.587         	15.066
MS.218         	16.555         	15.078
MS.219         	16.522         	15.068
MS.220         	16.487         	15.082
MS.221         	16.455         	15.068
MS.222         	16.422         	15.066
MS.223         	16.39          	15.066
MS.224         	16.358         	15.06
MS.225         	16.325         	15.102
MS.226         	16.292         	15.08
MS.227         	16.26          	15.068
MS.228         	16.227         	15.09
MS.229         	16.195         	15.06
MS.230         	16.163         	15.072
MS.231         	16.13          	15.08
MS.232         	16.097         	15.1
MS.233         	16.065         	15.078
MS.234         	16.032         	15.082
MS.235         	16.003         	15.084
MS.236         	15.97          	15.072
MS.237         	15.938         	15.068
MS.238         	15.905         	15.074
MS.239         	15.875         	15.066
MS.240         	15.842         	15.084
MS.241         	15.81          	15.094
MS.242         	15.78          	15.102
MS.243         	15.747         	15.082
MS.244         	15.715         	15.076
MS.245         	15.685         	15.1
MS.246         	15.652         	15.098
MS.247         	15.622         	15.09
MS.248         	15.59          	15.082
MS.249         	15.56          	15.09
MS.250         	15.527         	15.09
MS.251         	15.497         	15.098
MS.252         	15.467         	15.094
MS.253         	15.435         	15.088
MS.254         	15.405         	15.09
MS.255         	15.375         	15.096
MS.256         	15.342         	15.112
MS.257         	15.312         	15.102
MS.258         	15.282         	15.114
MS.259         	15.252         	15.11
MS.260         	15.22          	15.13
MS.261         	15.19          	15.116
MS.262         	15.16          	15.092
MS.263         	15.13          	15.104
MS.264         	15.1           	15.094
MS.265         	15.07          	15.116
MS.266         	15.04          	15.114
MS.267         	15.01          	15.096
MS.268         	14.98          	15.102
MS.269         	14.95          	15.11
MS.270         	14.92          	15.104
MS.271         	14.89          	15.12
MS.272         	14.86          	15.108
MS.273         	14.83          	15.118
MS.274         	14.8           	15.116
MS.275         	14.77          	15.126
MS.276         	14.742         	15.122
MS.277         	14.712         	15.122
MS.278         	14.682         	15.138
MS.279         	14.652         	15.138
MS.280         	14.625         	15.144
MS.281         	14.595         	15.136
MS.282         	14.565         	15.148
MS.283         	14.537         	15.148
MS.284         	14.507         	15.14
MS.285         	14.477         	15.132
MS.286         	14.45          	15.151
MS.287         	14.42          	15.153
MS.288         	14.392         	15.151
MS.289         	14.362         	15.161
MS.290         	14.335         	15.126
MS.291         	14.305         	15.153
MS.292         	14.278         	15.136
MS.293         	14.247         	15.146
MS.294         	14.22          	15.142
MS.295         	14.193         	15.153
MS.296         	14.162         	15.155
MS.297         	14.135         	15.155
MS.298         	14.108         	15.151
MS.299         	14.08          	15.148
MS.300         	14.05          	15.148
MS.301         	14.023         	15.151
MS.302         	13.995         	15.14
MS.303         	13.967         	15.167
MS.304         	13.938         	15.161
MS.305         	13.91          	15.161
MS.306         	13.882         	15.161
MS.307         	13.855         	15.165
MS.308         	13.827         	15.161
MS.309         	13.8           	15.179
MS.310         	13.773         	15.151
MS.311         	13.745         	15.157
MS.312         	13.717         	15.157
MS.313         	13.69          	15.161
MS.314         	13.662         	15.157
MS.315         	13.635         	15.175
MS.316         	13.608         	15.185
MS.317         	13.58          	15.183
MS.318         	13.555         	15.173
MS.319         	13.528         	15.159
MS.320         	13.5           	15.197
MS.321         	13.472         	15.171
MS.322         	13.445         	15.175
MS.323         	13.42          	15.205
MS.324         	13.392         	15.217
MS.325         	13.365         	15.231
MS.326         	13.337         	15.195
MS.327         	13.312         	15.215
MS.328         	13.285         	15.237
MS.329         	13.26          	15.259
MS.330         	13.233         	15.237
MS.331         	13.205         	15.229
MS.332         	13.18          	15.271
MS.333         	13.153         	15.261
MS.334         	13.127         	15.277
MS.335         	13.1           	15.265
MS.336         	13.075         	15.281
MS.337         	13.047         	15.275
MS.338         	13.023         	15.275
MS.339         	12.997         	15.273
MS.340         	12.97          	15.285
MS.341         	12.945         	15.263
MS.342         	12.917         	15.285
MS.343         	12.892         	15.281
MS.344         	12.867         	15.247
MS.345         	12.842         	15.245
MS.346         	12.815         	15.249
MS.347         	12.79          	15.263
MS.348         	12.765         	15.283
MS.349         	12.74          	15.281
MS.350         	12.712         	15.255
MS.351         	12.688         	15.265
MS.352         	12.662         	15.273
MS.353         	12.637         	15.251
MS.354         	12.613         	15.263
MS.355         	12.587         	15.277
MS.356         	12.562         	15.259
MS.357         	12.537         	15.245
MS.358         	12.512         	15.265
MS.359         	12.488         	15.241
MS.360         	12.462         	15.257
MS.361         	12.438         	15.285
MS.362         	12.412         	15.265
MS.363         	12.387         	15.302
MS.364         	12.363         	15.283
MS.365         	12.337         	15.277
MS.366         	12.312         	15.279
MS.367         	12.287         	15.265
MS.368         	12.265         	15.283
MS.369         	12.24          	15.285
MS.370         	12.215         	15.294
MS.371         	12.19          	15.298
MS.372         	12.167         	15.271
MS.373         	12.142         	15.277
MS.374         	12.117         	15.34
MS.375         	12.092         	15.31
MS.376         	12.07          	15.328
MS.377         	12.045         	15.132
MS.378         	12.02          	15.213
MS.379         	11.997         	15.314
MS.380         	11.972         	15.318
MS.381         	11.95          	15.175
MS.382         	11.925         	15.199
MS.383         	11.903         	15.201
MS.384         	11.877         	15.233
MS.385         	11.855         	15.356
MS.386         	11.83          	15.217
MS.387         	11.807         	15.207
MS.388         	11.782         	15.348
MS.389         	11.76          	15.229
MS.390         	11.735         	15.39
MS.391         	11.712         	15.229
MS.392         	11.69          	15.207
MS.393         	11.665         	15.398
MS.394         	11.642         	15.392
MS.395         	11.62          	15.241
MS.396         	11.595         	15.37
MS.397         	11.572         	15.223
MS.398         	11.55          	15.235
MS.399         	11.528         	15.269
MS.400         	11.502         	15.465
MS.401         	11.48          	15.287
MS.402         	11.457         	15.283
MS.403         	11.435         	15.296
MS.404         	11.412         	15.328
MS.405         	11.39          	15.312
MS.406         	11.367         	15.324
MS.407         	11.345         	15.328
MS.408         	11.32          	15.332
MS.409         	11.297         	15.342
MS.410         	11.275         	15.364
MS.411         	11.252         	15.368
MS.412         	11.23          	15.326
MS.413         	11.207         	15.3
MS.414         	11.185         	15.255
MS.415         	11.162         	15.271
MS.416         	11.142         	15.249
MS.417         	11.12          	15.271
MS.418         	11.097         	15.265
MS.419         	11.075         	15.281
MS.420         	11.052         	15.263
MS.421         	11.03          	15.287
MS.422         	11.007         	15.259
MS.423         	10.988         	15.082
MS.424         	10.965         	15.275
MS.425         	10.943         	15.142
MS.426         	10.92          	15.132
MS.427         	10.9           	15.271
MS.428         	10.877         	15.173
MS.429         	10.855         	15.161
MS.430         	10.835         	15.153
MS.431         	10.812         	15.171
MS.432         	10.79          	15.179
MS.433         	10.77          	14.979
MS.434         	10.747         	15.179
MS.435         	10.725         	15.022
MS.436         	10.705         	15.159
MS.437         	10.682         	15.189
MS.438         	10.662         	15.14
MS.439         	10.64          	14.963
MS.440         	10.62          	14.792
MS.441         	10.597         	15.04
MS.442         	10.577         	15.02
MS.443         	10.555         	15.012
MS.444         	10.535         	14.981
MS.445         	10.512         	15.11
MS.446         	10.492         	14.74
MS.447         	10.472         	14.683
MS.448         	10.45          	14.804
MS.449         	10.43          	14.8
MS.450         	10.41          	14.955
MS.451         	10.387         	14.711
MS.452         	10.367         	14.468
MS.453         	10.347         	14.605
MS.454         	10.325         	14.679
MS.455         	10.305         	14.726
MS.456         	10.285         	14.911
MS.457         	10.265         	14.351
MS.458         	10.245         	14.446
MS.459         	10.222         	14.647
MS.460         	10.202         	14.629
MS.461         	10.182         	14.301
MS.462         	10.162         	14.548
MS.463         	10.142         	14.512
MS.464         	10.122         	14.147
MS.465         	10.102         	14.335
MS.466         	10.08          	14.194
MS.467         	10.06          	14.099
MS.468         	10.04          	14.105
MS.469         	10.02          	14.085
MS.470         	10             	13.88
MS.471         	9.98           	14.053
MS.472         	9.96           	13.813
MS.473         	9.94           	13.89
MS.474         	9.92           	13.817
MS.475         	9.903          	13.821
MS.476         	9.882          	13.716
MS.477         	9.863          	13.602
MS.478         	9.842          	13.533
MS.479         	9.823          	13.531
MS.480         	9.802          	12.544
MS.481         	9.782          	13.064
MS.482         	9.762          	12.975
MS.483         	9.745          	12.989
MS.484         	9.725          	12.153
MS.485         	9.705          	12.371
MS.486         	9.685          	12.441
MS.487         	9.667          	12.816
MS.488         	9.648          	11.803
MS.489         	9.627          	12.419
