File:              	C:\Qtrac\Data\Daniel M Sørensen\MScan multicentre study\Data from centres\Bucharest\Processed data\TDLC00828D.QZD
Name:              	RO.BU.NC.6.1
Protocol:          	MSCAN-R2
Date:              	28/8/20
Start time:        	13:26:01
Age:               	48
Sex:               	F
Temperature:       	36.5
S/R sites:         	APB
NC/disease:        	NC
Operator:          	TL
Comments:          	RONC6.1.
M-SCAN DATA (5.8-1m)
Scanpts: 216, 220, 506, 528
Stim. (mA)     	Amp. (mV)
MS.1           	27             	6.373
MS.2           	27             	6.379
MS.3           	27             	6.387
MS.4           	27             	6.369
MS.5           	27             	6.369
MS.6           	27             	6.365
MS.7           	27             	6.373
MS.8           	27             	6.365
MS.9           	27             	6.361
MS.10          	27             	6.375
MS.11          	27             	6.375
MS.12          	27             	6.361
MS.13          	27             	6.361
MS.14          	27             	6.371
MS.15          	27             	6.381
MS.16          	27             	6.369
MS.17          	27             	6.361
MS.18          	27             	6.369
MS.19          	27             	6.383
MS.20          	27             	6.385
MS.21          	27             	6.375
MS.22          	27             	6.391
MS.23          	27             	6.397
MS.24          	26.892         	6.403
MS.25          	26.837         	6.399
MS.26          	26.785         	6.405
MS.27          	26.73          	6.405
MS.28          	26.677         	6.407
MS.29          	26.625         	6.409
MS.30          	26.573         	6.411
MS.31          	26.517         	6.413
MS.32          	26.465         	6.403
MS.33          	26.412         	6.401
MS.34          	26.36          	6.411
MS.35          	26.307         	6.421
MS.36          	26.255         	6.425
MS.37          	26.202         	6.439
MS.38          	26.15          	6.429
MS.39          	26.097         	6.453
MS.40          	26.045         	6.463
MS.41          	25.993         	6.449
MS.42          	25.94          	6.445
MS.43          	25.89          	6.443
MS.44          	25.837         	6.405
MS.45          	25.785         	6.403
MS.46          	25.735         	6.401
MS.47          	25.682         	6.333
MS.48          	25.632         	6.341
MS.49          	25.58          	6.304
MS.50          	25.53          	6.316
MS.51          	25.477         	6.322
MS.52          	25.427         	6.326
MS.53          	25.377         	6.322
MS.54          	25.325         	6.32
MS.55          	25.275         	6.318
MS.56          	25.225         	6.333
MS.57          	25.175         	6.337
MS.58          	25.125         	6.343
MS.59          	25.075         	6.326
MS.60          	25.025         	6.326
MS.61          	24.975         	6.339
MS.62          	24.925         	6.355
MS.63          	24.875         	6.367
MS.64          	24.825         	6.357
MS.65          	24.775         	6.357
MS.66          	24.725         	6.393
MS.67          	24.675         	6.403
MS.68          	24.627         	6.401
MS.69          	24.577         	6.389
MS.70          	24.528         	6.377
MS.71          	24.48          	6.373
MS.72          	24.43          	6.387
MS.73          	24.382         	6.385
MS.74          	24.332         	6.379
MS.75          	24.285         	6.401
MS.76          	24.235         	6.385
MS.77          	24.188         	6.375
MS.78          	24.14          	6.401
MS.79          	24.09          	6.399
MS.80          	24.042         	6.401
MS.81          	23.995         	6.413
MS.82          	23.948         	6.425
MS.83          	23.9           	6.433
MS.84          	23.85          	6.417
MS.85          	23.802         	6.367
MS.86          	23.755         	6.413
MS.87          	23.707         	6.407
MS.88          	23.66          	6.427
MS.89          	23.615         	6.385
MS.90          	23.567         	6.415
MS.91          	23.52          	6.411
MS.92          	23.472         	6.433
MS.93          	23.425         	6.413
MS.94          	23.38          	6.399
MS.95          	23.332         	6.423
MS.96          	23.285         	6.393
MS.97          	23.24          	6.419
MS.98          	23.192         	6.387
MS.99          	23.145         	6.429
MS.100         	23.1           	6.421
MS.101         	23.055         	6.411
MS.102         	23.007         	6.399
MS.103         	22.962         	6.429
MS.104         	22.915         	6.423
MS.105         	22.87          	6.425
MS.106         	22.825         	6.409
MS.107         	22.78          	6.407
MS.108         	22.733         	6.421
MS.109         	22.688         	6.423
MS.110         	22.642         	6.423
MS.111         	22.597         	6.417
MS.112         	22.552         	6.439
MS.113         	22.507         	6.439
MS.114         	22.462         	6.399
MS.115         	22.417         	6.411
MS.116         	22.372         	6.443
MS.117         	22.327         	6.405
MS.118         	22.282         	6.429
MS.119         	22.237         	6.401
MS.120         	22.195         	6.401
MS.121         	22.15          	6.393
MS.122         	22.105         	6.381
MS.123         	22.062         	6.411
MS.124         	22.017         	6.395
MS.125         	21.972         	6.347
MS.126         	21.93          	6.451
MS.127         	21.885         	6.411
MS.128         	21.842         	6.433
MS.129         	21.797         	6.421
MS.130         	21.755         	6.385
MS.131         	21.712         	6.363
MS.132         	21.667         	6.415
MS.133         	21.625         	6.359
MS.134         	21.583         	6.431
MS.135         	21.538         	6.385
MS.136         	21.495         	6.359
MS.137         	21.452         	6.419
MS.138         	21.41          	6.379
MS.139         	21.368         	6.427
MS.140         	21.325         	6.373
MS.141         	21.282         	6.379
MS.142         	21.24          	6.383
MS.143         	21.198         	6.377
MS.144         	21.155         	6.381
MS.145         	21.112         	6.389
MS.146         	21.07          	6.391
MS.147         	21.028         	6.379
MS.148         	20.985         	6.375
MS.149         	20.942         	6.365
MS.150         	20.903         	6.399
MS.151         	20.86          	6.373
MS.152         	20.817         	6.371
MS.153         	20.778         	6.379
MS.154         	20.735         	6.391
MS.155         	20.695         	6.373
MS.156         	20.653         	6.379
MS.157         	20.61          	6.379
MS.158         	20.57          	6.399
MS.159         	20.53          	6.401
MS.160         	20.487         	6.407
MS.161         	20.448         	6.397
MS.162         	20.405         	6.399
MS.163         	20.365         	6.403
MS.164         	20.325         	6.401
MS.165         	20.285         	6.405
MS.166         	20.243         	6.411
MS.167         	20.202         	6.409
MS.168         	20.163         	6.421
MS.169         	20.122         	6.423
MS.170         	20.083         	6.421
MS.171         	20.042         	6.427
MS.172         	20.002         	6.401
MS.173         	19.962         	6.425
MS.174         	19.922         	6.433
MS.175         	19.882         	6.425
MS.176         	19.842         	6.415
MS.177         	19.802         	6.423
MS.178         	19.762         	6.453
MS.179         	19.725         	6.435
MS.180         	19.685         	6.451
MS.181         	19.645         	6.427
MS.182         	19.605         	6.449
MS.183         	19.567         	6.461
MS.184         	19.528         	6.471
MS.185         	19.487         	6.451
MS.186         	19.45          	6.457
MS.187         	19.41          	6.471
MS.188         	19.372         	6.457
MS.189         	19.333         	6.461
MS.190         	19.295         	6.435
MS.191         	19.255         	6.467
MS.192         	19.217         	6.459
MS.193         	19.18          	6.461
MS.194         	19.14          	6.482
MS.195         	19.102         	6.48
MS.196         	19.065         	6.467
MS.197         	19.028         	6.476
MS.198         	18.987         	6.478
MS.199         	18.95          	6.496
MS.200         	18.913         	6.502
MS.201         	18.875         	6.494
MS.202         	18.837         	6.496
MS.203         	18.8           	6.488
MS.204         	18.762         	6.496
MS.205         	18.725         	6.463
MS.206         	18.688         	6.484
MS.207         	18.65          	6.465
MS.208         	18.612         	6.494
MS.209         	18.575         	6.409
MS.210         	18.538         	6.421
MS.211         	18.5           	6.423
MS.212         	18.465         	6.437
MS.213         	18.427         	6.478
MS.214         	18.39          	6.447
MS.215         	18.352         	6.467
MS.216         	18.317         	6.474
MS.217         	18.28          	6.465
MS.218         	18.245         	6.455
MS.219         	18.208         	6.461
MS.220         	18.17          	6.465
MS.221         	18.135         	6.469
MS.222         	18.097         	6.49
MS.223         	18.062         	6.51
MS.224         	18.028         	6.471
MS.225         	17.99          	6.463
MS.226         	17.955         	6.484
MS.227         	17.917         	6.478
MS.228         	17.882         	6.512
MS.229         	17.847         	6.49
MS.230         	17.812         	6.484
MS.231         	17.775         	6.455
MS.232         	17.74          	6.465
MS.233         	17.705         	6.353
MS.234         	17.67          	6.484
MS.235         	17.635         	6.465
MS.236         	17.6           	6.463
MS.237         	17.562         	6.369
MS.238         	17.528         	6.224
MS.239         	17.493         	6.482
MS.240         	17.458         	6.474
MS.241         	17.422         	6.24
MS.242         	17.39          	6.474
MS.243         	17.355         	6.365
MS.244         	17.32          	6.234
MS.245         	17.285         	6.375
MS.246         	17.25          	6.355
MS.247         	17.215         	6.359
MS.248         	17.182         	6.371
MS.249         	17.147         	6.345
MS.250         	17.112         	6.486
MS.251         	17.077         	6.228
MS.252         	17.045         	6.24
MS.253         	17.01          	6.353
MS.254         	16.977         	6.149
MS.255         	16.942         	6.204
MS.256         	16.91          	6.326
MS.257         	16.875         	6.089
MS.258         	16.842         	6.246
MS.259         	16.807         	6.01
MS.260         	16.775         	6.018
MS.261         	16.74          	5.918
MS.262         	16.708         	6.155
MS.263         	16.672         	6.123
MS.264         	16.64          	6.042
MS.265         	16.608         	5.773
MS.266         	16.575         	5.857
MS.267         	16.54          	5.897
MS.268         	16.507         	5.994
MS.269         	16.475         	5.863
MS.270         	16.442         	5.261
MS.271         	16.41          	5.63
MS.272         	16.378         	5.132
MS.273         	16.342         	5.587
MS.274         	16.31          	5.68
MS.275         	16.278         	5.287
MS.276         	16.245         	4.886
MS.277         	16.212         	5.096
MS.278         	16.18          	5.027
MS.279         	16.147         	4.943
MS.280         	16.118         	5.058
MS.281         	16.085         	4.975
MS.282         	16.052         	4.77
MS.283         	16.02          	4.655
MS.284         	15.987         	4.725
MS.285         	15.955         	5.011
MS.286         	15.925         	5.033
MS.287         	15.892         	5.257
MS.288         	15.86          	5.35
MS.289         	15.83          	4.566
MS.290         	15.797         	4.554
MS.291         	15.765         	4.665
MS.292         	15.735         	4.804
MS.293         	15.702         	4.639
MS.294         	15.672         	4.405
MS.295         	15.64          	4.534
MS.296         	15.61          	4.482
MS.297         	15.577         	5.007
MS.298         	15.547         	4.195
MS.299         	15.515         	4.447
MS.300         	15.485         	4.455
MS.301         	15.452         	4.302
MS.302         	15.422         	4.425
MS.303         	15.392         	4.173
MS.304         	15.36          	4.059
MS.305         	15.33          	4.079
MS.306         	15.3           	4.332
MS.307         	15.27          	4.341
MS.308         	15.237         	4.25
MS.309         	15.207         	4.129
MS.310         	15.177         	4.282
MS.311         	15.148         	4.322
MS.312         	15.117         	4.063
MS.313         	15.087         	4.29
MS.314         	15.057         	4.05
MS.315         	15.027         	4.034
MS.316         	14.997         	4.238
MS.317         	14.967         	3.942
MS.318         	14.938         	4.268
MS.319         	14.907         	3.922
MS.320         	14.877         	3.857
MS.321         	14.847         	3.656
MS.322         	14.818         	3.781
MS.323         	14.787         	3.764
MS.324         	14.757         	3.551
MS.325         	14.73          	3.793
MS.326         	14.7           	3.484
MS.327         	14.67          	3.551
MS.328         	14.64          	3.517
MS.329         	14.612         	3.438
MS.330         	14.582         	3.634
MS.331         	14.552         	3.442
MS.332         	14.525         	3.527
MS.333         	14.495         	3.611
MS.334         	14.467         	3.368
MS.335         	14.438         	3.43
MS.336         	14.407         	3.356
MS.337         	14.38          	3.142
MS.338         	14.35          	3.323
MS.339         	14.322         	3.422
MS.340         	14.295         	3.229
MS.341         	14.265         	3.019
MS.342         	14.237         	3.16
MS.343         	14.207         	2.921
MS.344         	14.18          	3.009
MS.345         	14.153         	3.019
MS.346         	14.122         	2.856
MS.347         	14.095         	3.066
MS.348         	14.068         	2.939
MS.349         	14.04          	2.687
MS.350         	14.01          	2.908
MS.351         	13.983         	2.786
MS.352         	13.955         	2.86
MS.353         	13.927         	2.637
MS.354         	13.9           	2.661
MS.355         	13.872         	2.741
MS.356         	13.842         	2.767
MS.357         	13.815         	2.647
MS.358         	13.787         	2.715
MS.359         	13.76          	2.741
MS.360         	13.733         	2.596
MS.361         	13.705         	2.502
MS.362         	13.677         	2.5
MS.363         	13.653         	2.564
MS.364         	13.625         	2.506
MS.365         	13.597         	2.445
MS.366         	13.57          	2.26
MS.367         	13.542         	2.34
MS.368         	13.515         	2.252
MS.369         	13.487         	2.409
MS.370         	13.462         	2.308
MS.371         	13.435         	2.173
MS.372         	13.407         	2.427
MS.373         	13.38          	2.139
MS.374         	13.355         	2.119
MS.375         	13.327         	1.938
MS.376         	13.3           	2.167
MS.377         	13.275         	2.004
MS.378         	13.247         	1.702
MS.379         	13.222         	1.978
MS.380         	13.195         	1.919
MS.381         	13.167         	1.704
MS.382         	13.142         	1.984
MS.383         	13.115         	1.533
MS.384         	13.09          	1.968
MS.385         	13.062         	1.565
MS.386         	13.037         	1.565
MS.387         	13.012         	1.45
MS.388         	12.985         	1.472
MS.389         	12.96          	1.335
MS.390         	12.932         	1.726
MS.391         	12.907         	1.523
MS.392         	12.882         	1.376
MS.393         	12.858         	1.293
MS.394         	12.83          	1.211
MS.395         	12.805         	1.204
MS.396         	12.78          	1.098
MS.397         	12.755         	1.142
MS.398         	12.727         	0.937
MS.399         	12.702         	1.003
MS.400         	12.677         	1.043
MS.401         	12.653         	0.834
MS.402         	12.627         	1.009
MS.403         	12.602         	0.953
MS.404         	12.577         	0.856
MS.405         	12.552         	0.84
MS.406         	12.528         	0.731
MS.407         	12.502         	0.765
MS.408         	12.477         	0.673
MS.409         	12.452         	0.6
MS.410         	12.427         	0.663
MS.411         	12.403         	0.572
MS.412         	12.377         	0.719
MS.413         	12.352         	0.512
MS.414         	12.327         	0.506
MS.415         	12.302         	0.606
MS.416         	12.278         	0.512
MS.417         	12.255         	0.487
MS.418         	12.23          	0.512
MS.419         	12.205         	0.522
MS.420         	12.18          	0.449
MS.421         	12.155         	0.453
MS.422         	12.132         	0.455
MS.423         	12.108         	0.457
MS.424         	12.082         	0.504
MS.425         	12.06          	0.419
MS.426         	12.035         	0.415
MS.427         	12.01          	0.328
MS.428         	11.988         	0.371
MS.429         	11.962         	0.318
MS.430         	11.94          	0.381
MS.431         	11.915         	0.304
MS.432         	11.892         	0.318
MS.433         	11.867         	0.346
MS.434         	11.845         	0.322
MS.435         	11.82          	0.33
MS.436         	11.797         	0.316
MS.437         	11.773         	0.284
MS.438         	11.75          	0.304
MS.439         	11.727         	0.32
MS.440         	11.702         	0.288
MS.441         	11.68          	0.199
MS.442         	11.655         	0.326
MS.443         	11.632         	0.28
MS.444         	11.61          	0.234
MS.445         	11.587         	0.187
MS.446         	11.562         	0.224
MS.447         	11.54          	0.226
MS.448         	11.517         	0.191
MS.449         	11.495         	0.242
MS.450         	11.47          	0.203
MS.451         	11.447         	0.214
MS.452         	11.425         	0.183
MS.453         	11.403         	0.187
MS.454         	11.38          	0.197
MS.455         	11.358         	0.141
MS.456         	11.335         	0.175
MS.457         	11.312         	0.139
MS.458         	11.29          	0.038
MS.459         	11.267         	0.073
MS.460         	11.245         	0.032
MS.461         	11.222         	0.109
MS.462         	11.2           	0.113
MS.463         	11.177         	0.012
MS.464         	11.155         	0.022
MS.465         	11.132         	0.048
MS.466         	11.11          	0.137
MS.467         	11.087         	0.048
MS.468         	11.065         	0.016
MS.469         	11.042         	0.028
MS.470         	11.023         	-0.01
MS.471         	11             	-0.022
MS.472         	10.977         	0.133
MS.473         	10.955         	0.006
MS.474         	10.932         	0.002
MS.475         	10.912         	0.018
MS.476         	10.89          	-0.028
MS.477         	10.867         	0.068
MS.478         	10.847         	0.01
MS.479         	10.825         	-0.022
MS.480         	10.802         	-0.024
MS.481         	10.782         	-0.024
MS.482         	10.76          	-0.026
MS.483         	10.738         	-0.028
MS.484         	10.717         	-0.022
MS.485         	10.695         	-0.03
MS.486         	10.675         	-0.03
MS.487         	10.653         	-0.026
MS.488         	10.632         	-0.028
MS.489         	10.61          	-0.02
MS.490         	10.59          	-0.032
MS.491         	10.568         	-0.03
MS.492         	10.547         	-0.024
MS.493         	10.525         	-0.026
MS.494         	10.505         	-0.026
MS.495         	10.485         	-0.026
MS.496         	10.462         	-0.026
MS.497         	10.443         	-0.026
MS.498         	10.42          	-0.03
MS.499         	10.4           	-0.024
MS.500         	10.38          	-0.03
