File:              	C:\Qtrac\Data\Daniel M Sørensen\MScan multicentre study\Data from centres\Bucharest\Processed data\TDLC01229A.QZD
Name:              	RO.BU.NC.8.1
Protocol:          	MSCAN-R2
Date:              	29/12/20
Start time:        	12:44:55
Age:               	36
Sex:               	F
Temperature:       	36.3
S/R sites:         	APB
NC/disease:        	NC8
Operator:          	TL
Comments:          	RO.NC.*.1.
M-SCAN DATA (11.2-2.1m)
Scanpts: 584, 595, 928, 950
Stim. (mA)     	Amp. (mV)
MS.1           	21             	7.946
MS.2           	21             	7.974
MS.3           	21             	7.918
MS.4           	21             	7.962
MS.5           	21             	7.924
MS.6           	21             	7.996
MS.7           	21             	8.012
MS.8           	21             	8.032
MS.9           	21             	7.994
MS.10          	21             	7.891
MS.11          	21             	8.085
MS.12          	21             	8.081
MS.13          	21             	7.857
MS.14          	21             	7.926
MS.15          	21             	7.857
MS.16          	21             	8.063
MS.17          	21             	7.877
MS.18          	21             	7.91
MS.19          	21             	7.851
MS.20          	21             	7.881
MS.21          	21             	7.883
MS.22          	21             	7.851
MS.23          	21             	7.851
MS.24          	20.915         	7.845
MS.25          	20.875         	7.855
MS.26          	20.833         	7.839
MS.27          	20.79          	7.807
MS.28          	20.75          	7.849
MS.29          	20.708         	7.829
MS.30          	20.667         	7.831
MS.31          	20.625         	7.855
MS.32          	20.585         	7.825
MS.33          	20.542         	7.835
MS.34          	20.502         	7.807
MS.35          	20.46          	7.748
MS.36          	20.42          	7.819
MS.37          	20.38          	7.823
MS.38          	20.337         	7.807
MS.39          	20.297         	7.797
MS.40          	20.257         	7.849
MS.41          	20.217         	7.789
MS.42          	20.177         	7.803
MS.43          	20.135         	7.823
MS.44          	20.095         	7.811
MS.45          	20.055         	7.767
MS.46          	20.015         	7.795
MS.47          	19.975         	7.779
MS.48          	19.935         	7.827
MS.49          	19.895         	7.829
MS.50          	19.855         	7.841
MS.51          	19.817         	7.815
MS.52          	19.778         	7.789
MS.53          	19.737         	7.795
MS.54          	19.698         	7.821
MS.55          	19.657         	7.803
MS.56          	19.62          	7.801
MS.57          	19.58          	7.805
MS.58          	19.54          	7.791
MS.59          	19.502         	7.805
MS.60          	19.462         	7.765
MS.61          	19.425         	7.769
MS.62          	19.385         	7.789
MS.63          	19.347         	7.779
MS.64          	19.307         	7.759
MS.65          	19.27          	7.819
MS.66          	19.23          	7.785
MS.67          	19.192         	7.728
MS.68          	19.155         	7.771
MS.69          	19.115         	7.746
MS.70          	19.077         	7.728
MS.71          	19.04          	7.779
MS.72          	19.002         	7.759
MS.73          	18.962         	7.769
MS.74          	18.925         	7.793
MS.75          	18.887         	7.716
MS.76          	18.85          	7.748
MS.77          	18.812         	7.732
MS.78          	18.775         	7.744
MS.79          	18.737         	7.722
MS.80          	18.7           	7.763
MS.81          	18.663         	7.718
MS.82          	18.625         	7.738
MS.83          	18.587         	7.71
MS.84          	18.55          	7.73
MS.85          	18.515         	7.696
MS.86          	18.477         	7.724
MS.87          	18.44          	7.763
MS.88          	18.403         	7.696
MS.89          	18.368         	7.692
MS.90          	18.33          	7.712
MS.91          	18.292         	7.718
MS.92          	18.257         	7.787
MS.93          	18.22          	7.71
MS.94          	18.182         	7.726
MS.95          	18.147         	7.728
MS.96          	18.11          	7.714
MS.97          	18.075         	7.706
MS.98          	18.038         	7.712
MS.99          	18.003         	7.728
MS.100         	17.967         	7.714
MS.101         	17.93          	7.724
MS.102         	17.895         	7.712
MS.103         	17.86          	7.726
MS.104         	17.823         	7.7
MS.105         	17.788         	7.702
MS.106         	17.753         	7.777
MS.107         	17.717         	7.704
MS.108         	17.682         	7.698
MS.109         	17.645         	7.728
MS.110         	17.61          	7.69
MS.111         	17.575         	7.722
MS.112         	17.54          	7.7
MS.113         	17.505         	7.73
MS.114         	17.47          	7.722
MS.115         	17.435         	7.686
MS.116         	17.4           	7.692
MS.117         	17.365         	7.702
MS.118         	17.333         	7.7
MS.119         	17.297         	7.696
MS.120         	17.262         	7.684
MS.121         	17.227         	7.716
MS.122         	17.192         	7.783
MS.123         	17.16          	7.714
MS.124         	17.125         	7.718
MS.125         	17.09          	7.728
MS.126         	17.057         	7.712
MS.127         	17.022         	7.716
MS.128         	16.987         	7.728
MS.129         	16.955         	7.712
MS.130         	16.92          	7.71
MS.131         	16.887         	7.748
MS.132         	16.852         	7.706
MS.133         	16.82          	7.702
MS.134         	16.785         	7.724
MS.135         	16.753         	7.702
MS.136         	16.717         	7.73
MS.137         	16.685         	7.716
MS.138         	16.653         	7.714
MS.139         	16.618         	7.704
MS.140         	16.585         	7.732
MS.141         	16.552         	7.736
MS.142         	16.52          	7.708
MS.143         	16.485         	7.732
MS.144         	16.452         	7.763
MS.145         	16.42          	7.742
MS.146         	16.387         	7.755
MS.147         	16.355         	7.724
MS.148         	16.323         	7.718
MS.149         	16.29          	7.736
MS.150         	16.257         	7.726
MS.151         	16.225         	7.702
MS.152         	16.192         	7.718
MS.153         	16.16          	7.71
MS.154         	16.128         	7.714
MS.155         	16.095         	7.724
MS.156         	16.062         	7.738
MS.157         	16.03          	7.72
MS.158         	16             	7.716
MS.159         	15.967         	7.72
MS.160         	15.935         	7.714
MS.161         	15.902         	7.714
MS.162         	15.872         	7.71
MS.163         	15.84          	7.7
MS.164         	15.807         	7.706
MS.165         	15.777         	7.692
MS.166         	15.745         	7.706
MS.167         	15.712         	7.688
MS.168         	15.682         	7.718
MS.169         	15.65          	7.714
MS.170         	15.62          	7.704
MS.171         	15.587         	7.698
MS.172         	15.557         	7.706
MS.173         	15.525         	7.712
MS.174         	15.495         	7.736
MS.175         	15.465         	7.724
MS.176         	15.432         	7.708
MS.177         	15.402         	7.692
MS.178         	15.372         	7.712
MS.179         	15.34          	7.696
MS.180         	15.31          	7.71
MS.181         	15.28          	7.71
MS.182         	15.25          	7.698
MS.183         	15.217         	7.692
MS.184         	15.188         	7.698
MS.185         	15.157         	7.698
MS.186         	15.127         	7.7
MS.187         	15.097         	7.684
MS.188         	15.068         	7.696
MS.189         	15.037         	7.69
MS.190         	15.007         	7.688
MS.191         	14.977         	7.716
MS.192         	14.947         	7.668
MS.193         	14.917         	7.676
MS.194         	14.887         	7.684
MS.195         	14.858         	7.678
MS.196         	14.827         	7.672
MS.197         	14.797         	7.69
MS.198         	14.77          	7.694
MS.199         	14.74          	7.678
MS.200         	14.71          	7.708
MS.201         	14.68          	7.706
MS.202         	14.65          	7.71
MS.203         	14.622         	7.684
MS.204         	14.592         	7.682
MS.205         	14.562         	7.688
MS.206         	14.535         	7.678
MS.207         	14.505         	7.702
MS.208         	14.477         	7.69
MS.209         	14.447         	7.688
MS.210         	14.417         	7.68
MS.211         	14.39          	7.678
MS.212         	14.36          	7.732
MS.213         	14.332         	7.688
MS.214         	14.302         	7.674
MS.215         	14.275         	7.704
MS.216         	14.247         	7.674
MS.217         	14.217         	7.666
MS.218         	14.19          	7.704
MS.219         	14.162         	7.696
MS.220         	14.132         	7.684
MS.221         	14.105         	7.684
MS.222         	14.077         	7.666
MS.223         	14.047         	7.678
MS.224         	14.02          	7.676
MS.225         	13.992         	7.68
MS.226         	13.965         	7.674
MS.227         	13.938         	7.668
MS.228         	13.91          	7.686
MS.229         	13.88          	7.666
MS.230         	13.852         	7.688
MS.231         	13.825         	7.662
MS.232         	13.797         	7.692
MS.233         	13.77          	7.692
MS.234         	13.742         	7.67
MS.235         	13.715         	7.672
MS.236         	13.688         	7.658
MS.237         	13.66          	7.664
MS.238         	13.632         	7.698
MS.239         	13.605         	7.644
MS.240         	13.58          	7.652
MS.241         	13.552         	7.668
MS.242         	13.525         	7.676
MS.243         	13.497         	7.648
MS.244         	13.47          	7.66
MS.245         	13.445         	7.666
MS.246         	13.417         	7.672
MS.247         	13.39          	7.702
MS.248         	13.362         	7.662
MS.249         	13.337         	7.674
MS.250         	13.31          	7.662
MS.251         	13.282         	7.664
MS.252         	13.257         	7.646
MS.253         	13.23          	7.66
MS.254         	13.205         	7.662
MS.255         	13.177         	7.66
MS.256         	13.153         	7.662
MS.257         	13.125         	7.652
MS.258         	13.1           	7.68
MS.259         	13.072         	7.696
MS.260         	13.047         	7.684
MS.261         	13.02          	7.662
MS.262         	12.995         	7.692
MS.263         	12.967         	7.672
MS.264         	12.943         	7.674
MS.265         	12.917         	7.684
MS.266         	12.89          	7.654
MS.267         	12.865         	7.678
MS.268         	12.84          	7.65
MS.269         	12.812         	7.662
MS.270         	12.787         	7.684
MS.271         	12.762         	7.68
MS.272         	12.738         	7.67
MS.273         	12.712         	7.644
MS.274         	12.685         	7.668
MS.275         	12.66          	7.652
MS.276         	12.635         	7.66
MS.277         	12.61          	7.656
MS.278         	12.585         	7.686
MS.279         	12.56          	7.668
MS.280         	12.535         	7.668
MS.281         	12.51          	7.66
MS.282         	12.485         	7.67
MS.283         	12.46          	7.664
MS.284         	12.435         	7.71
MS.285         	12.41          	7.664
MS.286         	12.385         	7.654
MS.287         	12.36          	7.668
MS.288         	12.335         	7.664
MS.289         	12.312         	7.656
MS.290         	12.287         	7.66
MS.291         	12.262         	7.67
MS.292         	12.238         	7.676
MS.293         	12.212         	7.664
MS.294         	12.19          	7.69
MS.295         	12.165         	7.672
MS.296         	12.14          	7.676
MS.297         	12.115         	7.686
MS.298         	12.092         	7.702
MS.299         	12.068         	7.696
MS.300         	12.042         	7.664
MS.301         	12.02          	7.7
MS.302         	11.995         	7.678
MS.303         	11.972         	7.668
MS.304         	11.947         	7.678
MS.305         	11.922         	7.686
MS.306         	11.9           	7.694
MS.307         	11.875         	7.672
MS.308         	11.852         	7.682
MS.309         	11.827         	7.686
MS.310         	11.805         	7.636
MS.311         	11.782         	7.702
MS.312         	11.757         	7.688
MS.313         	11.735         	7.692
MS.314         	11.71          	7.696
MS.315         	11.688         	7.684
MS.316         	11.665         	7.684
MS.317         	11.64          	7.686
MS.318         	11.617         	7.696
MS.319         	11.595         	7.68
MS.320         	11.57          	7.734
MS.321         	11.547         	7.696
MS.322         	11.525         	7.694
MS.323         	11.502         	7.694
MS.324         	11.48          	7.696
MS.325         	11.455         	7.71
MS.326         	11.432         	7.696
MS.327         	11.41          	7.688
MS.328         	11.387         	7.712
MS.329         	11.365         	7.69
MS.330         	11.342         	7.724
MS.331         	11.32          	7.698
MS.332         	11.297         	7.71
MS.333         	11.275         	7.712
MS.334         	11.252         	7.684
MS.335         	11.23          	7.68
MS.336         	11.207         	7.688
MS.337         	11.185         	7.706
MS.338         	11.162         	7.71
MS.339         	11.14          	7.7
MS.340         	11.117         	7.702
MS.341         	11.095         	7.712
MS.342         	11.073         	7.7
MS.343         	11.05          	7.704
MS.344         	11.03          	7.718
MS.345         	11.007         	7.726
MS.346         	10.985         	7.724
MS.347         	10.962         	7.7
MS.348         	10.94          	7.738
MS.349         	10.92          	7.708
MS.350         	10.898         	7.728
MS.351         	10.875         	7.69
MS.352         	10.855         	7.74
MS.353         	10.832         	7.694
MS.354         	10.81          	7.73
MS.355         	10.79          	7.716
MS.356         	10.767         	7.686
MS.357         	10.745         	7.72
MS.358         	10.725         	7.704
MS.359         	10.702         	7.708
MS.360         	10.682         	7.7
MS.361         	10.66          	7.688
MS.362         	10.64          	7.712
MS.363         	10.617         	7.742
MS.364         	10.597         	7.74
MS.365         	10.575         	7.716
MS.366         	10.555         	7.761
MS.367         	10.532         	7.728
MS.368         	10.512         	7.704
MS.369         	10.49          	7.726
MS.370         	10.47          	7.724
MS.371         	10.45          	7.726
MS.372         	10.427         	7.708
MS.373         	10.407         	7.718
MS.374         	10.387         	7.714
MS.375         	10.365         	7.732
MS.376         	10.345         	7.702
MS.377         	10.325         	7.706
MS.378         	10.305         	7.698
MS.379         	10.282         	7.696
MS.380         	10.262         	7.696
MS.381         	10.242         	7.7
MS.382         	10.222         	7.718
MS.383         	10.202         	7.688
MS.384         	10.18          	7.686
MS.385         	10.16          	7.68
MS.386         	10.14          	7.686
MS.387         	10.12          	7.658
MS.388         	10.1           	7.692
MS.389         	10.08          	7.686
MS.390         	10.06          	7.69
MS.391         	10.04          	7.67
MS.392         	10.02          	7.682
MS.393         	10             	7.664
MS.394         	9.98           	7.68
MS.395         	9.96           	7.672
MS.396         	9.94           	7.678
MS.397         	9.92           	7.67
MS.398         	9.9            	7.676
MS.399         	9.88           	7.678
MS.400         	9.86           	7.69
MS.401         	9.84           	7.688
MS.402         	9.82           	7.672
MS.403         	9.802          	7.674
MS.404         	9.782          	7.692
MS.405         	9.762          	7.684
MS.406         	9.742          	7.716
MS.407         	9.722          	7.674
MS.408         	9.705          	7.676
MS.409         	9.685          	7.696
MS.410         	9.665          	7.684
MS.411         	9.645          	7.672
MS.412         	9.627          	7.648
MS.413         	9.608          	7.688
MS.414         	9.587          	7.676
MS.415         	9.57           	7.668
MS.416         	9.55           	7.642
MS.417         	9.53           	7.678
MS.418         	9.512          	7.66
MS.419         	9.492          	7.688
MS.420         	9.472          	7.68
MS.421         	9.455          	7.672
MS.422         	9.435          	7.668
MS.423         	9.417          	7.67
MS.424         	9.398          	7.668
MS.425         	9.38           	7.666
MS.426         	9.36           	7.672
MS.427         	9.342          	7.662
MS.428         	9.323          	7.682
MS.429         	9.305          	7.676
MS.430         	9.285          	7.654
MS.431         	9.267          	7.66
MS.432         	9.25           	7.684
MS.433         	9.23           	7.676
MS.434         	9.212          	7.672
MS.435         	9.193          	7.678
MS.436         	9.175          	7.694
MS.437         	9.158          	7.678
MS.438         	9.137          	7.648
MS.439         	9.12           	7.688
MS.440         	9.102          	7.664
MS.441         	9.085          	7.672
MS.442         	9.065          	7.668
MS.443         	9.047          	7.65
MS.444         	9.03           	7.664
MS.445         	9.012          	7.68
MS.446         	8.992          	7.67
MS.447         	8.975          	7.662
MS.448         	8.957          	7.67
MS.449         	8.94           	7.682
MS.450         	8.922          	7.67
MS.451         	8.905          	7.676
MS.452         	8.887          	7.712
MS.453         	8.867          	7.714
MS.454         	8.85           	7.736
MS.455         	8.832          	7.722
MS.456         	8.815          	7.696
MS.457         	8.797          	7.706
MS.458         	8.78           	7.748
MS.459         	8.762          	7.757
MS.460         	8.745          	7.753
MS.461         	8.727          	7.746
MS.462         	8.71           	7.769
MS.463         	8.693          	7.748
MS.464         	8.675          	7.769
MS.465         	8.658          	7.74
MS.466         	8.64           	7.775
MS.467         	8.622          	7.765
MS.468         	8.608          	7.775
MS.469         	8.59           	7.761
MS.470         	8.573          	7.763
MS.471         	8.555          	7.757
MS.472         	8.537          	7.75
MS.473         	8.52           	7.759
MS.474         	8.505          	7.761
MS.475         	8.488          	7.767
MS.476         	8.47           	7.777
MS.477         	8.452          	7.761
MS.478         	8.435          	7.755
MS.479         	8.42           	7.765
MS.480         	8.403          	7.765
MS.481         	8.385          	7.748
MS.482         	8.37           	7.779
MS.483         	8.352          	7.763
MS.484         	8.335          	7.755
MS.485         	8.32           	7.773
MS.486         	8.302          	7.767
MS.487         	8.285          	7.765
MS.488         	8.27           	7.75
MS.489         	8.252          	7.728
MS.490         	8.235          	7.738
MS.491         	8.22           	7.684
MS.492         	8.202          	7.68
MS.493         	8.188          	7.732
MS.494         	8.17           	7.763
MS.495         	8.155          	7.718
MS.496         	8.137          	7.702
MS.497         	8.122          	7.71
MS.498         	8.105          	7.722
MS.499         	8.09           	7.718
MS.500         	8.073          	7.75
MS.501         	8.057          	7.64
