File:              	C:\Qtrac\Data\Daniel M Sørensen\MScan multicentre study\Data from centres\Odense\Processed data\TKC00226A.QZD
Name:              	DK.ODE.NC.1.2
Protocol:          	MSCAN-R2
Date:              	26/2/20
Start time:        	14:49:04
Age:               	32
Sex:               	m
Temperature:       	31.9
S/R sites:         	APB
NC/disease:        	NC
Operator:          	TK
Comments:
M-SCAN DATA (6.5-1.4m)
Scanpts: 108, 115, 471, 486
Stim. (mA)     	Amp. (mV)
MS.1           	24             	8.496
MS.2           	24             	8.514
MS.3           	24             	8.534
MS.4           	24             	8.538
MS.5           	24             	8.504
MS.6           	24             	8.548
MS.7           	24             	8.496
MS.8           	24             	8.508
MS.9           	24             	8.482
MS.10          	24             	8.445
MS.11          	24             	8.464
MS.12          	24             	8.466
MS.13          	24             	8.401
MS.14          	24             	8.466
MS.15          	24             	8.476
MS.16          	24             	8.482
MS.17          	24             	8.49
MS.18          	24             	8.464
MS.19          	24             	8.445
MS.20          	24             	8.459
MS.21          	24             	8.482
MS.22          	24             	8.457
MS.23          	23.905         	8.451
MS.24          	23.858         	8.459
MS.25          	23.807         	8.453
MS.26          	23.76          	8.482
MS.27          	23.712         	8.472
MS.28          	23.665         	8.455
MS.29          	23.62          	8.472
MS.30          	23.573         	8.494
MS.31          	23.525         	8.526
MS.32          	23.477         	8.502
MS.33          	23.43          	8.524
MS.34          	23.385         	8.5
MS.35          	23.337         	8.457
MS.36          	23.29          	8.439
MS.37          	23.245         	8.451
MS.38          	23.198         	8.5
MS.39          	23.153         	8.443
MS.40          	23.105         	8.421
MS.41          	23.06          	8.377
MS.42          	23.012         	8.415
MS.43          	22.967         	8.383
MS.44          	22.92          	8.399
MS.45          	22.875         	8.393
MS.46          	22.83          	8.387
MS.47          	22.785         	8.407
MS.48          	22.737         	8.391
MS.49          	22.692         	8.409
MS.50          	22.647         	8.51
MS.51          	22.602         	8.5
MS.52          	22.557         	8.552
MS.53          	22.512         	8.433
MS.54          	22.467         	8.387
MS.55          	22.422         	8.367
MS.56          	22.377         	8.395
MS.57          	22.332         	8.379
MS.58          	22.288         	8.363
MS.59          	22.243         	8.359
MS.60          	22.2           	8.379
MS.61          	22.155         	8.375
MS.62          	22.11          	8.389
MS.63          	22.067         	8.407
MS.64          	22.022         	8.548
MS.65          	21.977         	8.536
MS.66          	21.935         	8.516
MS.67          	21.89          	8.508
MS.68          	21.847         	8.518
MS.69          	21.802         	8.538
MS.70          	21.76          	8.526
MS.71          	21.715         	8.496
MS.72          	21.672         	8.494
MS.73          	21.63          	8.506
MS.74          	21.585         	8.512
MS.75          	21.542         	8.449
MS.76          	21.5           	8.449
MS.77          	21.458         	8.518
MS.78          	21.415         	8.457
MS.79          	21.372         	8.443
MS.80          	21.327         	8.484
MS.81          	21.285         	8.47
MS.82          	21.243         	8.468
MS.83          	21.2           	8.468
MS.84          	21.157         	8.472
MS.85          	21.118         	8.512
MS.86          	21.075         	8.482
MS.87          	21.032         	8.435
MS.88          	20.99          	8.433
MS.89          	20.948         	8.445
MS.90          	20.907         	8.455
MS.91          	20.865         	8.461
MS.92          	20.823         	8.498
MS.93          	20.78          	8.484
MS.94          	20.74          	8.48
MS.95          	20.698         	8.437
MS.96          	20.657         	8.437
MS.97          	20.615         	8.441
MS.98          	20.575         	8.423
MS.99          	20.532         	8.433
MS.100         	20.493         	8.443
MS.101         	20.452         	8.443
MS.102         	20.41          	8.437
MS.103         	20.37          	8.49
MS.104         	20.33          	8.47
MS.105         	20.288         	8.433
MS.106         	20.247         	8.439
MS.107         	20.208         	8.478
MS.108         	20.167         	8.472
MS.109         	20.127         	8.464
MS.110         	20.087         	8.48
MS.111         	20.047         	8.437
MS.112         	20.007         	8.474
MS.113         	19.967         	8.478
MS.114         	19.927         	8.484
MS.115         	19.887         	8.478
MS.116         	19.847         	8.466
MS.117         	19.807         	8.449
MS.118         	19.767         	8.466
MS.119         	19.727         	8.474
MS.120         	19.69          	8.496
MS.121         	19.65          	8.468
MS.122         	19.61          	8.502
MS.123         	19.57          	8.49
MS.124         	19.532         	8.49
MS.125         	19.493         	8.447
MS.126         	19.455         	8.455
MS.127         	19.415         	8.461
MS.128         	19.377         	8.435
MS.129         	19.337         	8.449
MS.130         	19.3           	8.455
MS.131         	19.26          	8.459
MS.132         	19.222         	8.455
MS.133         	19.182         	8.389
MS.134         	19.145         	8.441
MS.135         	19.108         	8.377
MS.136         	19.067         	8.373
MS.137         	19.03          	8.425
MS.138         	18.993         	8.377
MS.139         	18.955         	8.391
MS.140         	18.917         	8.464
MS.141         	18.88          	8.375
MS.142         	18.842         	8.391
MS.143         	18.802         	8.359
MS.144         	18.765         	8.371
MS.145         	18.727         	8.369
MS.146         	18.69          	8.347
MS.147         	18.655         	8.341
MS.148         	18.618         	8.343
MS.149         	18.58          	8.353
MS.150         	18.542         	8.345
MS.151         	18.505         	8.29
MS.152         	18.467         	8.351
MS.153         	18.432         	8.304
MS.154         	18.395         	8.286
MS.155         	18.358         	8.149
MS.156         	18.32          	8.294
MS.157         	18.285         	8.361
MS.158         	18.247         	8.282
MS.159         	18.212         	8.292
MS.160         	18.175         	8.3
MS.161         	18.137         	8.167
MS.162         	18.102         	8.351
MS.163         	18.067         	8.159
MS.164         	18.03          	8.151
MS.165         	17.995         	8.28
MS.166         	17.958         	8.137
MS.167         	17.922         	8.135
MS.168         	17.887         	8.151
MS.169         	17.85          	8.192
MS.170         	17.815         	8.29
MS.171         	17.78          	8.149
MS.172         	17.745         	8.196
MS.173         	17.708         	8.248
MS.174         	17.672         	8.133
MS.175         	17.637         	8.194
MS.176         	17.602         	8.047
MS.177         	17.567         	8.059
MS.178         	17.532         	8.043
MS.179         	17.497         	8.063
MS.180         	17.462         	8.043
MS.181         	17.427         	7.815
MS.182         	17.392         	8.028
MS.183         	17.358         	8.028
MS.184         	17.323         	7.946
MS.185         	17.288         	7.805
MS.186         	17.255         	7.795
MS.187         	17.22          	7.785
MS.188         	17.185         	8.014
MS.189         	17.15          	7.811
MS.190         	17.118         	7.783
MS.191         	17.083         	7.773
MS.192         	17.047         	7.992
MS.193         	17.015         	7.763
MS.194         	16.98          	7.787
MS.195         	16.948         	7.787
MS.196         	16.913         	7.791
MS.197         	16.878         	7.785
MS.198         	16.845         	7.791
MS.199         	16.812         	7.839
MS.200         	16.778         	7.773
MS.201         	16.745         	7.781
MS.202         	16.71          	7.793
MS.203         	16.677         	7.793
MS.204         	16.645         	7.789
MS.205         	16.61          	7.785
MS.206         	16.577         	7.805
MS.207         	16.545         	7.744
MS.208         	16.512         	7.755
MS.209         	16.477         	7.799
MS.210         	16.445         	7.799
MS.211         	16.413         	7.755
MS.212         	16.38          	7.775
MS.213         	16.347         	7.734
MS.214         	16.315         	7.753
MS.215         	16.282         	7.757
MS.216         	16.25          	7.825
MS.217         	16.217         	7.718
MS.218         	16.185         	7.738
MS.219         	16.153         	7.714
MS.220         	16.12          	7.742
MS.221         	16.087         	7.722
MS.222         	16.055         	7.692
MS.223         	16.022         	7.704
MS.224         	15.992         	7.569
MS.225         	15.96          	7.489
MS.226         	15.927         	7.587
MS.227         	15.895         	7.45
MS.228         	15.865         	7.394
MS.229         	15.832         	7.448
MS.230         	15.8           	7.362
MS.231         	15.77          	7.674
MS.232         	15.737         	7.503
MS.233         	15.705         	7.352
MS.234         	15.675         	7.136
MS.235         	15.642         	7.285
MS.236         	15.612         	7.134
MS.237         	15.58          	6.953
MS.238         	15.55          	7.094
MS.239         	15.52          	6.939
MS.240         	15.487         	6.848
MS.241         	15.457         	6.764
MS.242         	15.425         	6.846
MS.243         	15.395         	6.725
MS.244         	15.365         	6.729
MS.245         	15.332         	6.474
MS.246         	15.302         	6.455
MS.247         	15.273         	6.743
MS.248         	15.242         	6.536
MS.249         	15.212         	6.467
MS.250         	15.18          	6.556
MS.251         	15.15          	6.431
MS.252         	15.12          	6.588
MS.253         	15.09          	6.21
MS.254         	15.06          	6.252
MS.255         	15.03          	6.173
MS.256         	15             	6.216
MS.257         	14.97          	5.934
MS.258         	14.94          	6.024
MS.259         	14.91          	5.821
MS.260         	14.88          	6.012
MS.261         	14.85          	6.014
MS.262         	14.82          	5.652
MS.263         	14.792         	5.783
MS.264         	14.762         	5.525
MS.265         	14.733         	5.76
MS.266         	14.702         	5.553
MS.267         	14.672         	5.525
MS.268         	14.645         	5.72
MS.269         	14.615         	5.521
MS.270         	14.585         	5.356
MS.271         	14.557         	5.684
MS.272         	14.527         	5.41
MS.273         	14.497         	5.331
MS.274         	14.47          	5.219
MS.275         	14.44          	5.164
MS.276         	14.412         	5.315
MS.277         	14.382         	5.15
MS.278         	14.355         	5.052
MS.279         	14.325         	5.068
MS.280         	14.297         	4.985
MS.281         	14.267         	4.812
MS.282         	14.24          	4.747
MS.283         	14.212         	4.824
MS.284         	14.182         	4.792
MS.285         	14.155         	4.594
MS.286         	14.127         	4.552
MS.287         	14.097         	4.816
MS.288         	14.07          	4.639
MS.289         	14.042         	4.6
MS.290         	14.015         	4.484
MS.291         	13.985         	4.365
MS.292         	13.957         	4.403
MS.293         	13.93          	4.49
MS.294         	13.903         	4.059
MS.295         	13.875         	4.198
MS.296         	13.847         	4.073
MS.297         	13.82          	4.085
MS.298         	13.792         	4.141
MS.299         	13.765         	3.714
MS.300         	13.737         	4.046
MS.301         	13.71          	3.813
MS.302         	13.682         	3.885
MS.303         	13.655         	3.619
MS.304         	13.627         	3.406
MS.305         	13.6           	3.559
MS.306         	13.572         	3.484
MS.307         	13.545         	3.45
MS.308         	13.517         	3.267
MS.309         	13.492         	3.283
MS.310         	13.465         	3.104
MS.311         	13.438         	3.154
MS.312         	13.41          	3.019
MS.313         	13.385         	2.834
MS.314         	13.358         	2.713
MS.315         	13.33          	2.598
MS.316         	13.305         	2.681
MS.317         	13.278         	2.586
MS.318         	13.25          	2.586
MS.319         	13.225         	2.475
MS.320         	13.197         	2.409
MS.321         	13.172         	2.516
MS.322         	13.145         	2.322
MS.323         	13.12          	2.27
MS.324         	13.092         	2.318
MS.325         	13.068         	2.113
MS.326         	13.04          	2.151
MS.327         	13.015         	2.191
MS.328         	12.987         	2.334
MS.329         	12.962         	2.153
MS.330         	12.938         	1.972
MS.331         	12.91          	1.98
MS.332         	12.885         	1.893
MS.333         	12.86          	1.567
MS.334         	12.832         	1.692
MS.335         	12.807         	1.668
MS.336         	12.782         	1.543
MS.337         	12.757         	1.613
MS.338         	12.73          	1.587
MS.339         	12.705         	1.768
MS.340         	12.68          	1.595
MS.341         	12.655         	1.519
MS.342         	12.63          	1.374
MS.343         	12.605         	1.46
MS.344         	12.58          	1.331
MS.345         	12.555         	1.202
MS.346         	12.53          	1.063
MS.347         	12.505         	1.273
MS.348         	12.48          	1.219
MS.349         	12.455         	1.19
MS.350         	12.43          	1.027
MS.351         	12.405         	0.91
MS.352         	12.38          	1.017
MS.353         	12.355         	0.985
MS.354         	12.33          	0.771
MS.355         	12.305         	1.001
MS.356         	12.28          	0.955
MS.357         	12.257         	0.749
MS.358         	12.233         	0.661
MS.359         	12.207         	0.677
MS.360         	12.182         	0.715
MS.361         	12.16          	0.669
MS.362         	12.135         	0.739
MS.363         	12.11          	0.566
MS.364         	12.085         	0.649
MS.365         	12.062         	0.52
MS.366         	12.037         	0.638
MS.367         	12.012         	0.485
MS.368         	11.99          	0.51
MS.369         	11.965         	0.538
MS.370         	11.943         	0.493
MS.371         	11.917         	0.447
MS.372         	11.895         	0.467
MS.373         	11.87          	0.393
MS.374         	11.847         	0.433
MS.375         	11.822         	0.441
MS.376         	11.8           	0.377
MS.377         	11.775         	0.375
MS.378         	11.752         	0.367
MS.379         	11.73          	0.352
MS.380         	11.705         	0.344
MS.381         	11.682         	0.328
MS.382         	11.657         	0.361
MS.383         	11.635         	0.316
MS.384         	11.613         	0.28
MS.385         	11.59          	0.3
MS.386         	11.565         	0.29
MS.387         	11.542         	0.224
MS.388         	11.52          	0.28
MS.389         	11.497         	0.298
MS.390         	11.472         	0.252
MS.391         	11.45          	0.199
MS.392         	11.427         	0.25
MS.393         	11.405         	0.214
MS.394         	11.382         	0.195
MS.395         	11.36          	0.187
MS.396         	11.337         	0.171
MS.397         	11.315         	0.167
MS.398         	11.292         	0.189
MS.399         	11.27          	0.179
MS.400         	11.247         	0.195
MS.401         	11.225         	0.155
MS.402         	11.202         	0.185
MS.403         	11.18          	0.169
MS.404         	11.157         	0.151
MS.405         	11.135         	0.185
MS.406         	11.113         	0.113
MS.407         	11.09          	0.157
MS.408         	11.068         	0.173
MS.409         	11.045         	0.153
MS.410         	11.023         	0.127
MS.411         	11.002         	0.121
MS.412         	10.98          	0.165
MS.413         	10.957         	0.117
MS.414         	10.935         	0.081
MS.415         	10.915         	0.127
MS.416         	10.892         	0.119
MS.417         	10.87          	0.095
MS.418         	10.85          	0.097
MS.419         	10.827         	0.123
MS.420         	10.805         	0.091
MS.421         	10.785         	0.095
MS.422         	10.762         	0.058
MS.423         	10.74          	0.075
MS.424         	10.72          	0.083
MS.425         	10.698         	0.062
MS.426         	10.677         	0.113
MS.427         	10.655         	0.073
MS.428         	10.635         	0.064
MS.429         	10.613         	0.06
MS.430         	10.592         	0.079
MS.431         	10.57          	0.044
MS.432         	10.55          	0.028
MS.433         	10.528         	0.05
MS.434         	10.507         	0.06
MS.435         	10.485         	0.054
MS.436         	10.465         	0.054
MS.437         	10.445         	0.042
MS.438         	10.422         	0.068
MS.439         	10.403         	0.056
MS.440         	10.382         	0.028
MS.441         	10.36          	0.028
MS.442         	10.34          	0.036
MS.443         	10.32          	0.034
MS.444         	10.3           	0.03
MS.445         	10.278         	0.02
MS.446         	10.257         	0.012
MS.447         	10.238         	0.022
MS.448         	10.217         	0.02
MS.449         	10.198         	0.018
MS.450         	10.175         	0.018
MS.451         	10.155         	0.016
MS.452         	10.135         	0.024
MS.453         	10.115         	0.008
MS.454         	10.095         	0.026
MS.455         	10.075         	0.026
MS.456         	10.055         	0.000
MS.457         	10.035         	0.024
MS.458         	10.015         	0.012
MS.459         	9.995          	0.012
MS.460         	9.975          	0.03
MS.461         	9.955          	0.01
MS.462         	9.935          	0.01
MS.463         	9.915          	0.004
MS.464         	9.895          	0.018
MS.465         	9.875          	0.006
MS.466         	9.855          	0.006
MS.467         	9.835          	0.000
MS.468         	9.818          	0.018
MS.469         	9.797          	0.006
MS.470         	9.778          	0.000
MS.471         	9.757          	0.02
MS.472         	9.738          	0.000
MS.473         	9.717          	0.01
MS.474         	9.7            	0.02
MS.475         	9.68           	0.006
MS.476         	9.66           	0.008
MS.477         	9.64           	-0.006
MS.478         	9.622          	0.002
MS.479         	9.602          	0.008
MS.480         	9.582          	-0.004
MS.481         	9.565          	-0.004
MS.482         	9.545          	-0.002
MS.483         	9.525          	0.000
MS.484         	9.507          	0.006
MS.485         	9.488          	0.000
MS.486         	9.47           	-0.004
MS.487         	9.45           	0.000
MS.488         	9.432          	0.004
MS.489         	9.412          	-0.002
MS.490         	9.395          	0.006
MS.491         	9.375          	0.004
MS.492         	9.358          	0.01
MS.493         	9.337          	-0.006
MS.494         	9.32           	0.012
MS.495         	9.3            	0.008
MS.496         	9.283          	0.01
MS.497         	9.262          	-0.002
MS.498         	9.245          	0.004
MS.499         	9.225          	0.000
MS.500         	9.207          	0.000
MS.501         	9.19           	-0.004
