File:              	C:\Qtrac\Data\Daniel M Sørensen\MScan multicentre study\Data from centres\Odense\Processed data\TKC01014A (2).QZD
Name:              	DK.ODE.NC.6.1
Protocol:          	MSCAN-R2
Date:              	14/10/20
Start time:        	13:27:16
Age:               	50
Sex:               	F
Temperature:       	31.2
S/R sites:         	APB
NC/disease:        	NC
Operator:          	TK
Comments:
M-SCAN DATA (5.9-0.8m)
Scanpts: 107, 119, 535, 541
Stim. (mA)     	Amp. (mV)
MS.1           	13.5           	7.372
MS.2           	13.5           	7.277
MS.3           	13.5           	7.323
MS.4           	13.5           	7.378
MS.5           	13.5           	7.344
MS.6           	13.5           	7.426
MS.7           	13.5           	7.434
MS.8           	13.5           	7.344
MS.9           	13.5           	7.45
MS.10          	13.5           	7.418
MS.11          	13.5           	7.489
MS.12          	13.5           	7.424
MS.13          	13.5           	7.394
MS.14          	13.5           	7.418
MS.15          	13.5           	7.334
MS.16          	13.5           	7.388
MS.17          	13.5           	7.38
MS.18          	13.5           	7.38
MS.19          	13.5           	7.36
MS.20          	13.5           	7.388
MS.21          	13.5           	7.35
MS.22          	13.5           	7.38
MS.23          	13.445         	7.344
MS.24          	13.42          	7.362
MS.25          	13.392         	7.378
MS.26          	13.365         	7.378
MS.27          	13.34          	7.334
MS.28          	13.312         	7.386
MS.29          	13.285         	7.39
MS.30          	13.26          	7.42
MS.31          	13.233         	7.392
MS.32          	13.205         	7.398
MS.33          	13.18          	7.398
MS.34          	13.153         	7.408
MS.35          	13.127         	7.42
MS.36          	13.1           	7.428
MS.37          	13.075         	7.434
MS.38          	13.047         	7.444
MS.39          	13.023         	7.432
MS.40          	12.997         	7.436
MS.41          	12.97          	7.448
MS.42          	12.945         	7.436
MS.43          	12.92          	7.454
MS.44          	12.892         	7.424
MS.45          	12.867         	7.471
MS.46          	12.842         	7.436
MS.47          	12.815         	7.442
MS.48          	12.79          	7.436
MS.49          	12.765         	7.434
MS.50          	12.74          	7.434
MS.51          	12.715         	7.446
MS.52          	12.688         	7.45
MS.53          	12.662         	7.444
MS.54          	12.637         	7.414
MS.55          	12.613         	7.422
MS.56          	12.587         	7.398
MS.57          	12.562         	7.422
MS.58          	12.537         	7.396
MS.59          	12.512         	7.418
MS.60          	12.488         	7.41
MS.61          	12.462         	7.422
MS.62          	12.438         	7.432
MS.63          	12.412         	7.436
MS.64          	12.387         	7.45
MS.65          	12.363         	7.45
MS.66          	12.337         	7.454
MS.67          	12.312         	7.46
MS.68          	12.29          	7.456
MS.69          	12.265         	7.452
MS.70          	12.24          	7.448
MS.71          	12.215         	7.466
MS.72          	12.19          	7.444
MS.73          	12.167         	7.464
MS.74          	12.142         	7.466
MS.75          	12.117         	7.434
MS.76          	12.092         	7.477
MS.77          	12.07          	7.481
MS.78          	12.045         	7.44
MS.79          	12.023         	7.466
MS.80          	11.997         	7.462
MS.81          	11.972         	7.481
MS.82          	11.95          	7.511
MS.83          	11.925         	7.469
MS.84          	11.903         	7.497
MS.85          	11.877         	7.487
MS.86          	11.855         	7.452
MS.87          	11.83          	7.481
MS.88          	11.807         	7.487
MS.89          	11.782         	7.477
MS.90          	11.76          	7.438
MS.91          	11.738         	7.481
MS.92          	11.712         	7.495
MS.93          	11.69          	7.469
MS.94          	11.665         	7.469
MS.95          	11.642         	7.489
MS.96          	11.62          	7.497
MS.97          	11.597         	7.497
MS.98          	11.572         	7.448
MS.99          	11.55          	7.489
MS.100         	11.528         	7.495
MS.101         	11.505         	7.489
MS.102         	11.48          	7.517
MS.103         	11.457         	7.464
MS.104         	11.435         	7.493
MS.105         	11.412         	7.485
MS.106         	11.39          	7.444
MS.107         	11.367         	7.491
MS.108         	11.345         	7.481
MS.109         	11.322         	7.473
MS.110         	11.297         	7.483
MS.111         	11.275         	7.489
MS.112         	11.252         	7.495
MS.113         	11.23          	7.485
MS.114         	11.207         	7.479
MS.115         	11.188         	7.489
MS.116         	11.165         	7.505
MS.117         	11.142         	7.497
MS.118         	11.12          	7.495
MS.119         	11.097         	7.503
MS.120         	11.075         	7.491
MS.121         	11.052         	7.483
MS.122         	11.03          	7.483
MS.123         	11.007         	7.489
MS.124         	10.988         	7.37
MS.125         	10.965         	7.388
MS.126         	10.943         	7.495
MS.127         	10.92          	7.489
MS.128         	10.9           	7.493
MS.129         	10.877         	7.493
MS.130         	10.855         	7.497
MS.131         	10.835         	7.489
MS.132         	10.812         	7.495
MS.133         	10.79          	7.378
MS.134         	10.77          	7.497
MS.135         	10.747         	7.382
MS.136         	10.725         	7.392
MS.137         	10.705         	7.394
MS.138         	10.682         	7.495
MS.139         	10.662         	7.493
MS.140         	10.64          	7.402
MS.141         	10.62          	7.412
MS.142         	10.597         	7.396
MS.143         	10.577         	7.396
MS.144         	10.555         	7.384
MS.145         	10.535         	7.402
MS.146         	10.515         	7.388
MS.147         	10.492         	7.505
MS.148         	10.472         	7.366
MS.149         	10.45          	7.388
MS.150         	10.43          	7.352
MS.151         	10.41          	7.388
MS.152         	10.387         	7.392
MS.153         	10.367         	7.388
MS.154         	10.347         	7.398
MS.155         	10.325         	7.352
MS.156         	10.305         	7.398
MS.157         	10.285         	7.434
MS.158         	10.265         	7.398
MS.159         	10.245         	7.396
MS.160         	10.222         	7.404
MS.161         	10.202         	7.412
MS.162         	10.182         	7.404
MS.163         	10.162         	7.406
MS.164         	10.142         	7.402
MS.165         	10.122         	7.394
MS.166         	10.102         	7.398
MS.167         	10.082         	7.398
MS.168         	10.06          	7.404
MS.169         	10.04          	7.386
MS.170         	10.02          	7.41
MS.171         	10             	7.398
MS.172         	9.98           	7.394
MS.173         	9.96           	7.414
MS.174         	9.94           	7.41
MS.175         	9.922          	7.408
MS.176         	9.903          	7.416
MS.177         	9.882          	7.428
MS.178         	9.863          	7.404
MS.179         	9.842          	7.37
MS.180         	9.823          	7.426
MS.181         	9.802          	7.396
MS.182         	9.782          	7.378
MS.183         	9.765          	7.418
MS.184         	9.745          	7.41
MS.185         	9.725          	7.376
MS.186         	9.705          	7.394
MS.187         	9.685          	7.36
MS.188         	9.667          	7.398
MS.189         	9.648          	7.382
MS.190         	9.627          	7.368
MS.191         	9.61           	7.424
MS.192         	9.59           	7.402
MS.193         	9.57           	7.396
MS.194         	9.552          	7.386
MS.195         	9.532          	7.394
MS.196         	9.512          	7.406
MS.197         	9.495          	7.412
MS.198         	9.475          	7.406
MS.199         	9.457          	7.398
MS.200         	9.438          	7.4
MS.201         	9.417          	7.41
MS.202         	9.4            	7.406
MS.203         	9.38           	7.4
MS.204         	9.363          	7.412
MS.205         	9.342          	7.392
MS.206         	9.325          	7.404
MS.207         	9.305          	7.392
MS.208         	9.287          	7.414
MS.209         	9.27           	7.293
MS.210         	9.25           	7.378
MS.211         	9.233          	7.398
MS.212         	9.212          	7.317
MS.213         	9.195          	7.309
MS.214         	9.177          	7.392
MS.215         	9.158          	7.313
MS.216         	9.14           	7.326
MS.217         	9.122          	7.293
MS.218         	9.102          	7.297
MS.219         	9.085          	7.307
MS.220         	9.068          	7.305
MS.221         	9.05           	7.293
MS.222         	9.03           	7.297
MS.223         	9.012          	7.297
MS.224         	8.995          	7.291
MS.225         	8.977          	7.299
MS.226         	8.96           	7.283
MS.227         	8.943          	6.977
MS.228         	8.922          	7.299
MS.229         	8.905          	7.297
MS.230         	8.887          	7.311
MS.231         	8.87           	7.287
MS.232         	8.852          	7.315
MS.233         	8.835          	6.925
MS.234         	8.818          	7.227
MS.235         	8.8            	7.199
MS.236         	8.783          	7.193
MS.237         	8.765          	6.878
MS.238         	8.747          	6.937
MS.239         	8.73           	6.983
MS.240         	8.712          	6.898
MS.241         	8.695          	6.953
MS.242         	8.677          	6.949
MS.243         	8.66           	7.217
MS.244         	8.642          	6.903
MS.245         	8.625          	7.221
MS.246         	8.608          	6.903
MS.247         	8.59           	6.886
MS.248         	8.573          	6.81
MS.249         	8.557          	6.798
MS.250         	8.54           	6.828
MS.251         	8.523          	6.907
MS.252         	8.505          	6.929
MS.253         	8.488          	6.911
MS.254         	8.472          	6.892
MS.255         	8.455          	6.749
MS.256         	8.438          	6.782
MS.257         	8.42           	6.737
MS.258         	8.405          	6.828
MS.259         	8.387          	6.753
MS.260         	8.37           	6.536
MS.261         	8.352          	6.596
MS.262         	8.337          	6.57
MS.263         	8.32           	6.544
MS.264         	8.302          	6.621
MS.265         	8.287          	6.713
MS.266         	8.27           	6.576
MS.267         	8.255          	6.447
MS.268         	8.238          	6.8
MS.269         	8.22           	6.574
MS.270         	8.205          	6.486
MS.271         	8.188          	6.22
MS.272         	8.172          	6.437
MS.273         	8.155          	6.353
MS.274         	8.14           	6.185
MS.275         	8.122          	6.109
MS.276         	8.108          	6.014
MS.277         	8.09           	5.94
MS.278         	8.075          	6.278
MS.279         	8.057          	6.151
MS.280         	8.042          	5.946
MS.281         	8.025          	6.004
MS.282         	8.01           	5.885
MS.283         	7.995          	5.986
MS.284         	7.977          	6.252
MS.285         	7.962          	6.014
MS.286         	7.945          	5.889
MS.287         	7.93           	5.893
MS.288         	7.915          	5.734
MS.289         	7.898          	5.833
MS.290         	7.882          	5.783
MS.291         	7.867          	5.825
MS.292         	7.852          	5.567
MS.293         	7.835          	5.569
MS.294         	7.82           	5.674
MS.295         	7.805          	5.354
MS.296         	7.79           	5.611
MS.297         	7.773          	5.692
MS.298         	7.757          	5.436
MS.299         	7.742          	5.585
MS.300         	7.727          	5.146
MS.301         	7.712          	5.156
MS.302         	7.695          	5.247
MS.303         	7.68           	4.866
MS.304         	7.665          	5.084
MS.305         	7.65           	4.629
MS.306         	7.635          	5.06
MS.307         	7.62           	4.582
MS.308         	7.605          	4.965
MS.309         	7.59           	4.757
MS.310         	7.572          	4.854
MS.311         	7.557          	4.975
MS.312         	7.543          	4.57
MS.313         	7.527          	4.731
MS.314         	7.512          	4.62
MS.315         	7.497          	4.574
MS.316         	7.482          	4.518
MS.317         	7.467          	4.56
MS.318         	7.452          	4.427
MS.319         	7.438          	4.032
MS.320         	7.425          	4.395
MS.321         	7.41           	4.351
MS.322         	7.395          	3.857
MS.323         	7.38           	4.063
MS.324         	7.365          	3.952
MS.325         	7.35           	4.018
MS.326         	7.335          	3.803
MS.327         	7.32           	3.885
MS.328         	7.305          	3.617
MS.329         	7.293          	3.777
MS.330         	7.277          	3.966
MS.331         	7.262          	3.738
MS.332         	7.247          	3.865
MS.333         	7.233          	3.619
MS.334         	7.22           	3.607
MS.335         	7.205          	3.611
MS.336         	7.19           	3.263
MS.337         	7.175          	3.178
MS.338         	7.162          	3.513
MS.339         	7.148          	3.609
MS.340         	7.132          	3.166
MS.341         	7.117          	3.047
MS.342         	7.105          	3.055
MS.343         	7.09           	2.898
MS.344         	7.075          	2.947
MS.345         	7.062          	2.983
MS.346         	7.047          	2.914
MS.347         	7.032          	2.975
MS.348         	7.02           	2.83
MS.349         	7.005          	2.943
MS.350         	6.992          	2.894
MS.351         	6.977          	2.91
MS.352         	6.962          	3.098
MS.353         	6.95           	2.49
MS.354         	6.935          	2.562
MS.355         	6.922          	2.332
MS.356         	6.907          	2.471
MS.357         	6.895          	2.522
MS.358         	6.88           	2.481
MS.359         	6.867          	2.208
MS.360         	6.852          	2.306
MS.361         	6.84           	2.312
MS.362         	6.825          	2.29
MS.363         	6.812          	2.405
MS.364         	6.797          	2.085
MS.365         	6.785          	2.121
MS.366         	6.773          	2.238
MS.367         	6.757          	2.31
MS.368         	6.745          	2.145
MS.369         	6.73           	2.022
MS.370         	6.717          	1.952
MS.371         	6.705          	1.903
MS.372         	6.69           	1.956
MS.373         	6.677          	1.948
MS.374         	6.665          	2.107
MS.375         	6.65           	1.779
MS.376         	6.637          	1.873
MS.377         	6.625          	1.895
MS.378         	6.61           	1.706
MS.379         	6.597          	1.74
MS.380         	6.585          	1.915
MS.381         	6.57           	1.694
MS.382         	6.557          	1.696
MS.383         	6.545          	1.764
MS.384         	6.532          	1.595
MS.385         	6.52           	1.68
MS.386         	6.505          	1.537
MS.387         	6.492          	1.495
MS.388         	6.48           	1.611
MS.389         	6.467          	1.583
MS.390         	6.455          	1.551
MS.391         	6.44           	1.362
MS.392         	6.427          	1.531
MS.393         	6.415          	1.418
MS.394         	6.402          	1.356
MS.395         	6.39           	1.301
MS.396         	6.378          	1.295
MS.397         	6.365          	1.472
MS.398         	6.352          	1.124
MS.399         	6.34           	1.188
MS.400         	6.325          	1.277
MS.401         	6.312          	1.174
MS.402         	6.3            	1.196
MS.403         	6.287          	1.213
MS.404         	6.275          	1.349
MS.405         	6.262          	1.041
MS.406         	6.25           	1.13
MS.407         	6.237          	1.136
MS.408         	6.225          	0.918
MS.409         	6.213          	0.973
MS.410         	6.2            	0.991
MS.411         	6.188          	0.812
MS.412         	6.175          	1.043
MS.413         	6.165          	0.884
MS.414         	6.152          	0.977
MS.415         	6.14           	0.862
MS.416         	6.128          	0.727
MS.417         	6.115          	0.838
MS.418         	6.102          	0.832
MS.419         	6.09           	0.773
MS.420         	6.077          	0.852
MS.421         	6.065          	0.602
MS.422         	6.055          	0.761
MS.423         	6.043          	0.727
MS.424         	6.03           	0.661
MS.425         	6.017          	0.707
MS.426         	6.005          	0.502
MS.427         	5.992          	0.596
MS.428         	5.983          	0.542
MS.429         	5.97           	0.419
MS.430         	5.957          	0.449
MS.431         	5.945          	0.397
MS.432         	5.935          	0.373
MS.433         	5.922          	0.381
MS.434         	5.91           	0.485
MS.435         	5.898          	0.504
MS.436         	5.887          	0.405
MS.437         	5.875          	0.453
MS.438         	5.862          	0.391
MS.439         	5.852          	0.292
MS.440         	5.84           	0.27
MS.441         	5.827          	0.306
MS.442         	5.817          	0.256
MS.443         	5.805          	0.336
MS.444         	5.793          	0.381
MS.445         	5.782          	0.226
MS.446         	5.77           	0.147
MS.447         	5.757          	0.163
MS.448         	5.747          	0.224
MS.449         	5.735          	0.24
MS.450         	5.725          	0.149
MS.451         	5.713          	0.216
MS.452         	5.702          	0.125
MS.453         	5.69           	0.264
MS.454         	5.677          	0.185
MS.455         	5.668          	0.107
MS.456         	5.655          	0.105
MS.457         	5.645          	0.123
MS.458         	5.632          	0.089
MS.459         	5.622          	0.131
MS.460         	5.61           	0.097
MS.461         	5.6            	0.089
MS.462         	5.588          	0.085
MS.463         	5.577          	0.095
MS.464         	5.565          	0.107
MS.465         	5.555          	0.107
MS.466         	5.545          	0.087
MS.467         	5.532          	0.091
MS.468         	5.523          	0.093
MS.469         	5.51           	0.079
MS.470         	5.5            	0.05
MS.471         	5.487          	0.103
MS.472         	5.477          	0.218
MS.473         	5.467          	0.056
MS.474         	5.455          	0.081
MS.475         	5.445          	0.091
MS.476         	5.435          	0.095
MS.477         	5.422          	0.056
MS.478         	5.412          	0.052
MS.479         	5.402          	0.105
MS.480         	5.39           	0.042
MS.481         	5.38           	0.048
MS.482         	5.37           	0.107
MS.483         	5.358          	0.05
MS.484         	5.347          	0.046
MS.485         	5.338          	0.054
MS.486         	5.327          	0.044
MS.487         	5.315          	0.048
MS.488         	5.305          	0.038
MS.489         	5.295          	0.000
MS.490         	5.285          	0.085
MS.491         	5.273          	0.077
MS.492         	5.262          	0.046
MS.493         	5.253          	0.087
MS.494         	5.242          	0.002
MS.495         	5.233          	0.044
MS.496         	5.22           	0.089
MS.497         	5.21           	0.000
MS.498         	5.2            	0.014
MS.499         	5.19           	-0.008
MS.500         	5.18           	0.044
MS.501         	5.17           	-0.004
