File:              	C:\Qtrac\Data\Daniel M Sørensen\MScan multicentre study\Data from centres\Odense\Processed data\TKC01118A.QZD
Name:              	DK.ODE.NC.8.2
Protocol:          	MSCAN-R2
Date:              	18/11/20
Start time:        	12:37:37
Age:               	46
Sex:               	M
Temperature:       	31.4
S/R sites:         	APB
NC/disease:        	NC
Operator:          	TK
Comments:
M-SCAN DATA (7.7-1m)
Scanpts: 285, 295, 669, 683
Stim. (mA)     	Amp. (mV)
MS.1           	29             	14.143
MS.2           	29             	14.111
MS.3           	29             	14.103
MS.4           	29             	14.059
MS.5           	29             	14.113
MS.6           	29             	14.131
MS.7           	29             	14.135
MS.8           	29             	14.101
MS.9           	29             	14.19
MS.10          	29             	14.103
MS.11          	29             	14.083
MS.12          	29             	14.113
MS.13          	29             	14.111
MS.14          	29             	14.073
MS.15          	29             	14.115
MS.16          	29             	14.145
MS.17          	29             	14.145
MS.18          	29             	14.186
MS.19          	29             	14.135
MS.20          	29             	14.16
MS.21          	29             	14.184
MS.22          	29             	14.154
MS.23          	28.885         	14.212
MS.24          	28.827         	14.19
MS.25          	28.77          	14.186
MS.26          	28.712         	14.174
MS.27          	28.655         	14.182
MS.28          	28.597         	14.226
MS.29          	28.54          	14.188
MS.30          	28.483         	14.151
MS.31          	28.425         	14.194
MS.32          	28.37          	14.204
MS.33          	28.312         	14.204
MS.34          	28.255         	14.174
MS.35          	28.2           	14.27
MS.36          	28.142         	14.18
MS.37          	28.087         	14.168
MS.38          	28.03          	14.156
MS.39          	27.975         	14.208
MS.40          	27.917         	14.151
MS.41          	27.862         	14.216
MS.42          	27.807         	14.208
MS.43          	27.752         	14.222
MS.44          	27.695         	14.216
MS.45          	27.64          	14.21
MS.46          	27.585         	14.228
MS.47          	27.53          	14.174
MS.48          	27.475         	14.18
MS.49          	27.42          	14.182
MS.50          	27.365         	14.248
MS.51          	27.31          	14.264
MS.52          	27.257         	14.184
MS.53          	27.202         	14.22
MS.54          	27.147         	14.2
MS.55          	27.092         	14.147
MS.56          	27.04          	14.196
MS.57          	26.985         	14.18
MS.58          	26.932         	14.154
MS.59          	26.877         	14.204
MS.60          	26.825         	14.18
MS.61          	26.77          	14.226
MS.62          	26.717         	14.194
MS.63          	26.662         	14.125
MS.64          	26.61          	14.139
MS.65          	26.557         	14.188
MS.66          	26.505         	14.196
MS.67          	26.45          	14.129
MS.68          	26.397         	14.154
MS.69          	26.345         	14.151
MS.70          	26.292         	14.236
MS.71          	26.24          	14.184
MS.72          	26.188         	14.21
MS.73          	26.135         	14.164
MS.74          	26.082         	14.135
MS.75          	26.03          	14.164
MS.76          	25.98          	14.186
MS.77          	25.927         	14.194
MS.78          	25.875         	14.2
MS.79          	25.823         	14.198
MS.80          	25.772         	14.178
MS.81          	25.72          	14.158
MS.82          	25.67          	14.188
MS.83          	25.618         	14.168
MS.84          	25.567         	14.258
MS.85          	25.515         	14.192
MS.86          	25.465         	14.182
MS.87          	25.415         	14.172
MS.88          	25.362         	14.208
MS.89          	25.312         	14.186
MS.90          	25.262         	14.192
MS.91          	25.212         	14.202
MS.92          	25.16          	14.23
MS.93          	25.11          	14.258
MS.94          	25.06          	14.168
MS.95          	25.01          	14.196
MS.96          	24.96          	14.172
MS.97          	24.91          	14.168
MS.98          	24.86          	14.151
MS.99          	24.81          	14.145
MS.100         	24.762         	14.178
MS.101         	24.712         	14.214
MS.102         	24.663         	14.162
MS.103         	24.612         	14.166
MS.104         	24.565         	14.188
MS.105         	24.515         	14.22
MS.106         	24.465         	14.218
MS.107         	24.417         	14.196
MS.108         	24.368         	14.162
MS.109         	24.32          	14.22
MS.110         	24.27          	14.151
MS.111         	24.222         	14.202
MS.112         	24.175         	14.26
MS.113         	24.125         	14.254
MS.114         	24.077         	14.206
MS.115         	24.03          	14.194
MS.116         	23.983         	14.234
MS.117         	23.935         	14.164
MS.118         	23.885         	14.198
MS.119         	23.837         	14.143
MS.120         	23.79          	14.097
MS.121         	23.743         	14.186
MS.122         	23.695         	14.232
MS.123         	23.647         	14.234
MS.124         	23.6           	14.232
MS.125         	23.555         	14.2
MS.126         	23.507         	14.212
MS.127         	23.46          	14.222
MS.128         	23.413         	14.242
MS.129         	23.365         	14.216
MS.130         	23.32          	14.242
MS.131         	23.272         	14.226
MS.132         	23.227         	14.252
MS.133         	23.18          	14.252
MS.134         	23.132         	14.244
MS.135         	23.087         	14.268
MS.136         	23.042         	14.305
MS.137         	22.995         	14.27
MS.138         	22.95          	14.224
MS.139         	22.903         	14.323
MS.140         	22.858         	14.2
MS.141         	22.812         	14.254
MS.142         	22.767         	14.242
MS.143         	22.72          	14.266
MS.144         	22.675         	14.242
MS.145         	22.63          	14.262
MS.146         	22.585         	14.248
MS.147         	22.54          	14.21
MS.148         	22.495         	14.248
MS.149         	22.45          	14.278
MS.150         	22.405         	14.226
MS.151         	22.36          	14.294
MS.152         	22.315         	14.232
MS.153         	22.27          	14.22
MS.154         	22.227         	14.28
MS.155         	22.182         	14.212
MS.156         	22.137         	14.254
MS.157         	22.092         	14.284
MS.158         	22.05          	14.224
MS.159         	22.005         	14.202
MS.160         	21.962         	14.16
MS.161         	21.917         	14.214
MS.162         	21.875         	14.244
MS.163         	21.83          	14.299
MS.164         	21.788         	14.254
MS.165         	21.743         	14.27
MS.166         	21.7           	14.236
MS.167         	21.655         	14.252
MS.168         	21.612         	14.24
MS.169         	21.57          	14.284
MS.170         	21.528         	14.194
MS.171         	21.483         	14.234
MS.172         	21.44          	14.242
MS.173         	21.397         	14.224
MS.174         	21.355         	14.272
MS.175         	21.312         	14.238
MS.176         	21.27          	14.27
MS.177         	21.227         	14.226
MS.178         	21.185         	14.172
MS.179         	21.142         	14.224
MS.180         	21.1           	14.246
MS.181         	21.057         	14.25
MS.182         	21.015         	14.238
MS.183         	20.975         	14.212
MS.184         	20.932         	14.24
MS.185         	20.89          	14.27
MS.186         	20.847         	14.264
MS.187         	20.807         	14.272
MS.188         	20.765         	14.258
MS.189         	20.725         	14.236
MS.190         	20.682         	14.262
MS.191         	20.642         	14.288
MS.192         	20.6           	14.288
MS.193         	20.56          	14.246
MS.194         	20.517         	14.262
MS.195         	20.477         	14.246
MS.196         	20.435         	14.236
MS.197         	20.395         	14.206
MS.198         	20.355         	14.27
MS.199         	20.312         	14.218
MS.200         	20.272         	14.192
MS.201         	20.233         	14.184
MS.202         	20.192         	14.224
MS.203         	20.153         	14.258
MS.204         	20.112         	14.228
MS.205         	20.073         	14.202
MS.206         	20.03          	14.21
MS.207         	19.99          	14.236
MS.208         	19.952         	14.194
MS.209         	19.913         	14.272
MS.210         	19.872         	14.242
MS.211         	19.833         	14.222
MS.212         	19.792         	14.252
MS.213         	19.752         	14.313
MS.214         	19.712         	14.244
MS.215         	19.675         	14.248
MS.216         	19.635         	14.2
MS.217         	19.595         	14.292
MS.218         	19.555         	14.266
MS.219         	19.517         	14.21
MS.220         	19.477         	14.238
MS.221         	19.44          	14.192
MS.222         	19.4           	14.262
MS.223         	19.362         	14.21
MS.224         	19.323         	14.264
MS.225         	19.285         	14.172
MS.226         	19.245         	14.22
MS.227         	19.208         	14.252
MS.228         	19.17          	14.2
MS.229         	19.13          	14.186
MS.230         	19.092         	14.218
MS.231         	19.055         	14.204
MS.232         	19.015         	14.198
MS.233         	18.977         	14.176
MS.234         	18.94          	14.192
MS.235         	18.903         	14.182
MS.236         	18.865         	14.166
MS.237         	18.827         	14.248
MS.238         	18.79          	14.2
MS.239         	18.753         	14.208
MS.240         	18.715         	14.206
MS.241         	18.677         	14.123
MS.242         	18.64          	14.188
MS.243         	18.602         	14.186
MS.244         	18.565         	14.158
MS.245         	18.528         	14.154
MS.246         	18.49          	14.127
MS.247         	18.455         	14.184
MS.248         	18.417         	14.232
MS.249         	18.38          	14.236
MS.250         	18.345         	14.141
MS.251         	18.307         	14.081
MS.252         	18.27          	14.131
MS.253         	18.235         	14.172
MS.254         	18.198         	14.228
MS.255         	18.163         	14.182
MS.256         	18.125         	14.172
MS.257         	18.09          	14.156
MS.258         	18.052         	14.145
MS.259         	18.017         	14.172
MS.260         	17.98          	14.127
MS.261         	17.945         	14.121
MS.262         	17.91          	14.154
MS.263         	17.872         	14.158
MS.264         	17.837         	14.184
MS.265         	17.802         	14.089
MS.266         	17.765         	14.141
MS.267         	17.73          	14.156
MS.268         	17.695         	14.149
MS.269         	17.66          	14.081
MS.270         	17.625         	14.097
MS.271         	17.59          	14.184
MS.272         	17.555         	14.109
MS.273         	17.52          	14.099
MS.274         	17.485         	14.045
MS.275         	17.45          	14.115
MS.276         	17.415         	14.101
MS.277         	17.38          	14.172
MS.278         	17.345         	14.164
MS.279         	17.31          	14.089
MS.280         	17.275         	14.089
MS.281         	17.24          	14.079
MS.282         	17.208         	14.085
MS.283         	17.172         	14.127
MS.284         	17.137         	14.075
MS.285         	17.102         	14.087
MS.286         	17.07          	14.089
MS.287         	17.035         	14.095
MS.288         	17.003         	14.089
MS.289         	16.967         	14.125
MS.290         	16.932         	14.135
MS.291         	16.9           	14.075
MS.292         	16.865         	14.093
MS.293         	16.833         	14.059
MS.294         	16.797         	14.095
MS.295         	16.765         	14.081
MS.296         	16.733         	14.085
MS.297         	16.698         	14.111
MS.298         	16.665         	14.049
MS.299         	16.632         	14.137
MS.300         	16.597         	14.073
MS.301         	16.565         	14.097
MS.302         	16.532         	14.091
MS.303         	16.5           	14.139
MS.304         	16.465         	14.099
MS.305         	16.432         	14.073
MS.306         	16.4           	14.095
MS.307         	16.368         	14.063
MS.308         	16.335         	14.049
MS.309         	16.302         	14.075
MS.310         	16.27          	14.129
MS.311         	16.237         	14.099
MS.312         	16.205         	14.061
MS.313         	16.172         	14.077
MS.314         	16.14          	14.051
MS.315         	16.108         	14.18
MS.316         	16.075         	14.083
MS.317         	16.042         	14.127
MS.318         	16.012         	14.075
MS.319         	15.98          	14.049
MS.320         	15.947         	14.049
MS.321         	15.915         	14.085
MS.322         	15.882         	14.085
MS.323         	15.852         	14.077
MS.324         	15.82          	14.115
MS.325         	15.787         	14.125
MS.326         	15.757         	14.103
MS.327         	15.725         	14.087
MS.328         	15.695         	14.103
MS.329         	15.662         	14.057
MS.330         	15.632         	14.091
MS.331         	15.6           	14.057
MS.332         	15.57          	14.061
MS.333         	15.537         	14.107
MS.334         	15.507         	14.059
MS.335         	15.475         	14.095
MS.336         	15.445         	14.077
MS.337         	15.415         	14.055
MS.338         	15.382         	14.089
MS.339         	15.352         	14.043
MS.340         	15.322         	14.099
MS.341         	15.292         	13.998
MS.342         	15.26          	13.982
MS.343         	15.23          	14.091
MS.344         	15.2           	14.065
MS.345         	15.17          	14.049
MS.346         	15.14          	14.103
MS.347         	15.11          	14.023
MS.348         	15.08          	14.089
MS.349         	15.047         	14.049
MS.350         	15.017         	14.047
MS.351         	14.987         	14.083
MS.352         	14.957         	14.031
MS.353         	14.93          	14.002
MS.354         	14.9           	14.01
MS.355         	14.87          	14.051
MS.356         	14.84          	14.079
MS.357         	14.81          	13.972
MS.358         	14.78          	14.067
MS.359         	14.75          	14.004
MS.360         	14.722         	14.059
MS.361         	14.693         	14.097
MS.362         	14.662         	14.043
MS.363         	14.632         	14.008
MS.364         	14.605         	14.031
MS.365         	14.575         	14.059
MS.366         	14.545         	14.037
MS.367         	14.517         	14.015
MS.368         	14.487         	14.073
MS.369         	14.457         	14.015
MS.370         	14.43          	14.013
MS.371         	14.4           	13.978
MS.372         	14.372         	14.006
MS.373         	14.342         	14.037
MS.374         	14.315         	14.065
MS.375         	14.285         	14.047
MS.376         	14.257         	14.055
MS.377         	14.23          	13.968
MS.378         	14.2           	13.998
MS.379         	14.172         	14.041
MS.380         	14.145         	13.994
MS.381         	14.115         	13.988
MS.382         	14.087         	13.98
MS.383         	14.06          	13.962
MS.384         	14.032         	14.047
MS.385         	14.002         	13.918
MS.386         	13.975         	13.966
MS.387         	13.947         	13.986
MS.388         	13.92          	13.984
MS.389         	13.892         	13.988
MS.390         	13.865         	13.97
MS.391         	13.837         	13.769
MS.392         	13.807         	13.791
MS.393         	13.78          	13.886
MS.394         	13.752         	13.799
MS.395         	13.725         	13.785
MS.396         	13.697         	13.777
MS.397         	13.67          	13.807
MS.398         	13.645         	13.737
MS.399         	13.617         	13.771
MS.400         	13.59          	13.716
MS.401         	13.562         	13.771
MS.402         	13.535         	13.783
MS.403         	13.507         	13.731
MS.404         	13.48          	13.743
MS.405         	13.455         	13.7
MS.406         	13.427         	13.678
MS.407         	13.4           	13.61
MS.408         	13.372         	13.598
MS.409         	13.347         	13.63
MS.410         	13.32          	13.612
MS.411         	13.292         	13.493
MS.412         	13.267         	13.588
MS.413         	13.24          	13.62
MS.414         	13.215         	13.551
MS.415         	13.188         	13.642
MS.416         	13.162         	13.624
MS.417         	13.135         	13.575
MS.418         	13.11          	13.332
MS.419         	13.082         	13.235
MS.420         	13.057         	13.418
MS.421         	13.03          	13.318
MS.422         	13.005         	13.048
MS.423         	12.977         	13.269
MS.424         	12.952         	13.293
MS.425         	12.927         	12.917
MS.426         	12.9           	12.79
MS.427         	12.875         	13.148
MS.428         	12.85          	12.738
MS.429         	12.822         	13.068
MS.430         	12.797         	13.005
MS.431         	12.773         	12.127
MS.432         	12.747         	12.641
MS.433         	12.722         	12.168
MS.434         	12.695         	12.762
MS.435         	12.67          	12.429
MS.436         	12.645         	12.305
MS.437         	12.62          	12.508
MS.438         	12.595         	12.222
MS.439         	12.57          	11.817
MS.440         	12.545         	12.006
MS.441         	12.52          	11.924
MS.442         	12.495         	12.363
MS.443         	12.47          	11.618
MS.444         	12.445         	11.785
MS.445         	12.42          	11.791
MS.446         	12.395         	11.563
MS.447         	12.37          	11.334
MS.448         	12.345         	11.787
MS.449         	12.32          	11.491
MS.450         	12.295         	11.384
MS.451         	12.273         	10.909
MS.452         	12.247         	10.907
MS.453         	12.222         	10.742
MS.454         	12.197         	11.144
MS.455         	12.175         	10.782
MS.456         	12.15          	10.192
MS.457         	12.125         	10.188
MS.458         	12.1           	10.153
MS.459         	12.077         	9.547
MS.460         	12.052         	9.69
MS.461         	12.028         	9.158
MS.462         	12.005         	9.702
MS.463         	11.98          	9.589
MS.464         	11.957         	9.847
MS.465         	11.932         	9.368
MS.466         	11.91          	9.857
MS.467         	11.885         	9.245
MS.468         	11.863         	9.259
MS.469         	11.837         	9.177
MS.470         	11.815         	8.754
MS.471         	11.79          	8.725
MS.472         	11.767         	7.801
MS.473         	11.742         	7.946
MS.474         	11.72          	8.83
MS.475         	11.697         	8.449
MS.476         	11.672         	8.427
MS.477         	11.65          	8.024
MS.478         	11.627         	8.113
MS.479         	11.602         	7.716
MS.480         	11.58          	8.095
MS.481         	11.557         	7.732
MS.482         	11.535         	7.74
MS.483         	11.51          	7.593
MS.484         	11.488         	7.253
MS.485         	11.465         	7.305
MS.486         	11.443         	7.269
MS.487         	11.42          	7.279
MS.488         	11.398         	6.854
MS.489         	11.372         	6.864
