File:              	C:\Qtrac\Data\Daniel M Sørensen\MScan multicentre study\Data from centres\Antalya\Processed data\TR.NC.ANT.9.1- NKC01201A.QZD
Name:              	TR.NC.ANT.9.1
Protocol:          	MSCAN-R2
Date:              	1/12/20
Start time:        	18:15:21
Age:               	49
Sex:               	f
Temperature:       	32.2
S/R sites:         	APB
NC/disease:        	NC
Operator:          	ab
Comments:
M-SCAN DATA (8.5-1m)
Scanpts: 78, 87, 774, 793
Stim. (mA)     	Amp. (mV)
MS.1           	28.5           	12.879
MS.2           	28.5           	12.868
MS.3           	28.5           	12.885
MS.4           	28.5           	12.866
MS.5           	28.5           	12.881
MS.6           	28.5           	12.887
MS.7           	28.5           	12.838
MS.8           	28.5           	12.84
MS.9           	28.5           	12.868
MS.10          	28.5           	12.812
MS.11          	28.5           	12.905
MS.12          	28.5           	12.824
MS.13          	28.5           	12.891
MS.14          	28.5           	12.915
MS.15          	28.5           	12.943
MS.16          	28.5           	12.967
MS.17          	28.5           	12.945
MS.18          	28.5           	12.965
MS.19          	28.5           	12.967
MS.20          	28.5           	12.957
MS.21          	28.5           	12.981
MS.22          	28.5           	12.959
MS.23          	28.385         	12.983
MS.24          	28.33          	12.999
MS.25          	28.272         	12.945
MS.26          	28.217         	12.957
MS.27          	28.16          	12.979
MS.28          	28.102         	12.955
MS.29          	28.047         	13.013
MS.30          	27.993         	12.947
MS.31          	27.935         	12.915
MS.32          	27.88          	12.993
MS.33          	27.825         	13.02
MS.34          	27.767         	12.927
MS.35          	27.712         	12.959
MS.36          	27.657         	13.005
MS.37          	27.602         	13.026
MS.38          	27.547         	13.032
MS.39          	27.493         	13.056
MS.40          	27.438         	13.082
MS.41          	27.382         	13.09
MS.42          	27.327         	13.106
MS.43          	27.272         	13.106
MS.44          	27.217         	13.159
MS.45          	27.165         	13.167
MS.46          	27.11          	13.154
MS.47          	27.055         	13.219
MS.48          	27.002         	13.283
MS.49          	26.948         	13.33
MS.50          	26.895         	13.374
MS.51          	26.84          	13.382
MS.52          	26.787         	13.406
MS.53          	26.733         	13.445
MS.54          	26.68          	13.457
MS.55          	26.627         	13.485
MS.56          	26.573         	13.457
MS.57          	26.52          	13.475
MS.58          	26.467         	13.436
MS.59          	26.415         	13.412
MS.60          	26.362         	13.451
MS.61          	26.307         	13.422
MS.62          	26.255         	13.34
MS.63          	26.202         	13.382
MS.64          	26.153         	13.384
MS.65          	26.1           	13.418
MS.66          	26.047         	13.422
MS.67          	25.995         	13.41
MS.68          	25.942         	13.461
MS.69          	25.89          	13.499
MS.70          	25.84          	13.511
MS.71          	25.787         	13.519
MS.72          	25.735         	13.535
MS.73          	25.685         	13.535
MS.74          	25.632         	13.547
MS.75          	25.582         	13.541
MS.76          	25.53          	13.539
MS.77          	25.48          	13.565
MS.78          	25.43          	13.557
MS.79          	25.377         	13.555
MS.80          	25.327         	13.563
MS.81          	25.278         	13.545
MS.82          	25.227         	13.575
MS.83          	25.175         	13.565
MS.84          	25.125         	13.581
MS.85          	25.075         	13.527
MS.86          	25.025         	13.563
MS.87          	24.975         	13.549
MS.88          	24.925         	13.541
MS.89          	24.875         	13.491
MS.90          	24.825         	13.513
MS.91          	24.778         	13.545
MS.92          	24.727         	13.396
MS.93          	24.677         	13.586
MS.94          	24.627         	13.586
MS.95          	24.58          	13.447
MS.96          	24.53          	13.438
MS.97          	24.48          	13.579
MS.98          	24.432         	13.559
MS.99          	24.382         	13.571
MS.100         	24.335         	13.567
MS.101         	24.285         	13.422
MS.102         	24.237         	13.592
MS.103         	24.19          	13.567
MS.104         	24.14          	13.416
MS.105         	24.092         	13.579
MS.106         	24.045         	13.432
MS.107         	23.997         	13.424
MS.108         	23.948         	13.432
MS.109         	23.9           	13.414
MS.110         	23.852         	13.438
MS.111         	23.805         	13.443
MS.112         	23.757         	13.432
MS.113         	23.71          	13.445
MS.114         	23.663         	13.553
MS.115         	23.615         	13.451
MS.116         	23.567         	13.477
MS.117         	23.52          	13.453
MS.118         	23.475         	13.463
MS.119         	23.427         	13.481
MS.120         	23.38          	13.148
MS.121         	23.332         	13.469
MS.122         	23.288         	13.235
MS.123         	23.24          	13.402
MS.124         	23.195         	13.493
MS.125         	23.147         	13.344
MS.126         	23.102         	13.336
MS.127         	23.055         	12.953
MS.128         	23.01          	13.338
MS.129         	22.962         	13.358
MS.130         	22.917         	13.13
MS.131         	22.872         	12.965
MS.132         	22.825         	13.171
MS.133         	22.78          	13.092
MS.134         	22.735         	12.947
MS.135         	22.69          	13.096
MS.136         	22.645         	12.673
MS.137         	22.6           	12.945
MS.138         	22.552         	13.088
MS.139         	22.507         	13.128
MS.140         	22.462         	12.79
MS.141         	22.42          	12.919
MS.142         	22.375         	12.373
MS.143         	22.33          	12.56
MS.144         	22.285         	12.671
MS.145         	22.24          	12.736
MS.146         	22.195         	12.599
MS.147         	22.153         	12.556
MS.148         	22.108         	12.629
MS.149         	22.062         	12.891
MS.150         	22.02          	12.611
MS.151         	21.975         	12.405
MS.152         	21.93          	12.621
MS.153         	21.887         	12.607
MS.154         	21.842         	12.246
MS.155         	21.8           	12.333
MS.156         	21.755         	12.526
MS.157         	21.712         	12.454
MS.158         	21.67          	11.954
MS.159         	21.625         	12.099
MS.160         	21.583         	12.478
MS.161         	21.54          	11.356
MS.162         	21.497         	11.7
MS.163         	21.455         	12
MS.164         	21.41          	12.103
MS.165         	21.368         	11.43
MS.166         	21.325         	11.674
MS.167         	21.282         	11.831
MS.168         	21.24          	11.751
MS.169         	21.198         	11.275
MS.170         	21.155         	11.416
MS.171         	21.112         	11.684
MS.172         	21.07          	12.208
MS.173         	21.03          	11.156
MS.174         	20.987         	10.955
MS.175         	20.945         	11.263
MS.176         	20.903         	11.555
MS.177         	20.862         	10.943
MS.178         	20.82          	10.623
MS.179         	20.778         	11.084
MS.180         	20.737         	10.224
MS.181         	20.695         	10.294
MS.182         	20.655         	10.856
MS.183         	20.612         	10.48
MS.184         	20.573         	10.208
MS.185         	20.53          	10.182
MS.186         	20.49          	10
MS.187         	20.448         	9.807
MS.188         	20.407         	9.606
MS.189         	20.368         	9.422
MS.190         	20.325         	10.594
MS.191         	20.285         	10.693
MS.192         	20.245         	9.978
MS.193         	20.205         	10.216
MS.194         	20.165         	9.672
MS.195         	20.122         	10.2
MS.196         	20.083         	9.775
MS.197         	20.042         	9.738
MS.198         	20.002         	9.519
MS.199         	19.962         	9.473
MS.200         	19.922         	9.602
MS.201         	19.882         	9.438
MS.202         	19.845         	9.122
MS.203         	19.805         	9.336
MS.204         	19.765         	8.752
MS.205         	19.725         	9.064
MS.206         	19.685         	8.959
MS.207         	19.647         	8.77
MS.208         	19.608         	8.852
MS.209         	19.567         	8.868
MS.210         	19.53          	8.526
MS.211         	19.49          	8.86
MS.212         	19.45          	8.729
MS.213         	19.413         	8.331
MS.214         	19.372         	7.986
MS.215         	19.335         	7.958
MS.216         	19.295         	8.472
MS.217         	19.257         	8.256
MS.218         	19.22          	8.457
MS.219         	19.18          	8.022
MS.220         	19.142         	7.773
MS.221         	19.105         	7.553
MS.222         	19.065         	7.571
MS.223         	19.028         	7.362
MS.224         	18.99          	7.448
MS.225         	18.952         	8.202
MS.226         	18.915         	6.796
MS.227         	18.875         	7.243
MS.228         	18.837         	6.84
MS.229         	18.8           	6.927
MS.230         	18.762         	7.346
MS.231         	18.725         	7.195
MS.232         	18.688         	7.035
MS.233         	18.65          	7.07
MS.234         	18.612         	6.693
MS.235         	18.577         	6.359
MS.236         	18.54          	6.772
MS.237         	18.503         	6.606
MS.238         	18.465         	6.488
MS.239         	18.427         	6.52
MS.240         	18.392         	6.657
MS.241         	18.355         	6.292
MS.242         	18.317         	6.333
MS.243         	18.282         	5.887
MS.244         	18.245         	5.871
MS.245         	18.208         	6.016
MS.246         	18.172         	5.96
MS.247         	18.135         	5.414
MS.248         	18.1           	5.742
MS.249         	18.062         	5.521
MS.250         	18.028         	5.211
MS.251         	17.993         	5.37
MS.252         	17.955         	4.856
MS.253         	17.92          	4.635
MS.254         	17.885         	5.025
MS.255         	17.847         	5.126
MS.256         	17.812         	5.027
MS.257         	17.778         	4.149
MS.258         	17.743         	4.753
MS.259         	17.705         	4.578
MS.260         	17.67          	3.883
MS.261         	17.635         	4.645
MS.262         	17.6           	4.848
MS.263         	17.565         	4.447
MS.264         	17.53          	4.486
MS.265         	17.495         	4.808
MS.266         	17.46          	4.343
MS.267         	17.425         	4.059
MS.268         	17.39          	3.662
MS.269         	17.355         	4.083
MS.270         	17.32          	3.638
MS.271         	17.285         	3.521
MS.272         	17.253         	3.843
MS.273         	17.217         	3.97
MS.274         	17.182         	3.535
MS.275         	17.147         	3.311
MS.276         	17.115         	3.162
MS.277         	17.08          	3.11
MS.278         	17.045         	3.1
MS.279         	17.012         	2.85
MS.280         	16.977         	2.669
MS.281         	16.945         	3.144
MS.282         	16.91          	2.993
MS.283         	16.875         	2.993
MS.284         	16.842         	2.84
MS.285         	16.81          	3.021
MS.286         	16.775         	3.275
MS.287         	16.743         	3.094
MS.288         	16.708         	2.701
MS.289         	16.675         	2.816
MS.290         	16.642         	2.735
MS.291         	16.608         	2.667
MS.292         	16.575         	3.062
MS.293         	16.542         	2.753
MS.294         	16.51          	2.739
MS.295         	16.475         	2.608
MS.296         	16.442         	2.709
MS.297         	16.41          	2.612
MS.298         	16.378         	2.429
MS.299         	16.345         	2.437
MS.300         	16.312         	2.342
MS.301         	16.28          	2.189
MS.302         	16.247         	2.024
MS.303         	16.215         	2.27
MS.304         	16.182         	2.119
MS.305         	16.15          	2.095
MS.306         	16.118         	1.857
MS.307         	16.085         	2.085
MS.308         	16.052         	1.938
MS.309         	16.02          	1.831
MS.310         	15.99          	1.843
MS.311         	15.957         	1.774
MS.312         	15.925         	1.623
MS.313         	15.892         	1.988
MS.314         	15.862         	1.708
MS.315         	15.83          	1.432
MS.316         	15.797         	1.492
MS.317         	15.767         	1.569
MS.318         	15.735         	1.515
MS.319         	15.705         	1.635
MS.320         	15.672         	1.742
MS.321         	15.64          	1.458
MS.322         	15.61          	1.287
MS.323         	15.577         	1.283
MS.324         	15.547         	1.476
MS.325         	15.517         	1.44
MS.326         	15.485         	1.396
MS.327         	15.455         	1.349
MS.328         	15.422         	1.283
MS.329         	15.392         	1.309
MS.330         	15.362         	1.241
MS.331         	15.332         	1.211
MS.332         	15.3           	1.2
MS.333         	15.27          	1.188
MS.334         	15.24          	1.354
MS.335         	15.21          	1.156
MS.336         	15.18          	1.1
MS.337         	15.148         	1.086
MS.338         	15.117         	0.989
MS.339         	15.087         	0.88
MS.340         	15.057         	0.848
MS.341         	15.027         	0.848
MS.342         	14.997         	0.842
MS.343         	14.967         	0.796
MS.344         	14.938         	0.848
MS.345         	14.907         	0.767
MS.346         	14.877         	0.812
MS.347         	14.847         	0.788
MS.348         	14.82          	0.638
MS.349         	14.79          	0.641
MS.350         	14.76          	0.765
MS.351         	14.73          	0.566
MS.352         	14.7           	0.957
MS.353         	14.672         	0.741
MS.354         	14.642         	0.606
MS.355         	14.612         	0.57
MS.356         	14.582         	0.767
MS.357         	14.555         	0.542
MS.358         	14.525         	0.735
MS.359         	14.497         	0.57
MS.360         	14.467         	0.691
MS.361         	14.438         	0.506
MS.362         	14.41          	0.508
MS.363         	14.38          	0.55
MS.364         	14.352         	0.469
MS.365         	14.322         	0.556
MS.366         	14.295         	0.602
MS.367         	14.267         	0.455
MS.368         	14.237         	0.357
MS.369         	14.21          	0.363
MS.370         	14.18          	0.344
MS.371         	14.153         	0.344
MS.372         	14.125         	0.363
MS.373         	14.095         	0.363
MS.374         	14.068         	0.342
MS.375         	14.04          	0.357
MS.376         	14.012         	0.363
MS.377         	13.985         	0.363
MS.378         	13.955         	0.365
MS.379         	13.927         	0.348
MS.380         	13.9           	0.34
MS.381         	13.872         	0.348
MS.382         	13.845         	0.361
MS.383         	13.818         	0.363
MS.384         	13.79          	0.359
MS.385         	13.762         	0.357
MS.386         	13.735         	0.346
MS.387         	13.707         	0.352
MS.388         	13.68          	0.348
MS.389         	13.653         	0.346
MS.390         	13.625         	0.342
MS.391         	13.597         	0.35
MS.392         	13.57          	0.359
MS.393         	13.542         	0.344
MS.394         	13.517         	0.363
MS.395         	13.49          	0.359
MS.396         	13.462         	0.352
MS.397         	13.435         	0.354
MS.398         	13.407         	0.344
MS.399         	13.382         	0.357
MS.400         	13.355         	0.357
MS.401         	13.327         	0.284
MS.402         	13.302         	0.348
MS.403         	13.275         	0.35
MS.404         	13.247         	0.278
MS.405         	13.222         	0.278
MS.406         	13.195         	0.35
MS.407         	13.17          	0.352
MS.408         	13.142         	0.357
MS.409         	13.117         	0.354
MS.410         	13.09          	0.354
MS.411         	13.065         	0.282
MS.412         	13.037         	0.359
MS.413         	13.012         	0.288
MS.414         	12.987         	0.282
MS.415         	12.96          	0.28
MS.416         	12.935         	0.284
MS.417         	12.907         	0.352
MS.418         	12.882         	0.284
MS.419         	12.858         	0.363
MS.420         	12.832         	0.284
MS.421         	12.805         	0.354
MS.422         	12.78          	0.28
MS.423         	12.755         	0.284
MS.424         	12.73          	0.292
MS.425         	12.705         	0.292
MS.426         	12.677         	0.288
MS.427         	12.653         	0.286
MS.428         	12.627         	0.292
MS.429         	12.602         	0.284
MS.430         	12.577         	0.292
MS.431         	12.552         	0.286
MS.432         	12.528         	0.288
MS.433         	12.502         	0.292
MS.434         	12.477         	0.288
MS.435         	12.452         	0.288
MS.436         	12.427         	0.298
MS.437         	12.403         	0.292
MS.438         	12.377         	0.292
MS.439         	12.352         	0.3
MS.440         	12.327         	0.298
MS.441         	12.302         	0.294
MS.442         	12.28          	0.29
MS.443         	12.255         	0.292
MS.444         	12.23          	0.296
MS.445         	12.205         	0.292
MS.446         	12.182         	0.302
MS.447         	12.157         	0.3
MS.448         	12.132         	0.304
MS.449         	12.108         	0.292
MS.450         	12.085         	0.29
MS.451         	12.06          	0.302
MS.452         	12.035         	0.3
MS.453         	12.012         	0.306
MS.454         	11.988         	0.298
MS.455         	11.965         	0.296
MS.456         	11.94          	0.3
MS.457         	11.915         	0.304
MS.458         	11.892         	0.304
MS.459         	11.867         	0.302
MS.460         	11.845         	0.308
MS.461         	11.822         	0.31
MS.462         	11.797         	0.304
MS.463         	11.775         	0.31
MS.464         	11.75          	0.312
MS.465         	11.727         	0.31
MS.466         	11.702         	0.308
MS.467         	11.68          	0.306
MS.468         	11.657         	0.312
MS.469         	11.632         	0.288
MS.470         	11.61          	0.312
MS.471         	11.587         	0.292
MS.472         	11.565         	0.294
MS.473         	11.54          	0.298
MS.474         	11.517         	0.292
MS.475         	11.495         	0.29
MS.476         	11.472         	0.294
MS.477         	11.45          	0.292
MS.478         	11.425         	0.294
MS.479         	11.403         	0.308
MS.480         	11.38          	0.298
MS.481         	11.358         	0.288
MS.482         	11.335         	0.298
MS.483         	11.312         	0.294
MS.484         	11.29          	0.294
MS.485         	11.267         	0.296
MS.486         	11.245         	0.294
MS.487         	11.222         	0.3
MS.488         	11.2           	0.294
MS.489         	11.177         	0.292
MS.490         	11.155         	0.314
MS.491         	11.132         	0.292
MS.492         	11.11          	0.298
MS.493         	11.087         	0.288
MS.494         	11.068         	0.294
MS.495         	11.045         	0.304
MS.496         	11.023         	0.3
