File:              	C:\Qtrac\Data\Daniel M Sørensen\MScan multicentre study\Data from centres\Antalya\Processed data\TR.NC.ANT.7.2- NCC01108A.QZD
Name:              	TR.NC.ANT.7.2
Protocol:          	MSCAN-R2
Date:              	8/11/20
Start time:        	14:04:00
Age:               	28
Sex:               	f
Temperature:       	32.4
S/R sites:         	APB
NC/disease:        	NC
Operator:          	ab
Comments:
M-SCAN DATA (7.1-0.6m)
Scanpts: 22, 32, 619, 633
Stim. (mA)     	Amp. (mV)
MS.1           	19.5           	13.231
MS.2           	19.5           	13.231
MS.3           	19.5           	13.227
MS.4           	19.5           	13.171
MS.5           	19.5           	13.197
MS.6           	19.5           	13.199
MS.7           	19.5           	13.183
MS.8           	19.5           	13.225
MS.9           	19.5           	13.219
MS.10          	19.5           	13.237
MS.11          	19.5           	13.245
MS.12          	19.5           	13.265
MS.13          	19.5           	13.273
MS.14          	19.5           	13.277
MS.15          	19.5           	13.291
MS.16          	19.5           	13.281
MS.17          	19.5           	13.253
MS.18          	19.5           	13.219
MS.19          	19.5           	13.241
MS.20          	19.5           	13.225
MS.21          	19.5           	13.245
MS.22          	19.5           	13.241
MS.23          	19.5           	13.257
MS.24          	19.422         	13.233
MS.25          	19.382         	13.227
MS.26          	19.345         	13.221
MS.27          	19.305         	13.221
MS.28          	19.267         	13.259
MS.29          	19.23          	13.219
MS.30          	19.19          	13.231
MS.31          	19.153         	13.245
MS.32          	19.115         	13.229
MS.33          	19.075         	13.227
MS.34          	19.038         	13.223
MS.35          	19             	13.237
MS.36          	18.962         	13.243
MS.37          	18.922         	13.207
MS.38          	18.885         	13.219
MS.39          	18.847         	13.223
MS.40          	18.81          	13.217
MS.41          	18.772         	13.201
MS.42          	18.735         	13.199
MS.43          	18.698         	13.185
MS.44          	18.66          	13.173
MS.45          	18.622         	13.171
MS.46          	18.585         	13.165
MS.47          	18.55          	13.185
MS.48          	18.512         	13.197
MS.49          	18.475         	13.171
MS.50          	18.438         	13.211
MS.51          	18.4           	13.199
MS.52          	18.365         	13.203
MS.53          	18.327         	13.187
MS.54          	18.29          	13.183
MS.55          	18.255         	13.197
MS.56          	18.217         	13.197
MS.57          	18.182         	13.191
MS.58          	18.145         	13.203
MS.59          	18.11          	13.195
MS.60          	18.073         	13.187
MS.61          	18.038         	13.175
MS.62          	18             	13.169
MS.63          	17.965         	13.209
MS.64          	17.93          	13.183
MS.65          	17.892         	13.191
MS.66          	17.858         	13.203
MS.67          	17.823         	13.171
MS.68          	17.785         	13.171
MS.69          	17.75          	13.154
MS.70          	17.715         	13.185
MS.71          	17.68          	13.197
MS.72          	17.645         	13.205
MS.73          	17.61          	13.199
MS.74          	17.575         	13.185
MS.75          	17.538         	13.165
MS.76          	17.503         	13.205
MS.77          	17.467         	13.181
MS.78          	17.435         	13.183
MS.79          	17.4           	13.205
MS.80          	17.365         	13.197
MS.81          	17.33          	13.183
MS.82          	17.295         	13.159
MS.83          	17.26          	13.177
MS.84          	17.225         	13.199
MS.85          	17.192         	13.177
MS.86          	17.157         	13.165
MS.87          	17.122         	13.163
MS.88          	17.087         	13.138
MS.89          	17.055         	13.138
MS.90          	17.02          	13.14
MS.91          	16.987         	13.146
MS.92          	16.952         	13.152
MS.93          	16.917         	13.116
MS.94          	16.885         	13.146
MS.95          	16.85          	13.144
MS.96          	16.817         	13.13
MS.97          	16.782         	13.165
MS.98          	16.75          	13.148
MS.99          	16.717         	13.134
MS.100         	16.682         	13.163
MS.101         	16.65          	13.146
MS.102         	16.618         	13.128
MS.103         	16.583         	13.106
MS.104         	16.55          	13.126
MS.105         	16.517         	13.104
MS.106         	16.485         	13.112
MS.107         	16.452         	13.09
MS.108         	16.417         	13.088
MS.109         	16.385         	13.112
MS.110         	16.352         	13.092
MS.111         	16.32          	13.094
MS.112         	16.288         	13.078
MS.113         	16.255         	13.1
MS.114         	16.222         	13.072
MS.115         	16.19          	13.068
MS.116         	16.157         	13.03
MS.117         	16.125         	13.064
MS.118         	16.092         	13.03
MS.119         	16.062         	13.072
MS.120         	16.03          	13.05
MS.121         	15.997         	13.05
MS.122         	15.965         	12.975
MS.123         	15.932         	13.044
MS.124         	15.902         	13.001
MS.125         	15.87          	13.026
MS.126         	15.837         	12.967
MS.127         	15.807         	12.955
MS.128         	15.775         	12.931
MS.129         	15.742         	12.915
MS.130         	15.712         	12.911
MS.131         	15.68          	12.919
MS.132         	15.65          	12.913
MS.133         	15.617         	12.943
MS.134         	15.587         	12.909
MS.135         	15.555         	12.913
MS.136         	15.525         	12.915
MS.137         	15.492         	12.895
MS.138         	15.462         	12.911
MS.139         	15.432         	12.927
MS.140         	15.4           	12.921
MS.141         	15.37          	12.911
MS.142         	15.34          	12.879
MS.143         	15.307         	12.875
MS.144         	15.277         	12.858
MS.145         	15.247         	12.875
MS.146         	15.217         	12.862
MS.147         	15.188         	12.852
MS.148         	15.155         	12.822
MS.149         	15.125         	12.848
MS.150         	15.095         	12.836
MS.151         	15.065         	12.85
MS.152         	15.035         	12.866
MS.153         	15.005         	12.899
MS.154         	14.975         	12.875
MS.155         	14.945         	12.899
MS.156         	14.915         	12.883
MS.157         	14.885         	12.875
MS.158         	14.855         	12.887
MS.159         	14.827         	12.899
MS.160         	14.797         	12.917
MS.161         	14.767         	12.929
MS.162         	14.737         	12.909
MS.163         	14.707         	12.639
MS.164         	14.68          	12.844
MS.165         	14.65          	12.868
MS.166         	14.62          	12.667
MS.167         	14.59          	12.667
MS.168         	14.562         	12.643
MS.169         	14.532         	12.838
MS.170         	14.505         	12.872
MS.171         	14.475         	12.665
MS.172         	14.445         	12.655
MS.173         	14.417         	12.578
MS.174         	14.387         	12.818
MS.175         	14.36          	12.564
MS.176         	14.33          	12.635
MS.177         	14.302         	12.564
MS.178         	14.273         	12.605
MS.179         	14.245         	12.562
MS.180         	14.217         	12.574
MS.181         	14.188         	12.591
MS.182         	14.16          	12.454
MS.183         	14.132         	12.456
MS.184         	14.102         	12.542
MS.185         	14.075         	12.54
MS.186         	14.047         	12.53
MS.187         	14.02          	12.397
MS.188         	13.99          	12.423
MS.189         	13.962         	12.452
MS.190         	13.935         	12.397
MS.191         	13.907         	12.399
MS.192         	13.88          	12.387
MS.193         	13.852         	12.391
MS.194         	13.825         	12.403
MS.195         	13.797         	12.393
MS.196         	13.77          	12.415
MS.197         	13.742         	12.391
MS.198         	13.715         	12.365
MS.199         	13.688         	12.393
MS.200         	13.66          	12.347
MS.201         	13.632         	12.369
MS.202         	13.605         	12.327
MS.203         	13.577         	12.335
MS.204         	13.55          	12.333
MS.205         	13.523         	12.351
MS.206         	13.495         	12.345
MS.207         	13.47          	12.347
MS.208         	13.443         	12.343
MS.209         	13.415         	12.347
MS.210         	13.387         	12.329
MS.211         	13.362         	12.361
MS.212         	13.335         	12.224
MS.213         	13.307         	12.204
MS.214         	13.282         	12.218
MS.215         	13.255         	12.331
MS.216         	13.23          	12.321
MS.217         	13.202         	12.309
MS.218         	13.175         	12.21
MS.219         	13.15          	12.077
MS.220         	13.122         	12.131
MS.221         	13.097         	12.027
MS.222         	13.07          	11.886
MS.223         	13.045         	11.928
MS.224         	13.02          	11.942
MS.225         	12.992         	12
MS.226         	12.967         	11.934
MS.227         	12.94          	11.851
MS.228         	12.915         	11.801
MS.229         	12.89          	11.91
MS.230         	12.862         	11.753
MS.231         	12.837         	11.652
MS.232         	12.812         	11.837
MS.233         	12.787         	11.618
MS.234         	12.76          	11.602
MS.235         	12.735         	11.64
MS.236         	12.71          	11.606
MS.237         	12.685         	11.565
MS.238         	12.66          	11.6
MS.239         	12.635         	11.529
MS.240         	12.61          	11.531
MS.241         	12.585         	11.569
MS.242         	12.557         	11.493
MS.243         	12.532         	11.384
MS.244         	12.507         	11.499
MS.245         	12.483         	11.473
MS.246         	12.457         	11.453
MS.247         	12.432         	11.434
MS.248         	12.41          	11.388
MS.249         	12.385         	11.33
MS.250         	12.36          	11.324
MS.251         	12.335         	11.39
MS.252         	12.31          	11.366
MS.253         	12.285         	11.293
MS.254         	12.26          	11.275
MS.255         	12.238         	11.267
MS.256         	12.212         	11.348
MS.257         	12.188         	11.12
MS.258         	12.162         	11.265
MS.259         	12.14          	11.191
MS.260         	12.115         	11.171
MS.261         	12.09          	11.12
MS.262         	12.065         	11.066
MS.263         	12.042         	11.164
MS.264         	12.017         	10.987
MS.265         	11.995         	11.011
MS.266         	11.97          	10.923
MS.267         	11.945         	10.923
MS.268         	11.922         	10.959
MS.269         	11.898         	10.893
MS.270         	11.875         	11.003
MS.271         	11.85          	10.85
MS.272         	11.827         	10.86
MS.273         	11.802         	10.903
MS.274         	11.78          	10.81
MS.275         	11.757         	10.673
MS.276         	11.733         	10.754
MS.277         	11.71          	10.683
MS.278         	11.685         	10.76
MS.279         	11.662         	10.766
MS.280         	11.64          	10.762
MS.281         	11.617         	10.631
MS.282         	11.592         	10.574
MS.283         	11.57          	10.594
MS.284         	11.547         	10.717
MS.285         	11.525         	10.516
MS.286         	11.5           	10.641
MS.287         	11.477         	10.582
MS.288         	11.455         	10.46
MS.289         	11.432         	10.391
MS.290         	11.41          	10.429
MS.291         	11.387         	10.453
MS.292         	11.363         	10.31
MS.293         	11.34          	10.383
MS.294         	11.318         	10.325
MS.295         	11.295         	10.321
MS.296         	11.273         	10.268
MS.297         	11.25          	10.236
MS.298         	11.227         	10.236
MS.299         	11.205         	10.272
MS.300         	11.182         	10.232
MS.301         	11.16          	10.244
MS.302         	11.137         	10.25
MS.303         	11.117         	10.2
MS.304         	11.095         	10.174
MS.305         	11.073         	10.049
MS.306         	11.05          	10.18
MS.307         	11.028         	10.117
MS.308         	11.005         	10.123
MS.309         	10.983         	10.039
MS.310         	10.962         	9.918
MS.311         	10.94          	9.988
MS.312         	10.917         	9.978
MS.313         	10.895         	9.7
MS.314         	10.875         	9.747
MS.315         	10.852         	9.859
MS.316         	10.83          	9.761
MS.317         	10.81          	9.708
MS.318         	10.787         	9.753
MS.319         	10.765         	9.608
MS.320         	10.745         	9.664
MS.321         	10.722         	9.648
MS.322         	10.702         	9.396
MS.323         	10.68          	9.608
MS.324         	10.66          	9.626
MS.325         	10.637         	9.356
MS.326         	10.617         	9.305
MS.327         	10.595         	9.62
MS.328         	10.575         	9.491
MS.329         	10.552         	9.467
MS.330         	10.532         	9.43
MS.331         	10.51          	8.927
MS.332         	10.49          	8.965
MS.333         	10.47          	9.156
MS.334         	10.448         	9.503
MS.335         	10.427         	9.005
MS.336         	10.407         	8.947
MS.337         	10.385         	9.08
MS.338         	10.365         	8.937
MS.339         	10.345         	9.05
MS.340         	10.323         	8.893
MS.341         	10.302         	8.937
MS.342         	10.282         	8.927
MS.343         	10.262         	8.911
MS.344         	10.24          	8.886
MS.345         	10.22          	8.913
MS.346         	10.2           	8.884
MS.347         	10.18          	8.886
MS.348         	10.16          	8.854
MS.349         	10.14          	8.913
MS.350         	10.12          	8.897
MS.351         	10.097         	8.935
MS.352         	10.077         	8.897
MS.353         	10.057         	8.878
MS.354         	10.037         	8.888
MS.355         	10.017         	8.842
MS.356         	9.997          	8.915
MS.357         	9.977          	8.897
MS.358         	9.957          	8.792
MS.359         	9.938          	8.828
MS.360         	9.917          	8.574
MS.361         	9.9            	8.464
MS.362         	9.88           	8.8
MS.363         	9.86           	8.667
MS.364         	9.84           	8.564
MS.365         	9.82           	8.739
MS.366         	9.8            	8.437
MS.367         	9.78           	8.756
MS.368         	9.76           	8.524
MS.369         	9.742          	8.655
MS.370         	9.722          	8.625
MS.371         	9.702          	8.578
MS.372         	9.682          	8.25
MS.373         	9.665          	8.536
MS.374         	9.645          	8.232
MS.375         	9.625          	8.488
MS.376         	9.605          	8.441
MS.377         	9.587          	8.105
MS.378         	9.568          	8.22
MS.379         	9.55           	8.254
MS.380         	9.53           	8.379
MS.381         	9.51           	8.208
MS.382         	9.492          	8.034
MS.383         	9.472          	7.98
MS.384         	9.452          	7.869
MS.385         	9.435          	7.69
MS.386         	9.415          	7.624
MS.387         	9.398          	7.831
MS.388         	9.377          	7.898
MS.389         	9.36           	7.676
MS.390         	9.34           	7.775
MS.391         	9.323          	7.601
MS.392         	9.302          	7.573
MS.393         	9.285          	7.561
MS.394         	9.267          	7.037
MS.395         	9.247          	7.328
MS.396         	9.23           	7.015
MS.397         	9.21           	7.172
MS.398         	9.193          	7.11
MS.399         	9.175          	6.83
MS.400         	9.155          	6.619
MS.401         	9.137          	7.015
MS.402         	9.12           	6.973
MS.403         	9.1            	6.556
MS.404         	9.082          	6.737
MS.405         	9.065          	6.57
MS.406         	9.047          	6.52
MS.407         	9.028          	6.572
MS.408         	9.01           	6.451
MS.409         	8.992          	6.457
MS.410         	8.975          	6.903
MS.411         	8.957          	6.459
MS.412         	8.94           	6.218
MS.413         	8.92           	6.689
MS.414         	8.903          	6.834
MS.415         	8.885          	6.085
MS.416         	8.867          	6.435
MS.417         	8.85           	6.421
MS.418         	8.832          	6.147
MS.419         	8.815          	6.149
MS.420         	8.797          	6.28
MS.421         	8.78           	5.988
MS.422         	8.762          	6.014
MS.423         	8.745          	6.002
MS.424         	8.727          	6.147
MS.425         	8.71           	6.083
MS.426         	8.693          	6.294
MS.427         	8.675          	5.702
MS.428         	8.658          	6.006
MS.429         	8.64           	5.803
MS.430         	8.622          	5.968
MS.431         	8.605          	5.634
MS.432         	8.587          	5.724
MS.433         	8.57           	5.769
MS.434         	8.555          	5.593
MS.435         	8.537          	5.752
MS.436         	8.52           	5.702
MS.437         	8.502          	5.515
MS.438         	8.485          	5.436
MS.439         	8.47           	5.708
MS.440         	8.452          	5.505
MS.441         	8.435          	5.243
MS.442         	8.417          	5.392
MS.443         	8.403          	5.406
MS.444         	8.385          	5.158
MS.445         	8.367          	5.243
MS.446         	8.35           	5.164
MS.447         	8.335          	5.289
MS.448         	8.318          	5.064
MS.449         	8.302          	5.068
MS.450         	8.285          	5.003
MS.451         	8.267          	5.126
MS.452         	8.252          	5.124
MS.453         	8.235          	5.078
MS.454         	8.217          	5.197
MS.455         	8.202          	4.9
MS.456         	8.185          	4.774
MS.457         	8.17           	4.846
MS.458         	8.153          	4.757
MS.459         	8.137          	4.594
MS.460         	8.12           	4.578
MS.461         	8.105          	4.816
MS.462         	8.087          	4.451
MS.463         	8.073          	4.52
MS.464         	8.055          	4.494
MS.465         	8.04           	4.502
MS.466         	8.025          	4.558
MS.467         	8.007          	4.554
MS.468         	7.992          	4.254
MS.469         	7.975          	4.21
MS.470         	7.96           	4.355
MS.471         	7.945          	4.316
MS.472         	7.927          	3.831
MS.473         	7.912          	3.766
MS.474         	7.898          	3.543
MS.475         	7.88           	3.519
MS.476         	7.865          	3.398
MS.477         	7.85           	3.587
MS.478         	7.832          	3.194
MS.479         	7.817          	3.223
MS.480         	7.802          	3.482
MS.481         	7.787          	3.573
MS.482         	7.77           	3.203
MS.483         	7.755          	3.35
MS.484         	7.74           	3.047
MS.485         	7.725          	2.953
MS.486         	7.71           	2.933
MS.487         	7.695          	3.045
MS.488         	7.677          	2.828
MS.489         	7.662          	2.874
MS.490         	7.648          	2.935
MS.491         	7.632          	2.87
MS.492         	7.617          	2.935
MS.493         	7.602          	2.836
