File:              	C:\Qtrac\Data\Daniel M Sørensen\MScan multicentre study\Data from centres\Antalya\Processed data\TR.NC.ANT.9.2- NCC01208G.QZD
Name:              	TR.NC.ANT.9.2
Protocol:          	MSCAN-R2
Date:              	8/12/20
Start time:        	18:09:42
Age:               	48
Sex:               	f
Temperature:       	32.6
S/R sites:         	APB
NC/disease:        	NC
Operator:          	ab
Comments:
M-SCAN DATA (8.1-0.7m)
Scanpts: 181, 187, 773, 785
Stim. (mA)     	Amp. (mV)
MS.1           	24             	12.973
MS.2           	24             	12.957
MS.3           	24             	12.959
MS.4           	24             	12.909
MS.5           	24             	12.989
MS.6           	24             	12.935
MS.7           	24             	12.911
MS.8           	24             	12.893
MS.9           	24             	12.913
MS.10          	24             	12.899
MS.11          	24             	12.909
MS.12          	24             	12.913
MS.13          	24             	12.899
MS.14          	24             	12.915
MS.15          	24             	12.917
MS.16          	24             	12.927
MS.17          	24             	12.935
MS.18          	24             	12.927
MS.19          	24             	12.891
MS.20          	24             	12.907
MS.21          	24             	12.893
MS.22          	24             	12.921
MS.23          	24             	12.959
MS.24          	23.905         	12.911
MS.25          	23.858         	12.939
MS.26          	23.807         	12.933
MS.27          	23.76          	12.951
MS.28          	23.712         	12.937
MS.29          	23.665         	12.939
MS.30          	23.62          	12.941
MS.31          	23.573         	12.925
MS.32          	23.525         	12.931
MS.33          	23.477         	12.913
MS.34          	23.43          	12.911
MS.35          	23.385         	12.899
MS.36          	23.337         	12.909
MS.37          	23.29          	12.925
MS.38          	23.245         	12.935
MS.39          	23.198         	12.923
MS.40          	23.153         	12.937
MS.41          	23.105         	12.923
MS.42          	23.06          	12.925
MS.43          	23.012         	12.951
MS.44          	22.967         	12.949
MS.45          	22.92          	12.921
MS.46          	22.875         	12.897
MS.47          	22.83          	12.921
MS.48          	22.785         	12.919
MS.49          	22.737         	12.931
MS.50          	22.692         	12.925
MS.51          	22.647         	12.901
MS.52          	22.602         	12.893
MS.53          	22.557         	12.897
MS.54          	22.512         	12.919
MS.55          	22.467         	12.907
MS.56          	22.422         	12.919
MS.57          	22.377         	12.923
MS.58          	22.332         	12.915
MS.59          	22.288         	12.911
MS.60          	22.243         	12.949
MS.61          	22.2           	12.921
MS.62          	22.155         	12.901
MS.63          	22.11          	12.953
MS.64          	22.067         	12.959
MS.65          	22.022         	12.979
MS.66          	21.977         	12.967
MS.67          	21.935         	12.935
MS.68          	21.89          	12.955
MS.69          	21.847         	12.969
MS.70          	21.802         	12.979
MS.71          	21.76          	13.018
MS.72          	21.715         	13.001
MS.73          	21.672         	13.306
MS.74          	21.63          	13.235
MS.75          	21.585         	13.197
MS.76          	21.542         	13.09
MS.77          	21.5           	13.152
MS.78          	21.458         	13.08
MS.79          	21.415         	13.086
MS.80          	21.372         	13.084
MS.81          	21.327         	13.116
MS.82          	21.285         	13.175
MS.83          	21.243         	13.118
MS.84          	21.2           	13.142
MS.85          	21.157         	13.054
MS.86          	21.118         	13.048
MS.87          	21.075         	12.965
MS.88          	21.032         	12.919
MS.89          	20.99          	12.919
MS.90          	20.948         	12.977
MS.91          	20.907         	13.102
MS.92          	20.865         	13.128
MS.93          	20.823         	13.122
MS.94          	20.78          	13.142
MS.95          	20.74          	13.231
MS.96          	20.698         	13.217
MS.97          	20.657         	13.376
MS.98          	20.615         	13.475
MS.99          	20.575         	13.527
MS.100         	20.532         	13.551
MS.101         	20.493         	13.485
MS.102         	20.452         	13.545
MS.103         	20.41          	13.537
MS.104         	20.37          	13.511
MS.105         	20.33          	13.533
MS.106         	20.288         	13.535
MS.107         	20.247         	13.551
MS.108         	20.208         	13.608
MS.109         	20.167         	13.628
MS.110         	20.127         	13.65
MS.111         	20.087         	13.68
MS.112         	20.047         	13.69
MS.113         	20.007         	13.7
MS.114         	19.967         	13.708
MS.115         	19.927         	13.724
MS.116         	19.887         	13.696
MS.117         	19.847         	13.704
MS.118         	19.807         	13.712
MS.119         	19.767         	13.708
MS.120         	19.727         	13.71
MS.121         	19.69          	13.733
MS.122         	19.65          	13.718
MS.123         	19.61          	13.71
MS.124         	19.57          	13.735
MS.125         	19.532         	13.731
MS.126         	19.493         	13.724
MS.127         	19.455         	13.731
MS.128         	19.415         	13.714
MS.129         	19.377         	13.729
MS.130         	19.337         	13.743
MS.131         	19.3           	13.731
MS.132         	19.26          	13.71
MS.133         	19.222         	13.729
MS.134         	19.182         	13.761
MS.135         	19.145         	13.771
MS.136         	19.108         	13.755
MS.137         	19.067         	13.751
MS.138         	19.03          	13.743
MS.139         	18.993         	13.755
MS.140         	18.955         	13.773
MS.141         	18.917         	13.743
MS.142         	18.88          	13.777
MS.143         	18.842         	13.761
MS.144         	18.802         	13.749
MS.145         	18.765         	13.791
MS.146         	18.727         	13.775
MS.147         	18.69          	13.777
MS.148         	18.655         	13.765
MS.149         	18.618         	13.783
MS.150         	18.58          	13.801
MS.151         	18.542         	13.787
MS.152         	18.505         	13.797
MS.153         	18.467         	13.811
MS.154         	18.432         	13.795
MS.155         	18.395         	13.805
MS.156         	18.358         	13.801
MS.157         	18.32          	13.789
MS.158         	18.285         	13.815
MS.159         	18.247         	13.819
MS.160         	18.212         	13.797
MS.161         	18.175         	13.71
MS.162         	18.137         	13.807
MS.163         	18.102         	13.819
MS.164         	18.067         	13.803
MS.165         	18.03          	13.714
MS.166         	17.995         	13.69
MS.167         	17.958         	13.795
MS.168         	17.922         	13.708
MS.169         	17.887         	13.779
MS.170         	17.85          	13.779
MS.171         	17.815         	13.7
MS.172         	17.78          	13.706
MS.173         	17.745         	13.71
MS.174         	17.708         	13.729
MS.175         	17.672         	13.718
MS.176         	17.637         	13.702
MS.177         	17.602         	13.718
MS.178         	17.567         	13.708
MS.179         	17.532         	13.696
MS.180         	17.497         	13.706
MS.181         	17.462         	13.739
MS.182         	17.427         	13.718
MS.183         	17.392         	13.704
MS.184         	17.358         	13.71
MS.185         	17.323         	13.743
MS.186         	17.288         	13.751
MS.187         	17.255         	13.694
MS.188         	17.22          	13.718
MS.189         	17.185         	13.714
MS.190         	17.15          	13.714
MS.191         	17.118         	13.702
MS.192         	17.083         	13.741
MS.193         	17.047         	13.686
MS.194         	17.015         	13.688
MS.195         	16.98          	13.71
MS.196         	16.948         	13.706
MS.197         	16.913         	13.698
MS.198         	16.878         	13.654
MS.199         	16.845         	13.652
MS.200         	16.812         	13.71
MS.201         	16.778         	13.67
MS.202         	16.745         	13.708
MS.203         	16.71          	13.634
MS.204         	16.677         	13.654
MS.205         	16.645         	13.664
MS.206         	16.61          	13.664
MS.207         	16.577         	13.666
MS.208         	16.545         	13.644
MS.209         	16.512         	13.666
MS.210         	16.477         	13.636
MS.211         	16.445         	13.666
MS.212         	16.413         	13.61
MS.213         	16.38          	13.638
MS.214         	16.347         	13.718
MS.215         	16.315         	13.652
MS.216         	16.282         	13.628
MS.217         	16.25          	13.67
MS.218         	16.217         	13.654
MS.219         	16.185         	13.65
MS.220         	16.153         	13.65
MS.221         	16.12          	13.654
MS.222         	16.087         	13.648
MS.223         	16.055         	13.652
MS.224         	16.022         	13.634
MS.225         	15.992         	13.096
MS.226         	15.96          	13.64
MS.227         	15.927         	13.636
MS.228         	15.895         	13.628
MS.229         	15.865         	13.086
MS.230         	15.832         	12.778
MS.231         	15.8           	13.08
MS.232         	15.77          	13.086
MS.233         	15.737         	13.074
MS.234         	15.705         	13.136
MS.235         	15.675         	12.802
MS.236         	15.642         	12.661
MS.237         	15.612         	12.578
MS.238         	15.58          	12.675
MS.239         	15.55          	12.377
MS.240         	15.52          	12.448
MS.241         	15.487         	12.736
MS.242         	15.457         	12.518
MS.243         	15.425         	12.53
MS.244         	15.395         	12.484
MS.245         	15.365         	12.276
MS.246         	15.332         	12.28
MS.247         	15.302         	12.276
MS.248         	15.273         	12.28
MS.249         	15.242         	12.609
MS.250         	15.212         	12.059
MS.251         	15.18          	12.103
MS.252         	15.15          	12.313
MS.253         	15.12          	12.268
MS.254         	15.09          	12.107
MS.255         	15.06          	12.033
MS.256         	15.03          	12.272
MS.257         	15             	11.604
MS.258         	14.97          	12.043
MS.259         	14.94          	11.589
MS.260         	14.91          	11.726
MS.261         	14.88          	11.902
MS.262         	14.85          	11.793
MS.263         	14.82          	11.706
MS.264         	14.792         	11.293
MS.265         	14.762         	11.237
MS.266         	14.733         	11.295
MS.267         	14.702         	10.887
MS.268         	14.672         	11.056
MS.269         	14.645         	10.909
MS.270         	14.615         	11.221
MS.271         	14.585         	11.587
MS.272         	14.557         	11.114
MS.273         	14.527         	11.217
MS.274         	14.497         	10.733
MS.275         	14.47          	11.241
MS.276         	14.44          	10.266
MS.277         	14.412         	10.163
MS.278         	14.382         	10.564
MS.279         	14.355         	10.377
MS.280         	14.325         	9.783
MS.281         	14.297         	9.765
MS.282         	14.267         	9.66
MS.283         	14.24          	9.775
MS.284         	14.212         	9.867
MS.285         	14.182         	8.701
MS.286         	14.155         	8.927
MS.287         	14.127         	9.227
MS.288         	14.097         	8.921
MS.289         	14.07          	8.975
MS.290         	14.042         	9.07
MS.291         	14.015         	9.126
MS.292         	13.985         	8.607
MS.293         	13.957         	7.944
MS.294         	13.93          	8.339
MS.295         	13.903         	8.161
MS.296         	13.875         	7.815
MS.297         	13.847         	7.469
MS.298         	13.82          	7.688
MS.299         	13.792         	7.64
MS.300         	13.765         	7.108
MS.301         	13.737         	6.874
MS.302         	13.71          	7.412
MS.303         	13.682         	7.313
MS.304         	13.655         	6.512
MS.305         	13.627         	6.484
MS.306         	13.6           	6.631
MS.307         	13.572         	6.467
MS.308         	13.545         	6.945
MS.309         	13.517         	7.096
MS.310         	13.492         	6.29
MS.311         	13.465         	6.431
MS.312         	13.438         	6.095
MS.313         	13.41          	6.61
MS.314         	13.385         	6.274
MS.315         	13.358         	6.044
MS.316         	13.33          	6.179
MS.317         	13.305         	5.458
MS.318         	13.278         	5.706
MS.319         	13.25          	5.682
MS.320         	13.225         	5.458
MS.321         	13.197         	5.414
MS.322         	13.172         	5.195
MS.323         	13.145         	4.792
MS.324         	13.12          	5.019
MS.325         	13.092         	5.054
MS.326         	13.068         	4.824
MS.327         	13.04          	5.275
MS.328         	13.015         	4.133
MS.329         	12.987         	4.324
MS.330         	12.962         	4.739
MS.331         	12.938         	4.695
MS.332         	12.91          	4.113
MS.333         	12.885         	4.29
MS.334         	12.86          	4.443
MS.335         	12.832         	3.408
MS.336         	12.807         	3.865
MS.337         	12.782         	3.178
MS.338         	12.757         	3.531
MS.339         	12.73          	3.632
MS.340         	12.705         	3.247
MS.341         	12.68          	3.533
MS.342         	12.655         	3.327
MS.343         	12.63          	3.07
MS.344         	12.605         	3.162
MS.345         	12.58          	2.729
MS.346         	12.555         	3.158
MS.347         	12.53          	2.743
MS.348         	12.505         	2.902
MS.349         	12.48          	2.246
MS.350         	12.455         	2.312
MS.351         	12.43          	2.222
MS.352         	12.405         	2.455
MS.353         	12.38          	2.24
MS.354         	12.355         	2.399
MS.355         	12.33          	2.123
MS.356         	12.305         	1.964
MS.357         	12.28          	2.095
MS.358         	12.257         	1.903
MS.359         	12.233         	1.603
MS.360         	12.207         	1.764
MS.361         	12.182         	1.597
MS.362         	12.16          	1.521
MS.363         	12.135         	1.287
MS.364         	12.11          	1.521
MS.365         	12.085         	1.289
MS.366         	12.062         	1.267
MS.367         	12.037         	1.495
MS.368         	12.012         	1.245
MS.369         	11.99          	1.426
MS.370         	11.965         	1.102
MS.371         	11.943         	1.11
MS.372         	11.917         	1.146
MS.373         	11.895         	1.076
MS.374         	11.87          	1.118
MS.375         	11.847         	1.051
MS.376         	11.822         	0.912
MS.377         	11.8           	1.072
MS.378         	11.775         	0.933
MS.379         	11.752         	1.003
MS.380         	11.73          	0.963
MS.381         	11.705         	0.838
MS.382         	11.682         	0.826
MS.383         	11.657         	0.836
MS.384         	11.635         	0.87
MS.385         	11.613         	0.769
MS.386         	11.59          	0.741
MS.387         	11.565         	0.717
MS.388         	11.542         	0.721
MS.389         	11.52          	0.846
MS.390         	11.497         	0.691
MS.391         	11.472         	0.749
MS.392         	11.45          	0.701
MS.393         	11.427         	0.632
MS.394         	11.405         	0.622
MS.395         	11.382         	0.701
MS.396         	11.36          	0.63
MS.397         	11.337         	0.659
MS.398         	11.315         	0.616
MS.399         	11.292         	0.588
MS.400         	11.27          	0.62
MS.401         	11.247         	0.506
MS.402         	11.225         	0.592
MS.403         	11.202         	0.548
MS.404         	11.18          	0.544
MS.405         	11.157         	0.451
MS.406         	11.135         	0.542
MS.407         	11.113         	0.614
MS.408         	11.09          	0.461
MS.409         	11.068         	0.465
MS.410         	11.045         	0.58
MS.411         	11.023         	0.55
MS.412         	11.002         	0.457
MS.413         	10.98          	0.423
MS.414         	10.957         	0.383
MS.415         	10.935         	0.399
MS.416         	10.915         	0.514
MS.417         	10.892         	0.387
MS.418         	10.87          	0.369
MS.419         	10.85          	0.357
MS.420         	10.827         	0.389
MS.421         	10.805         	0.357
MS.422         	10.785         	0.375
MS.423         	10.762         	0.397
MS.424         	10.74          	0.334
MS.425         	10.72          	0.357
MS.426         	10.698         	0.346
MS.427         	10.677         	0.371
MS.428         	10.655         	0.381
MS.429         	10.635         	0.526
MS.430         	10.613         	0.342
MS.431         	10.592         	0.401
MS.432         	10.57          	0.324
MS.433         	10.55          	0.342
MS.434         	10.528         	0.258
MS.435         	10.507         	0.348
MS.436         	10.485         	0.292
MS.437         	10.465         	0.284
MS.438         	10.445         	0.344
MS.439         	10.422         	0.373
MS.440         	10.403         	0.268
MS.441         	10.382         	0.256
MS.442         	10.36          	0.334
MS.443         	10.34          	0.274
MS.444         	10.32          	0.264
MS.445         	10.3           	0.274
MS.446         	10.278         	0.296
MS.447         	10.257         	0.318
MS.448         	10.238         	0.31
MS.449         	10.217         	0.258
MS.450         	10.198         	0.304
MS.451         	10.175         	0.254
MS.452         	10.155         	0.262
MS.453         	10.135         	0.27
MS.454         	10.115         	0.258
MS.455         	10.095         	0.246
MS.456         	10.075         	0.25
MS.457         	10.055         	0.262
MS.458         	10.035         	0.276
MS.459         	10.015         	0.254
MS.460         	9.995          	0.266
MS.461         	9.975          	0.25
MS.462         	9.955          	0.252
MS.463         	9.935          	0.244
MS.464         	9.915          	0.244
MS.465         	9.895          	0.25
MS.466         	9.875          	0.258
MS.467         	9.855          	0.246
MS.468         	9.835          	0.262
MS.469         	9.818          	0.256
MS.470         	9.797          	0.254
MS.471         	9.778          	0.254
MS.472         	9.757          	0.254
MS.473         	9.738          	0.256
MS.474         	9.717          	0.26
MS.475         	9.7            	0.258
MS.476         	9.68           	0.27
MS.477         	9.66           	0.264
MS.478         	9.64           	0.258
MS.479         	9.622          	0.252
MS.480         	9.602          	0.256
MS.481         	9.582          	0.26
MS.482         	9.565          	0.262
MS.483         	9.545          	0.264
MS.484         	9.525          	0.258
MS.485         	9.507          	0.256
MS.486         	9.488          	0.272
MS.487         	9.47           	0.258
MS.488         	9.45           	0.258
MS.489         	9.432          	0.264
MS.490         	9.412          	0.268
MS.491         	9.395          	0.256
MS.492         	9.375          	0.266
MS.493         	9.358          	0.254
