File:              	C:\Qtrac\Data\Daniel M Sørensen\MScan multicentre study\Data from centres\Antalya\Processed data\TR.NC.ANT.5.1- NCC00609A.QZD
Name:              	TR.NC.ANT.5.1
Protocol:          	MSCAN-R2
Date:              	9/6/20
Start time:        	14:02:25
Age:               	63
Sex:               	M
Temperature:       	33.6
S/R sites:         	APB
NC/disease:        	NC
Operator:          	ab
Comments:
M-SCAN DATA (6.7-0.9m)
Scanpts: 233, 236, 608, 630
Stim. (mA)     	Amp. (mV)
MS.1           	16.5           	7.972
MS.2           	16.5           	7.98
MS.3           	16.5           	7.978
MS.4           	16.5           	7.942
MS.5           	16.5           	7.93
MS.6           	16.5           	7.932
MS.7           	16.5           	7.91
MS.8           	16.5           	7.902
MS.9           	16.5           	7.898
MS.10          	16.5           	7.912
MS.11          	16.5           	7.91
MS.12          	16.5           	7.912
MS.13          	16.5           	7.904
MS.14          	16.5           	7.906
MS.15          	16.5           	7.91
MS.16          	16.5           	7.906
MS.17          	16.5           	7.896
MS.18          	16.5           	7.896
MS.19          	16.5           	7.898
MS.20          	16.5           	7.891
MS.21          	16.5           	7.893
MS.22          	16.5           	7.896
MS.23          	16.5           	7.922
MS.24          	16.435         	7.896
MS.25          	16.4           	7.879
MS.26          	16.368         	7.891
MS.27          	16.335         	7.898
MS.28          	16.302         	7.9
MS.29          	16.27          	7.902
MS.30          	16.237         	7.912
MS.31          	16.205         	7.906
MS.32          	16.172         	7.908
MS.33          	16.14          	7.902
MS.34          	16.108         	7.902
MS.35          	16.077         	7.902
MS.36          	16.045         	7.902
MS.37          	16.012         	7.9
MS.38          	15.98          	7.902
MS.39          	15.947         	7.887
MS.40          	15.917         	7.906
MS.41          	15.885         	7.9
MS.42          	15.852         	7.9
MS.43          	15.822         	7.889
MS.44          	15.79          	7.906
MS.45          	15.757         	7.906
MS.46          	15.727         	7.902
MS.47          	15.695         	7.902
MS.48          	15.665         	7.908
MS.49          	15.632         	7.916
MS.50          	15.602         	7.916
MS.51          	15.57          	7.906
MS.52          	15.54          	7.922
MS.53          	15.507         	7.912
MS.54          	15.477         	7.914
MS.55          	15.445         	7.912
MS.56          	15.415         	7.924
MS.57          	15.385         	7.95
MS.58          	15.352         	7.922
MS.59          	15.322         	7.93
MS.60          	15.292         	7.956
MS.61          	15.262         	7.928
MS.62          	15.233         	7.946
MS.63          	15.2           	7.924
MS.64          	15.17          	7.93
MS.65          	15.14          	7.922
MS.66          	15.11          	7.936
MS.67          	15.08          	7.948
MS.68          	15.05          	7.938
MS.69          	15.02          	7.954
MS.70          	14.99          	7.95
MS.71          	14.96          	7.96
MS.72          	14.93          	7.964
MS.73          	14.9           	7.97
MS.74          	14.87          	7.964
MS.75          	14.84          	7.968
MS.76          	14.81          	7.968
MS.77          	14.78          	7.96
MS.78          	14.752         	7.958
MS.79          	14.722         	7.968
MS.80          	14.693         	7.968
MS.81          	14.662         	7.966
MS.82          	14.635         	7.982
MS.83          	14.605         	7.97
MS.84          	14.575         	7.986
MS.85          	14.547         	7.972
MS.86          	14.517         	7.974
MS.87          	14.487         	7.978
MS.88          	14.46          	7.982
MS.89          	14.43          	7.978
MS.90          	14.403         	7.98
MS.91          	14.372         	7.988
MS.92          	14.345         	7.984
MS.93          	14.315         	7.978
MS.94          	14.287         	8
MS.95          	14.257         	7.986
MS.96          	14.23          	8.024
MS.97          	14.202         	7.99
MS.98          	14.172         	8.002
MS.99          	14.145         	7.984
MS.100         	14.117         	7.968
MS.101         	14.087         	7.976
MS.102         	14.06          	7.99
MS.103         	14.032         	7.998
MS.104         	14.005         	8.01
MS.105         	13.975         	7.998
MS.106         	13.947         	8.022
MS.107         	13.92          	8.014
MS.108         	13.892         	8.022
MS.109         	13.865         	8.036
MS.110         	13.837         	8.03
MS.111         	13.81          	8.059
MS.112         	13.782         	8.045
MS.113         	13.755         	8.047
MS.114         	13.727         	8.059
MS.115         	13.7           	8.032
MS.116         	13.672         	8.073
MS.117         	13.645         	8.059
MS.118         	13.617         	8.057
MS.119         	13.59          	8.063
MS.120         	13.562         	8.103
MS.121         	13.535         	8.091
MS.122         	13.51          	8.079
MS.123         	13.483         	8.091
MS.124         	13.455         	8.101
MS.125         	13.427         	8.109
MS.126         	13.403         	8.121
MS.127         	13.375         	8.097
MS.128         	13.347         	8.095
MS.129         	13.32          	8.085
MS.130         	13.295         	8.091
MS.131         	13.267         	8.097
MS.132         	13.242         	8.121
MS.133         	13.215         	8.131
MS.134         	13.188         	8.119
MS.135         	13.162         	8.085
MS.136         	13.135         	8.113
MS.137         	13.11          	8.091
MS.138         	13.082         	8.101
MS.139         	13.057         	8.101
MS.140         	13.032         	8.121
MS.141         	13.005         	8.117
MS.142         	12.98          	8.123
MS.143         	12.952         	8.121
MS.144         	12.927         	8.127
MS.145         	12.903         	8.131
MS.146         	12.875         	8.131
MS.147         	12.85          	8.137
MS.148         	12.825         	8.137
MS.149         	12.8           	8.129
MS.150         	12.773         	8.133
MS.151         	12.747         	8.139
MS.152         	12.722         	8.133
MS.153         	12.697         	8.133
MS.154         	12.672         	8.137
MS.155         	12.645         	8.145
MS.156         	12.62          	8.135
MS.157         	12.595         	8.143
MS.158         	12.57          	8.139
MS.159         	12.545         	8.139
MS.160         	12.52          	8.149
MS.161         	12.495         	8.147
MS.162         	12.47          	8.149
MS.163         	12.445         	8.161
MS.164         	12.42          	8.147
MS.165         	12.395         	8.147
MS.166         	12.37          	8.157
MS.167         	12.347         	8.157
MS.168         	12.322         	8.167
MS.169         	12.297         	8.149
MS.170         	12.273         	8.155
MS.171         	12.247         	8.173
MS.172         	12.222         	8.159
MS.173         	12.2           	8.151
MS.174         	12.175         	8.163
MS.175         	12.15          	8.159
MS.176         	12.125         	8.149
MS.177         	12.102         	8.163
MS.178         	12.077         	8.155
MS.179         	12.052         	8.167
MS.180         	12.03          	8.188
MS.181         	12.005         	8.18
MS.182         	11.983         	8.19
MS.183         	11.957         	8.182
MS.184         	11.932         	8.182
MS.185         	11.91          	8.169
MS.186         	11.885         	8.188
MS.187         	11.863         	8.19
MS.188         	11.837         	8.186
MS.189         	11.815         	8.173
MS.190         	11.79          	8.19
MS.191         	11.767         	8.198
MS.192         	11.745         	8.186
MS.193         	11.72          	8.186
MS.194         	11.697         	8.192
MS.195         	11.675         	8.218
MS.196         	11.65          	8.216
MS.197         	11.627         	8.21
MS.198         	11.605         	8.153
MS.199         	11.58          	8.153
MS.200         	11.557         	8.216
MS.201         	11.535         	8.206
MS.202         	11.512         	8.137
MS.203         	11.488         	8.153
MS.204         	11.465         	8.159
MS.205         	11.443         	8.143
MS.206         	11.42          	8.228
MS.207         	11.398         	8.177
MS.208         	11.375         	8.165
MS.209         	11.352         	8.157
MS.210         	11.33          	8.165
MS.211         	11.307         	8.173
MS.212         	11.282         	8.169
MS.213         	11.26          	8.246
MS.214         	11.238         	8.194
MS.215         	11.215         	8.119
MS.216         	11.195         	8.177
MS.217         	11.172         	8.135
MS.218         	11.15          	8.123
MS.219         	11.127         	8.115
MS.220         	11.105         	8.129
MS.221         	11.082         	8.131
MS.222         	11.06          	8.121
MS.223         	11.037         	8.129
MS.224         	11.015         	8.153
MS.225         	10.995         	8.228
MS.226         	10.972         	8.135
MS.227         	10.95          	8.137
MS.228         	10.927         	8.153
MS.229         	10.907         	8.18
MS.230         	10.885         	8.151
MS.231         	10.863         	8.161
MS.232         	10.84          	8.167
MS.233         	10.82          	8.165
MS.234         	10.797         	8.163
MS.235         	10.778         	8.165
MS.236         	10.755         	8.177
MS.237         	10.733         	8.177
MS.238         	10.712         	8.171
MS.239         	10.69          	8.165
MS.240         	10.67          	8.173
MS.241         	10.648         	8.165
MS.242         	10.627         	8.192
MS.243         	10.605         	8.192
MS.244         	10.585         	8.163
MS.245         	10.562         	8.165
MS.246         	10.542         	8.186
MS.247         	10.52          	8.2
MS.248         	10.5           	8.21
MS.249         	10.48          	8.151
MS.250         	10.457         	8.169
MS.251         	10.438         	8.186
MS.252         	10.415         	8.069
MS.253         	10.395         	8.175
MS.254         	10.375         	8.198
MS.255         	10.355         	8.204
MS.256         	10.332         	8.097
MS.257         	10.312         	8.167
MS.258         	10.292         	8.065
MS.259         	10.273         	8.073
MS.260         	10.25          	8.079
MS.261         	10.23          	8.097
MS.262         	10.21          	8.097
MS.263         	10.19          	8.095
MS.264         	10.17          	8.081
MS.265         	10.15          	8.073
MS.266         	10.127         	8.095
MS.267         	10.108         	8.083
MS.268         	10.087         	8.109
MS.269         	10.068         	8.099
MS.270         	10.047         	8.105
MS.271         	10.028         	8.099
MS.272         	10.007         	8.105
MS.273         	9.988          	8.105
MS.274         	9.967          	8.099
MS.275         	9.948          	8.093
MS.276         	9.927          	8.095
MS.277         	9.907          	8.107
MS.278         	9.887          	8.109
MS.279         	9.867          	7.996
MS.280         	9.85           	8.051
MS.281         	9.83           	8.097
MS.282         	9.81           	7.827
MS.283         	9.79           	8.018
MS.284         	9.77           	7.869
MS.285         	9.75           	8.002
MS.286         	9.733          	7.869
MS.287         	9.712          	7.944
MS.288         	9.693          	7.791
MS.289         	9.672          	7.976
MS.290         	9.655          	7.823
MS.291         	9.635          	7.422
MS.292         	9.615          	7.753
MS.293         	9.595          	8.067
MS.294         	9.577          	7.799
MS.295         	9.557          	7.938
MS.296         	9.537          	7.636
MS.297         	9.52           	7.626
MS.298         	9.5            	7.607
MS.299         	9.483          	7.475
MS.300         	9.462          	7.487
MS.301         	9.445          	7.366
MS.302         	9.425          	7.328
MS.303         	9.405          	7.283
MS.304         	9.387          	7.356
MS.305         	9.367          	7.287
MS.306         	9.35           	7.501
MS.307         	9.33           	7.479
MS.308         	9.312          	7.253
MS.309         	9.295          	7.241
MS.310         	9.275          	7.241
MS.311         	9.257          	7.199
MS.312         	9.238          	7.257
MS.313         	9.22           	7.058
MS.314         	9.202          	7.13
MS.315         	9.182          	7.136
MS.316         	9.165          	7.209
MS.317         	9.148          	7.223
MS.318         	9.127          	7.037
MS.319         	9.11           	7.088
MS.320         	9.092          	6.963
MS.321         	9.073          	7.12
MS.322         	9.055          	6.973
MS.323         	9.037          	6.915
MS.324         	9.02           	6.935
MS.325         	9              	6.933
MS.326         	8.983          	6.84
MS.327         	8.965          	6.965
MS.328         	8.948          	6.999
MS.329         	8.93           	6.751
MS.330         	8.912          	6.876
MS.331         	8.895          	6.957
MS.332         	8.875          	6.943
MS.333         	8.858          	6.669
MS.334         	8.84           	6.544
MS.335         	8.823          	6.649
MS.336         	8.805          	6.753
MS.337         	8.787          	6.365
MS.338         	8.77           	6.774
MS.339         	8.752          	6.915
MS.340         	8.735          	6.308
MS.341         	8.717          	6.153
MS.342         	8.7            	6.427
MS.343         	8.682          	6.401
MS.344         	8.665          	6.133
MS.345         	8.648          	6.272
MS.346         	8.63           	6.181
MS.347         	8.613          	6.107
MS.348         	8.597          	5.835
MS.349         	8.58           	5.75
MS.350         	8.562          	5.722
MS.351         	8.545          	5.664
MS.352         	8.528          	5.686
MS.353         	8.51           	5.483
MS.354         	8.495          	5.525
MS.355         	8.477          	5.436
MS.356         	8.46           	5.984
MS.357         	8.443          	5.638
MS.358         	8.427          	5.595
MS.359         	8.41           	5.831
MS.360         	8.392          	5.438
MS.361         	8.375          	5.279
MS.362         	8.36           	5.279
MS.363         	8.342          	5.313
MS.364         	8.325          	5.305
MS.365         	8.31           	5.303
MS.366         	8.292          	5.406
MS.367         	8.275          	5.247
MS.368         	8.26           	5.156
MS.369         	8.242          	5.207
MS.370         	8.227          	5.088
MS.371         	8.21           	5.227
MS.372         	8.193          	5.128
MS.373         	8.177          	4.864
MS.374         	8.16           	5.078
MS.375         	8.145          	4.77
MS.376         	8.127          	4.763
MS.377         	8.113          	4.768
MS.378         	8.095          	4.508
MS.379         	8.08           	4.681
MS.380         	8.062          	4.564
MS.381         	8.047          	4.296
MS.382         	8.033          	4.369
MS.383         	8.015          	4.258
MS.384         	8              	4.276
MS.385         	7.982          	4.105
MS.386         	7.967          	4.236
MS.387         	7.952          	3.817
MS.388         	7.935          	3.787
MS.389         	7.92           	3.75
MS.390         	7.905          	3.773
MS.391         	7.887          	3.775
MS.392         	7.872          	3.414
MS.393         	7.857          	3.468
MS.394         	7.84           	3.265
MS.395         	7.825          	3.573
MS.396         	7.81           	3.309
MS.397         	7.795          	3.356
MS.398         	7.777          	3.362
MS.399         	7.762          	3.281
MS.400         	7.747          	3.237
MS.401         	7.732          	3.17
MS.402         	7.717          	2.959
MS.403         	7.7            	3.033
MS.404         	7.685          	2.975
MS.405         	7.67           	3.12
MS.406         	7.655          	2.735
MS.407         	7.64           	2.955
MS.408         	7.625          	2.685
MS.409         	7.61           	2.542
MS.410         	7.595          	2.351
MS.411         	7.58           	2.578
MS.412         	7.562          	1.968
MS.413         	7.547          	2.417
MS.414         	7.532          	2.085
MS.415         	7.517          	1.702
MS.416         	7.503          	2.075
MS.417         	7.487          	1.293
MS.418         	7.472          	1.458
MS.419         	7.457          	1.513
MS.420         	7.442          	1.396
MS.421         	7.427          	1.625
MS.422         	7.415          	1.315
MS.423         	7.4            	1.027
MS.424         	7.385          	1.213
MS.425         	7.37           	1.156
MS.426         	7.355          	0.949
MS.427         	7.34           	1.339
MS.428         	7.325          	0.961
MS.429         	7.31           	0.965
MS.430         	7.295          	0.991
MS.431         	7.282          	0.848
MS.432         	7.267          	0.86
MS.433         	7.253          	0.876
MS.434         	7.237          	0.729
MS.435         	7.222          	0.665
MS.436         	7.21           	0.592
MS.437         	7.195          	0.657
MS.438         	7.18           	0.602
MS.439         	7.165          	0.689
MS.440         	7.152          	0.56
MS.441         	7.137          	0.485
MS.442         	7.122          	0.582
MS.443         	7.11           	0.641
MS.444         	7.095          	0.512
MS.445         	7.08           	0.423
MS.446         	7.067          	0.524
MS.447         	7.052          	0.506
MS.448         	7.037          	0.52
MS.449         	7.025          	0.371
MS.450         	7.01           	0.455
MS.451         	6.995          	0.504
MS.452         	6.983          	0.363
MS.453         	6.967          	0.427
MS.454         	6.955          	0.401
MS.455         	6.94           	0.413
MS.456         	6.927          	0.393
MS.457         	6.912          	0.367
MS.458         	6.9            	0.258
MS.459         	6.885          	0.31
MS.460         	6.872          	0.326
MS.461         	6.858          	0.189
MS.462         	6.845          	0.203
MS.463         	6.83           	0.318
MS.464         	6.817          	0.216
MS.465         	6.802          	0.28
MS.466         	6.79           	0.27
MS.467         	6.775          	0.296
MS.468         	6.762          	0.131
MS.469         	6.747          	0.187
MS.470         	6.735          	0.246
MS.471         	6.722          	0.185
MS.472         	6.707          	0.177
MS.473         	6.695          	0.115
MS.474         	6.682          	0.155
MS.475         	6.668          	0.119
MS.476         	6.655          	0.137
MS.477         	6.642          	0.141
MS.478         	6.628          	0.115
MS.479         	6.615          	0.135
MS.480         	6.602          	0.117
MS.481         	6.587          	0.155
MS.482         	6.575          	0.153
MS.483         	6.562          	0.139
MS.484         	6.55           	0.115
MS.485         	6.535          	0.113
MS.486         	6.523          	0.137
MS.487         	6.51           	0.089
MS.488         	6.497          	0.085
MS.489         	6.485          	0.113
MS.490         	6.47           	0.091
MS.491         	6.457          	0.109
MS.492         	6.445          	0.091
MS.493         	6.432          	0.093
MS.494         	6.42           	0.093
MS.495         	6.407          	0.089
MS.496         	6.395          	0.095
MS.497         	6.38           	0.093
MS.498         	6.367          	0.111
MS.499         	6.355          	0.093
MS.500         	6.342          	0.091
MS.501         	6.33           	0.117
