File:              	C:\Qtrac\Data\Daniel M Sørensen\MScan multicentre study\Data from centres\Roskilde\Folders with NC-examinations\ROS_N2a\TRC00227A.QZD
Name:              	DK.ROS.NC.2.1
Protocol:          	MSCAN-R2
Date:              	27/2/20
Start time:        	15:12:25
Age:               	54
Sex:               	M
Temperature:       	38,4
S/R sites:         	Median Wr-APB
NC/disease:        	NC
Operator:          	tr
Comments:
M-SCAN DATA (Repeat 2/2, 23.6-13.3m)
Scanpts: 342, 354, 934, 955
Stim. (mA)     	Amp. (mV)
MS.1           	15             	9.799
MS.2           	15             	9.801
MS.3           	15             	9.799
MS.4           	15             	9.777
MS.5           	15             	9.773
MS.6           	15             	9.765
MS.7           	15             	9.775
MS.8           	15             	9.761
MS.9           	15             	9.775
MS.10          	15             	9.777
MS.11          	15             	9.785
MS.12          	15             	9.791
MS.13          	15             	9.783
MS.14          	15             	9.771
MS.15          	15             	9.785
MS.16          	15             	9.785
MS.17          	15             	9.791
MS.18          	15             	9.769
MS.19          	15             	9.789
MS.20          	15             	9.779
MS.21          	15             	9.789
MS.22          	15             	9.775
MS.23          	15             	9.791
MS.24          	14.97          	9.793
MS.25          	14.94          	9.795
MS.26          	14.91          	9.793
MS.27          	14.88          	9.791
MS.28          	14.85          	9.781
MS.29          	14.82          	9.785
MS.30          	14.792         	9.795
MS.31          	14.762         	9.787
MS.32          	14.733         	9.801
MS.33          	14.702         	9.787
MS.34          	14.672         	9.777
MS.35          	14.645         	9.789
MS.36          	14.615         	9.793
MS.37          	14.585         	9.791
MS.38          	14.557         	9.767
MS.39          	14.527         	9.742
MS.40          	14.497         	9.767
MS.41          	14.47          	9.783
MS.42          	14.44          	9.791
MS.43          	14.412         	9.781
MS.44          	14.382         	9.785
MS.45          	14.355         	9.781
MS.46          	14.325         	9.795
MS.47          	14.297         	9.795
MS.48          	14.267         	9.797
MS.49          	14.24          	9.789
MS.50          	14.212         	9.797
MS.51          	14.182         	9.791
MS.52          	14.155         	9.801
MS.53          	14.127         	9.791
MS.54          	14.097         	9.791
MS.55          	14.07          	9.791
MS.56          	14.042         	9.789
MS.57          	14.015         	9.801
MS.58          	13.985         	9.803
MS.59          	13.957         	9.793
MS.60          	13.93          	9.797
MS.61          	13.903         	9.807
MS.62          	13.875         	9.797
MS.63          	13.847         	9.795
MS.64          	13.82          	9.807
MS.65          	13.792         	9.809
MS.66          	13.765         	9.811
MS.67          	13.737         	9.803
MS.68          	13.71          	9.793
MS.69          	13.682         	9.801
MS.70          	13.655         	9.801
MS.71          	13.627         	9.797
MS.72          	13.6           	9.795
MS.73          	13.572         	9.797
MS.74          	13.545         	9.807
MS.75          	13.517         	9.799
MS.76          	13.492         	9.807
MS.77          	13.465         	9.795
MS.78          	13.438         	9.799
MS.79          	13.41          	9.799
MS.80          	13.385         	9.797
MS.81          	13.358         	9.807
MS.82          	13.33          	9.805
MS.83          	13.305         	9.807
MS.84          	13.278         	9.801
MS.85          	13.25          	9.797
MS.86          	13.225         	9.809
MS.87          	13.197         	9.801
MS.88          	13.172         	9.805
MS.89          	13.145         	9.801
MS.90          	13.12          	9.801
MS.91          	13.092         	9.809
MS.92          	13.068         	9.815
MS.93          	13.04          	9.797
MS.94          	13.015         	9.813
MS.95          	12.987         	9.815
MS.96          	12.962         	9.811
MS.97          	12.938         	9.803
MS.98          	12.91          	9.813
MS.99          	12.885         	9.813
MS.100         	12.86          	9.801
MS.101         	12.832         	9.791
MS.102         	12.807         	9.799
MS.103         	12.782         	9.793
MS.104         	12.757         	9.779
MS.105         	12.73          	9.789
MS.106         	12.705         	9.801
MS.107         	12.68          	9.801
MS.108         	12.655         	9.791
MS.109         	12.63          	9.797
MS.110         	12.605         	9.789
MS.111         	12.58          	9.793
MS.112         	12.555         	9.801
MS.113         	12.53          	9.793
MS.114         	12.505         	9.793
MS.115         	12.48          	9.795
MS.116         	12.455         	9.789
MS.117         	12.43          	9.797
MS.118         	12.405         	9.785
MS.119         	12.38          	9.799
MS.120         	12.355         	9.789
MS.121         	12.33          	9.795
MS.122         	12.305         	9.797
MS.123         	12.28          	9.787
MS.124         	12.257         	9.791
MS.125         	12.233         	9.793
MS.126         	12.207         	9.797
MS.127         	12.182         	9.787
MS.128         	12.16          	9.797
MS.129         	12.135         	9.787
MS.130         	12.11          	9.769
MS.131         	12.085         	9.763
MS.132         	12.062         	9.783
MS.133         	12.037         	9.775
MS.134         	12.012         	9.773
MS.135         	11.99          	9.765
MS.136         	11.965         	9.765
MS.137         	11.943         	9.765
MS.138         	11.917         	9.799
MS.139         	11.895         	9.789
MS.140         	11.87          	9.803
MS.141         	11.847         	9.789
MS.142         	11.822         	9.809
MS.143         	11.8           	9.811
MS.144         	11.775         	9.807
MS.145         	11.752         	9.801
MS.146         	11.73          	9.797
MS.147         	11.705         	9.781
MS.148         	11.682         	9.773
MS.149         	11.657         	9.771
MS.150         	11.635         	9.767
MS.151         	11.613         	9.769
MS.152         	11.59          	9.779
MS.153         	11.565         	9.777
MS.154         	11.542         	9.779
MS.155         	11.52          	9.765
MS.156         	11.497         	9.769
MS.157         	11.472         	9.765
MS.158         	11.45          	9.773
MS.159         	11.427         	9.785
MS.160         	11.405         	9.781
MS.161         	11.382         	9.791
MS.162         	11.36          	9.763
MS.163         	11.337         	9.775
MS.164         	11.315         	9.728
MS.165         	11.292         	9.771
MS.166         	11.27          	9.779
MS.167         	11.247         	9.783
MS.168         	11.225         	9.763
MS.169         	11.202         	9.765
MS.170         	11.18          	9.763
MS.171         	11.157         	9.755
MS.172         	11.135         	9.765
MS.173         	11.113         	9.761
MS.174         	11.09          	9.771
MS.175         	11.068         	9.763
MS.176         	11.045         	9.769
MS.177         	11.023         	9.771
MS.178         	11.002         	9.779
MS.179         	10.98          	9.775
MS.180         	10.957         	9.783
MS.181         	10.935         	9.765
MS.182         	10.915         	9.777
MS.183         	10.892         	9.783
MS.184         	10.87          	9.775
MS.185         	10.85          	9.765
MS.186         	10.827         	9.777
MS.187         	10.805         	9.789
MS.188         	10.785         	9.787
MS.189         	10.762         	9.779
MS.190         	10.74          	9.773
MS.191         	10.72          	9.759
MS.192         	10.698         	9.785
MS.193         	10.677         	9.785
MS.194         	10.655         	9.799
MS.195         	10.635         	9.795
MS.196         	10.613         	9.799
MS.197         	10.592         	9.795
MS.198         	10.57          	9.793
MS.199         	10.55          	9.791
MS.200         	10.528         	9.803
MS.201         	10.507         	9.789
MS.202         	10.485         	9.791
MS.203         	10.465         	9.795
MS.204         	10.445         	9.797
MS.205         	10.422         	9.805
MS.206         	10.403         	9.779
MS.207         	10.382         	9.797
MS.208         	10.36          	9.785
MS.209         	10.34          	9.775
MS.210         	10.32          	9.789
MS.211         	10.3           	9.787
MS.212         	10.278         	9.775
MS.213         	10.257         	9.809
MS.214         	10.238         	9.791
MS.215         	10.217         	9.783
MS.216         	10.198         	9.787
MS.217         	10.175         	9.801
MS.218         	10.155         	9.805
MS.219         	10.135         	9.799
MS.220         	10.115         	9.793
MS.221         	10.095         	9.787
MS.222         	10.075         	9.793
MS.223         	10.055         	9.799
MS.224         	10.035         	9.801
MS.225         	10.015         	9.809
MS.226         	9.995          	9.807
MS.227         	9.975          	9.809
MS.228         	9.955          	9.809
MS.229         	9.935          	9.847
MS.230         	9.915          	9.881
MS.231         	9.895          	9.881
MS.232         	9.875          	9.857
MS.233         	9.855          	9.859
MS.234         	9.835          	9.843
MS.235         	9.818          	9.867
MS.236         	9.797          	9.859
MS.237         	9.778          	9.849
MS.238         	9.757          	9.853
MS.239         	9.738          	9.851
MS.240         	9.717          	9.857
MS.241         	9.7            	9.867
MS.242         	9.68           	9.877
MS.243         	9.66           	9.871
MS.244         	9.64           	9.885
MS.245         	9.622          	9.865
MS.246         	9.602          	9.873
MS.247         	9.582          	9.877
MS.248         	9.565          	9.879
MS.249         	9.545          	9.869
MS.250         	9.525          	9.881
MS.251         	9.507          	9.885
MS.252         	9.488          	9.869
MS.253         	9.47           	9.885
MS.254         	9.45           	9.873
MS.255         	9.432          	9.875
MS.256         	9.412          	9.881
MS.257         	9.395          	9.863
MS.258         	9.375          	9.871
MS.259         	9.358          	9.875
MS.260         	9.337          	9.885
MS.261         	9.32           	9.89
MS.262         	9.3            	9.888
MS.263         	9.283          	9.896
MS.264         	9.262          	9.894
MS.265         	9.245          	9.9
MS.266         	9.225          	9.902
MS.267         	9.207          	9.9
MS.268         	9.19           	9.908
MS.269         	9.17           	9.906
MS.270         	9.153          	9.89
MS.271         	9.135          	9.924
MS.272         	9.115          	9.894
MS.273         	9.097          	9.904
MS.274         	9.08           	9.916
MS.275         	9.062          	9.93
MS.276         	9.042          	9.976
MS.277         	9.025          	9.974
MS.278         	9.007          	9.92
MS.279         	8.99           	9.914
MS.280         	8.972          	9.95
MS.281         	8.952          	9.952
MS.282         	8.935          	9.964
MS.283         	8.917          	9.952
MS.284         	8.9            	9.97
MS.285         	8.882          	9.964
MS.286         	8.865          	9.948
MS.287         	8.847          	9.972
MS.288         	8.83           	9.98
MS.289         	8.812          	9.978
MS.290         	8.795          	9.962
MS.291         	8.778          	9.97
MS.292         	8.757          	9.98
MS.293         	8.74           	9.938
MS.294         	8.725          	9.948
MS.295         	8.707          	9.958
MS.296         	8.69           	9.948
MS.297         	8.672          	9.982
MS.298         	8.655          	9.994
MS.299         	8.637          	9.976
MS.300         	8.62           	9.994
MS.301         	8.602          	9.98
MS.302         	8.585          	9.95
MS.303         	8.568          	9.976
MS.304         	8.55           	9.996
MS.305         	8.535          	9.994
MS.306         	8.517          	9.996
MS.307         	8.5            	9.97
MS.308         	8.483          	9.974
MS.309         	8.465          	9.988
MS.310         	8.45           	9.99
MS.311         	8.432          	9.992
MS.312         	8.415          	9.994
MS.313         	8.398          	9.992
MS.314         	8.382          	9.986
MS.315         	8.365          	9.992
MS.316         	8.347          	10.002
MS.317         	8.332          	10.008
MS.318         	8.315          	10.008
MS.319         	8.297          	10.006
MS.320         	8.283          	10.016
MS.321         	8.265          	10.004
MS.322         	8.247          	10.018
MS.323         	8.233          	10.002
MS.324         	8.215          	10.006
MS.325         	8.2            	10.006
MS.326         	8.182          	10.006
MS.327         	8.167          	10.008
MS.328         	8.15           	10.022
MS.329         	8.135          	10.022
MS.330         	8.117          	9.996
MS.331         	8.102          	10.012
MS.332         	8.085          	10.018
MS.333         	8.07           	10.018
MS.334         	8.052          	10.029
MS.335         	8.037          	10.02
MS.336         	8.02           	10.008
MS.337         	8.005          	10.024
MS.338         	7.99           	10.022
MS.339         	7.972          	10.039
MS.340         	7.957          	10.022
MS.341         	7.94           	10.016
MS.342         	7.925          	10.012
MS.343         	7.91           	10.031
MS.344         	7.892          	10.02
MS.345         	7.878          	10.037
MS.346         	7.862          	10.022
MS.347         	7.847          	10.018
MS.348         	7.83           	10.037
MS.349         	7.815          	10.039
MS.350         	7.8            	10.02
MS.351         	7.785          	10.026
MS.352         	7.767          	10.035
MS.353         	7.753          	10.014
MS.354         	7.737          	10.024
MS.355         	7.722          	10.016
MS.356         	7.707          	9.914
MS.357         	7.69           	10.037
MS.358         	7.675          	10.045
MS.359         	7.66           	10.035
MS.360         	7.645          	10.047
MS.361         	7.63           	9.918
MS.362         	7.615          	10.049
MS.363         	7.6            	10.049
MS.364         	7.585          	9.934
MS.365         	7.57           	9.902
MS.366         	7.555          	10.053
MS.367         	7.537          	9.888
MS.368         	7.523          	10.057
MS.369         	7.507          	9.896
MS.370         	7.492          	9.91
MS.371         	7.477          	10.041
MS.372         	7.462          	10.043
MS.373         	7.45           	10.049
MS.374         	7.435          	9.894
MS.375         	7.42           	10.022
MS.376         	7.405          	10.031
MS.377         	7.39           	9.944
MS.378         	7.375          	9.942
MS.379         	7.36           	9.946
MS.380         	7.345          	9.91
MS.381         	7.33           	9.932
MS.382         	7.315          	9.988
MS.383         	7.302          	9.918
MS.384         	7.287          	9.944
MS.385         	7.273          	9.96
MS.386         	7.257          	9.916
MS.387         	7.242          	9.918
MS.388         	7.227          	9.954
MS.389         	7.215          	9.954
MS.390         	7.2            	9.944
MS.391         	7.185          	9.92
MS.392         	7.17           	9.851
MS.393         	7.157          	9.881
MS.394         	7.142          	9.841
MS.395         	7.128          	9.966
MS.396         	7.115          	9.861
MS.397         	7.1            	9.863
MS.398         	7.085          	9.96
MS.399         	7.072          	9.841
MS.400         	7.057          	9.855
MS.401         	7.043          	9.873
MS.402         	7.03           	9.863
MS.403         	7.015          	9.865
MS.404         	7              	9.851
MS.405         	6.987          	9.803
MS.406         	6.972          	9.815
MS.407         	6.96           	9.851
MS.408         	6.945          	9.809
MS.409         	6.932          	9.845
MS.410         	6.918          	9.805
MS.411         	6.902          	9.859
MS.412         	6.89           	9.811
MS.413         	6.875          	9.773
MS.414         	6.862          	9.751
MS.415         	6.847          	9.773
MS.416         	6.835          	9.783
MS.417         	6.822          	9.807
MS.418         	6.807          	9.819
MS.419         	6.795          	9.811
MS.420         	6.78           	9.821
MS.421         	6.767          	9.815
MS.422         	6.753          	9.789
MS.423         	6.74           	9.775
MS.424         	6.727          	9.759
MS.425         	6.712          	9.797
MS.426         	6.7            	9.765
MS.427         	6.685          	9.765
MS.428         	6.672          	9.765
MS.429         	6.66           	9.749
MS.430         	6.645          	9.742
MS.431         	6.632          	9.757
MS.432         	6.62           	9.755
MS.433         	6.608          	9.755
MS.434         	6.592          	9.749
MS.435         	6.58           	9.751
MS.436         	6.567          	9.742
MS.437         	6.555          	9.755
MS.438         	6.54           	9.771
MS.439         	6.527          	9.767
MS.440         	6.515          	9.765
MS.441         	6.503          	9.753
MS.442         	6.487          	9.749
MS.443         	6.475          	9.761
MS.444         	6.462          	9.718
MS.445         	6.45           	9.757
MS.446         	6.438          	9.742
MS.447         	6.425          	9.765
MS.448         	6.41           	9.624
MS.449         	6.398          	9.581
MS.450         	6.385          	9.63
MS.451         	6.372          	9.722
MS.452         	6.36           	9.763
MS.453         	6.347          	9.745
MS.454         	6.335          	9.734
MS.455         	6.322          	9.622
MS.456         	6.31           	9.618
MS.457         	6.297          	9.728
MS.458         	6.285          	9.738
MS.459         	6.273          	9.565
MS.460         	6.26           	9.614
MS.461         	6.247          	9.563
MS.462         	6.235          	9.567
MS.463         	6.222          	9.571
MS.464         	6.21           	9.666
MS.465         	6.197          	9.547
MS.466         	6.185          	9.553
MS.467         	6.172          	9.573
MS.468         	6.16           	9.412
MS.469         	6.148          	9.452
MS.470         	6.135          	9.38
MS.471         	6.122          	9.456
MS.472         	6.11           	9.392
MS.473         	6.097          	9.426
MS.474         	6.088          	9.452
MS.475         	6.075          	9.362
MS.476         	6.062          	9.469
MS.477         	6.05           	9.485
MS.478         	6.037          	9.489
MS.479         	6.025          	9.481
MS.480         	6.015          	9.422
MS.481         	6.003          	9.368
MS.482         	5.99           	9.473
MS.483         	5.977          	9.473
MS.484         	5.965          	9.477
MS.485         	5.955          	9.436
MS.486         	5.942          	9.469
MS.487         	5.93           	8.975
MS.488         	5.918          	9.467
MS.489         	5.907          	9.448
MS.490         	5.895          	9.358
MS.491         	5.882          	9.32
MS.492         	5.87           	9.031
MS.493         	5.86           	9.313
MS.494         	5.847          	9.311
MS.495         	5.835          	9.305
MS.496         	5.825          	8.945
MS.497         	5.812          	9.315
MS.498         	5.8            	9.297
