File:              	C:\Qtrac\Data\ME2C30710B.QZD
Name:              	 ST14N
Protocol:          	MSCAN-MV
Date:              	10/7/23
Date of birth:     	14/4/00
Age:               	23
Sex:               	M
Temperature:       	31.3
S/R sites:         	Knee CF-TA
NC/disease:        	NC
Operator:          	BY
Comments:
M-SCAN DATA (Repeat 3/3, 27.9-20.6m)
Scanpts: 13, 29, 491, 503
Stim. (mA)     	Amp. (mV)
MS.1           	20.5           	4.96
MS.2           	20.5           	4.969
MS.3           	20.5           	4.929
MS.4           	20.5           	4.932
MS.5           	20.5           	4.945
MS.6           	20.5           	4.93
MS.7           	20.5           	4.929
MS.8           	20.5           	4.932
MS.9           	20.5           	4.935
MS.10          	20.5           	4.893
MS.11          	20.5           	4.965
MS.12          	20.5           	4.941
MS.13          	20.5           	4.934
MS.14          	20.5           	4.943
MS.15          	20.5           	4.951
MS.16          	20.5           	4.976
MS.17          	20.5           	4.976
MS.18          	20.5           	4.927
MS.19          	20.5           	4.936
MS.20          	20.5           	4.965
MS.21          	20.5           	4.951
MS.22          	20.5           	4.982
MS.23          	20.5           	4.951
MS.24          	20.46          	4.937
MS.25          	20.417         	4.989
MS.26          	20.377         	4.974
MS.27          	20.337         	4.976
MS.28          	20.295         	4.962
MS.29          	20.255         	4.955
MS.30          	20.215         	4.977
MS.31          	20.175         	4.91
MS.32          	20.135         	4.913
MS.33          	20.095         	4.888
MS.34          	20.055         	4.939
MS.35          	20.015         	4.927
MS.36          	19.975         	4.976
MS.37          	19.935         	4.951
MS.38          	19.895         	4.961
MS.39          	19.855         	4.888
MS.40          	19.815         	4.87
MS.41          	19.775         	4.886
MS.42          	19.735         	4.875
MS.43          	19.695         	4.846
MS.44          	19.657         	4.892
MS.45          	19.618         	4.87
MS.46          	19.577         	4.877
MS.47          	19.54          	4.933
MS.48          	19.5           	4.98
MS.49          	19.46          	4.907
MS.50          	19.422         	4.905
MS.51          	19.382         	4.946
MS.52          	19.345         	4.942
MS.53          	19.305         	4.913
MS.54          	19.267         	4.91
MS.55          	19.23          	4.94
MS.56          	19.19          	4.923
MS.57          	19.153         	4.937
MS.58          	19.115         	4.918
MS.59          	19.075         	4.878
MS.60          	19.038         	4.885
MS.61          	19             	4.913
MS.62          	18.962         	4.937
MS.63          	18.925         	4.921
MS.64          	18.885         	4.94
MS.65          	18.847         	4.951
MS.66          	18.81          	4.933
MS.67          	18.772         	4.963
MS.68          	18.735         	4.897
MS.69          	18.698         	4.946
MS.70          	18.66          	4.929
MS.71          	18.622         	4.944
MS.72          	18.587         	4.877
MS.73          	18.55          	4.935
MS.74          	18.512         	4.918
MS.75          	18.475         	4.851
MS.76          	18.438         	4.857
MS.77          	18.403         	4.868
MS.78          	18.365         	4.914
MS.79          	18.327         	4.894
MS.80          	18.292         	4.893
MS.81          	18.255         	4.919
MS.82          	18.217         	4.871
MS.83          	18.182         	4.915
MS.84          	18.145         	4.901
MS.85          	18.11          	4.858
MS.86          	18.073         	4.893
MS.87          	18.038         	4.908
MS.88          	18             	4.873
MS.89          	17.965         	4.797
MS.90          	17.93          	4.88
MS.91          	17.892         	4.885
MS.92          	17.858         	4.886
MS.93          	17.823         	4.905
MS.94          	17.785         	4.916
MS.95          	17.75          	4.893
MS.96          	17.715         	4.862
MS.97          	17.68          	4.879
MS.98          	17.645         	4.899
MS.99          	17.61          	4.878
MS.100         	17.575         	4.858
MS.101         	17.54          	4.888
MS.102         	17.505         	4.866
MS.103         	17.47          	4.901
MS.104         	17.435         	4.842
MS.105         	17.4           	4.861
MS.106         	17.365         	4.864
MS.107         	17.33          	4.88
MS.108         	17.295         	4.885
MS.109         	17.26          	4.865
MS.110         	17.225         	4.868
MS.111         	17.192         	4.855
MS.112         	17.157         	4.835
MS.113         	17.122         	4.809
MS.114         	17.09          	4.821
MS.115         	17.055         	4.815
MS.116         	17.02          	4.821
MS.117         	16.987         	4.826
MS.118         	16.952         	4.891
MS.119         	16.92          	4.906
MS.120         	16.885         	4.832
MS.121         	16.85          	4.789
MS.122         	16.817         	4.848
MS.123         	16.785         	4.853
MS.124         	16.75          	4.818
MS.125         	16.717         	4.846
MS.126         	16.682         	4.828
MS.127         	16.65          	4.739
MS.128         	16.618         	4.759
MS.129         	16.585         	4.819
MS.130         	16.55          	4.773
MS.131         	16.517         	4.783
MS.132         	16.485         	4.803
MS.133         	16.452         	4.791
MS.134         	16.42          	4.783
MS.135         	16.385         	4.794
MS.136         	16.352         	4.775
MS.137         	16.32          	4.75
MS.138         	16.288         	4.773
MS.139         	16.255         	4.785
MS.140         	16.222         	4.826
MS.141         	16.19          	4.746
MS.142         	16.157         	4.731
MS.143         	16.125         	4.803
MS.144         	16.092         	4.702
MS.145         	16.062         	4.688
MS.146         	16.03          	4.692
MS.147         	15.997         	4.769
MS.148         	15.965         	4.694
MS.149         	15.932         	4.755
MS.150         	15.902         	4.684
MS.151         	15.87          	4.678
MS.152         	15.837         	4.703
MS.153         	15.807         	4.73
MS.154         	15.775         	4.677
MS.155         	15.742         	4.701
MS.156         	15.712         	4.695
MS.157         	15.68          	4.731
MS.158         	15.65          	4.631
MS.159         	15.617         	4.735
MS.160         	15.587         	4.599
MS.161         	15.555         	4.591
MS.162         	15.525         	4.564
MS.163         	15.492         	4.597
MS.164         	15.462         	4.572
MS.165         	15.432         	4.587
MS.166         	15.4           	4.613
MS.167         	15.37          	4.552
MS.168         	15.34          	4.548
MS.169         	15.31          	4.6
MS.170         	15.277         	4.599
MS.171         	15.247         	4.459
MS.172         	15.217         	4.465
MS.173         	15.188         	4.584
MS.174         	15.157         	4.443
MS.175         	15.125         	4.534
MS.176         	15.095         	4.571
MS.177         	15.065         	4.49
MS.178         	15.035         	4.478
MS.179         	15.005         	4.44
MS.180         	14.975         	4.427
MS.181         	14.945         	4.346
MS.182         	14.915         	4.544
MS.183         	14.885         	4.348
MS.184         	14.858         	4.474
MS.185         	14.827         	4.354
MS.186         	14.797         	4.429
MS.187         	14.767         	4.221
MS.188         	14.737         	4.338
MS.189         	14.707         	4.372
MS.190         	14.68          	4.375
MS.191         	14.65          	4.265
MS.192         	14.62          	4.247
MS.193         	14.592         	4.255
MS.194         	14.562         	4.15
MS.195         	14.532         	4.224
MS.196         	14.505         	4.116
MS.197         	14.475         	4.063
MS.198         	14.445         	4.217
MS.199         	14.417         	3.993
MS.200         	14.387         	3.953
MS.201         	14.36          	3.956
MS.202         	14.33          	4.02
MS.203         	14.302         	4.114
MS.204         	14.275         	3.993
MS.205         	14.245         	3.984
MS.206         	14.217         	3.984
MS.207         	14.188         	3.955
MS.208         	14.16          	3.887
MS.209         	14.132         	3.925
MS.210         	14.102         	3.904
MS.211         	14.075         	3.868
MS.212         	14.047         	3.795
MS.213         	14.02          	3.83
MS.214         	13.99          	3.877
MS.215         	13.962         	3.789
MS.216         	13.935         	3.737
MS.217         	13.907         	3.726
MS.218         	13.88          	3.815
MS.219         	13.852         	3.787
MS.220         	13.825         	3.652
MS.221         	13.797         	3.736
MS.222         	13.77          	3.69
MS.223         	13.742         	3.73
MS.224         	13.715         	3.661
MS.225         	13.688         	3.792
MS.226         	13.66          	3.661
MS.227         	13.632         	3.729
MS.228         	13.605         	3.786
MS.229         	13.577         	3.594
MS.230         	13.55          	3.599
MS.231         	13.523         	3.607
MS.232         	13.497         	3.568
MS.233         	13.47          	3.561
MS.234         	13.443         	3.563
MS.235         	13.415         	3.48
MS.236         	13.39          	3.473
MS.237         	13.362         	3.55
MS.238         	13.335         	3.439
MS.239         	13.31          	3.52
MS.240         	13.282         	3.392
MS.241         	13.255         	3.461
MS.242         	13.23          	3.424
MS.243         	13.202         	3.362
MS.244         	13.177         	3.38
MS.245         	13.15          	3.382
MS.246         	13.125         	3.395
MS.247         	13.097         	3.356
MS.248         	13.072         	3.322
MS.249         	13.045         	3.284
MS.250         	13.02          	3.239
MS.251         	12.992         	3.184
MS.252         	12.967         	3.207
MS.253         	12.943         	3.174
MS.254         	12.915         	3.254
MS.255         	12.89          	3.246
MS.256         	12.865         	3.13
MS.257         	12.837         	3.147
MS.258         	12.812         	3.133
MS.259         	12.787         	3.152
MS.260         	12.762         	3.088
MS.261         	12.735         	3.151
MS.262         	12.71          	3.045
MS.263         	12.685         	3.052
MS.264         	12.66          	3.059
MS.265         	12.635         	2.984
MS.266         	12.61          	2.934
MS.267         	12.585         	3.064
MS.268         	12.56          	3.069
MS.269         	12.532         	2.894
MS.270         	12.507         	2.819
MS.271         	12.483         	2.83
MS.272         	12.46          	2.825
MS.273         	12.435         	2.927
MS.274         	12.41          	2.783
MS.275         	12.385         	2.759
MS.276         	12.36          	2.695
MS.277         	12.335         	2.56
MS.278         	12.31          	2.592
MS.279         	12.285         	2.559
MS.280         	12.26          	2.585
MS.281         	12.238         	2.473
MS.282         	12.212         	2.518
MS.283         	12.188         	2.543
MS.284         	12.162         	2.413
MS.285         	12.14          	2.445
MS.286         	12.115         	2.428
MS.287         	12.09          	2.289
MS.288         	12.068         	2.372
MS.289         	12.042         	2.36
MS.290         	12.017         	2.315
MS.291         	11.995         	2.199
MS.292         	11.97          	2.097
MS.293         	11.947         	2.227
MS.294         	11.922         	2.064
MS.295         	11.898         	2.089
MS.296         	11.875         	2.014
MS.297         	11.85          	2.1
MS.298         	11.827         	2.053
MS.299         	11.805         	2.107
MS.300         	11.78          	1.982
MS.301         	11.757         	1.998
MS.302         	11.733         	1.9
MS.303         	11.71          	1.949
MS.304         	11.688         	1.964
MS.305         	11.662         	1.857
MS.306         	11.64          	1.768
MS.307         	11.617         	1.808
MS.308         	11.592         	1.817
MS.309         	11.57          	1.703
MS.310         	11.547         	1.719
MS.311         	11.525         	1.624
MS.312         	11.5           	1.641
MS.313         	11.477         	1.554
MS.314         	11.455         	1.525
MS.315         	11.432         	1.652
MS.316         	11.41          	1.575
MS.317         	11.387         	1.489
MS.318         	11.363         	1.404
MS.319         	11.34          	1.473
MS.320         	11.318         	1.401
MS.321         	11.295         	1.357
MS.322         	11.273         	1.273
MS.323         	11.25          	1.31
MS.324         	11.227         	1.277
MS.325         	11.205         	1.232
MS.326         	11.182         	1.37
MS.327         	11.16          	1.153
MS.328         	11.137         	1.181
MS.329         	11.117         	1.147
MS.330         	11.095         	1.144
MS.331         	11.073         	1.066
MS.332         	11.05          	1.104
MS.333         	11.028         	1.007
MS.334         	11.005         	1.099
MS.335         	10.985         	1.146
MS.336         	10.962         	1.049
MS.337         	10.94          	0.981
MS.338         	10.917         	1.008
MS.339         	10.898         	0.99
MS.340         	10.875         	0.865
MS.341         	10.852         	0.896
MS.342         	10.83          	0.775
MS.343         	10.81          	0.815
MS.344         	10.787         	0.828
MS.345         	10.767         	0.775
MS.346         	10.745         	0.701
MS.347         	10.722         	0.791
MS.348         	10.702         	0.727
MS.349         	10.68          	0.722
MS.350         	10.66          	0.752
MS.351         	10.637         	0.657
MS.352         	10.617         	0.624
MS.353         	10.595         	0.615
MS.354         	10.575         	0.577
MS.355         	10.552         	0.443
MS.356         	10.532         	0.499
MS.357         	10.51          	0.445
MS.358         	10.49          	0.45
MS.359         	10.47          	0.419
MS.360         	10.448         	0.362
MS.361         	10.427         	0.43
MS.362         	10.407         	0.384
MS.363         	10.385         	0.316
MS.364         	10.365         	0.311
MS.365         	10.345         	0.292
MS.366         	10.323         	0.236
MS.367         	10.302         	0.24
MS.368         	10.282         	0.206
MS.369         	10.262         	0.236
MS.370         	10.242         	0.24
MS.371         	10.22          	0.162
MS.372         	10.2           	0.165
MS.373         	10.18          	0.179
MS.374         	10.16          	0.032
MS.375         	10.14          	0.072
MS.376         	10.12          	0.07
MS.377         	10.1           	0.154
MS.378         	10.077         	0.093
MS.379         	10.057         	-0.024
MS.380         	10.037         	-0.049
MS.381         	10.017         	-0.035
MS.382         	9.997          	-0.087
MS.383         	9.977          	-0.005
MS.384         	9.957          	0.016
MS.385         	9.938          	-0.186
MS.386         	9.917          	-0.123
MS.387         	9.9            	-0.152
MS.388         	9.88           	-0.168
MS.389         	9.86           	-0.132
MS.390         	9.84           	-0.063
MS.391         	9.82           	-0.137
MS.392         	9.8            	-0.086
MS.393         	9.78           	-0.264
MS.394         	9.762          	-0.11
MS.395         	9.742          	-0.247
MS.396         	9.722          	-0.275
MS.397         	9.702          	-0.267
MS.398         	9.682          	-0.297
MS.399         	9.665          	-0.248
MS.400         	9.645          	-0.276
MS.401         	9.625          	-0.289
MS.402         	9.608          	-0.304
MS.403         	9.587          	-0.333
MS.404         	9.568          	-0.414
MS.405         	9.55           	-0.352
MS.406         	9.53           	-0.369
MS.407         	9.51           	-0.408
MS.408         	9.492          	-0.414
MS.409         	9.472          	-0.41
MS.410         	9.455          	-0.457
MS.411         	9.435          	-0.454
MS.412         	9.415          	-0.43
MS.413         	9.398          	-0.467
MS.414         	9.377          	-0.514
MS.415         	9.36           	-0.533
MS.416         	9.34           	-0.317
MS.417         	9.323          	-0.529
MS.418         	9.305          	-0.591
MS.419         	9.285          	-0.543
MS.420         	9.267          	-0.574
MS.421         	9.247          	-0.598
MS.422         	9.23           	-0.565
MS.423         	9.21           	-0.625
MS.424         	9.193          	-0.583
MS.425         	9.175          	-0.598
MS.426         	9.155          	-0.596
MS.427         	9.137          	-0.584
MS.428         	9.12           	-0.627
MS.429         	9.102          	-0.641
MS.430         	9.082          	-0.629
MS.431         	9.065          	-0.613
MS.432         	9.047          	-0.641
MS.433         	9.03           	-0.591
MS.434         	9.01           	-0.681
MS.435         	8.992          	-0.64
MS.436         	8.975          	-0.613
MS.437         	8.957          	-0.681
MS.438         	8.94           	-0.694
MS.439         	8.92           	-0.717
MS.440         	8.903          	-0.654
MS.441         	8.885          	-0.694
MS.442         	8.867          	-0.694
MS.443         	8.85           	-0.672
MS.444         	8.832          	-0.71
MS.445         	8.815          	-0.743
MS.446         	8.797          	-0.718
MS.447         	8.78           	-0.72
MS.448         	8.762          	-0.742
MS.449         	8.745          	-0.728
MS.450         	8.727          	-0.716
MS.451         	8.71           	-0.764
MS.452         	8.693          	-0.758
MS.453         	8.675          	-0.789
MS.454         	8.658          	-0.709
MS.455         	8.64           	-0.798
MS.456         	8.622          	-0.811
MS.457         	8.605          	-0.749
MS.458         	8.587          	-0.776
MS.459         	8.573          	-0.742
MS.460         	8.555          	-0.778
MS.461         	8.537          	-0.815
MS.462         	8.52           	-0.786
MS.463         	8.502          	-0.822
MS.464         	8.485          	-0.759
MS.465         	8.47           	-0.798
MS.466         	8.452          	-0.803
MS.467         	8.435          	-0.831
MS.468         	8.417          	-0.803
MS.469         	8.403          	-0.793
MS.470         	8.385          	-0.809
MS.471         	8.367          	-0.801
MS.472         	8.352          	-0.803
MS.473         	8.335          	-0.809
MS.474         	8.318          	-0.837
MS.475         	8.302          	-0.811
MS.476         	8.285          	-0.84
MS.477         	8.267          	-0.829
MS.478         	8.252          	-0.848
MS.479         	8.235          	-0.792
MS.480         	8.22           	-0.847
MS.481         	8.202          	-0.848
MS.482         	8.185          	-0.875
MS.483         	8.17           	-0.841
MS.484         	8.153          	-0.891
MS.485         	8.137          	-0.869
MS.486         	8.12           	-0.868
MS.487         	8.105          	-0.905
MS.488         	8.087          	-0.853
MS.489         	8.073          	-0.837
MS.490         	8.055          	-0.84
MS.491         	8.04           	-0.887
MS.492         	8.025          	-0.89
MS.493         	8.007          	-0.893
MS.494         	7.992          	-0.87
MS.495         	7.975          	-0.889
MS.496         	7.96           	-0.891
MS.497         	7.945          	-0.898
MS.498         	7.927          	-0.869
MS.499         	7.912          	-0.882
MS.500         	7.898          	-0.882
