File:              	C:\Qtrac\Data\ME2C30712B.QZD
Name:              	 ME14L
Protocol:          	MSCAN-MV
Date:              	12/7/23
Date of birth:     	14/6/01
Age:               	22
Sex:               	M
Temperature:       	33.2
S/R sites:         	Knee CF-TA
NC/disease:        	NC
Operator:          	BY
Comments:
M-SCAN DATA (Repeat 2/3, 15.9-10.1m)
Scanpts: 17, 27, 426, 434
Stim. (mA)     	Amp. (mV)
MS.1           	17.5           	4.598
MS.2           	17.5           	4.591
MS.3           	17.5           	4.631
MS.4           	17.5           	4.646
MS.5           	17.5           	4.646
MS.6           	17.5           	4.671
MS.7           	17.5           	4.688
MS.8           	17.5           	4.666
MS.9           	17.5           	4.696
MS.10          	17.5           	4.614
MS.11          	17.5           	4.634
MS.12          	17.5           	4.68
MS.13          	17.5           	4.597
MS.14          	17.5           	4.618
MS.15          	17.5           	4.612
MS.16          	17.5           	4.646
MS.17          	17.5           	4.576
MS.18          	17.5           	4.635
MS.19          	17.5           	4.619
MS.20          	17.5           	4.614
MS.21          	17.5           	4.615
MS.22          	17.5           	4.671
MS.23          	17.5           	4.567
MS.24          	17.465         	4.63
MS.25          	17.43          	4.631
MS.26          	17.395         	4.635
MS.27          	17.36          	4.592
MS.28          	17.325         	4.629
MS.29          	17.292         	4.594
MS.30          	17.257         	4.617
MS.31          	17.222         	4.624
MS.32          	17.188         	4.631
MS.33          	17.153         	4.599
MS.34          	17.12          	4.604
MS.35          	17.085         	4.651
MS.36          	17.05          	4.592
MS.37          	17.017         	4.584
MS.38          	16.983         	4.598
MS.39          	16.95          	4.6
MS.40          	16.915         	4.587
MS.41          	16.88          	4.592
MS.42          	16.847         	4.606
MS.43          	16.815         	4.584
MS.44          	16.78          	4.543
MS.45          	16.747         	4.556
MS.46          	16.712         	4.534
MS.47          	16.68          	4.561
MS.48          	16.647         	4.582
MS.49          	16.612         	4.517
MS.50          	16.58          	4.519
MS.51          	16.547         	4.569
MS.52          	16.515         	4.531
MS.53          	16.48          	4.545
MS.54          	16.448         	4.528
MS.55          	16.415         	4.54
MS.56          	16.382         	4.55
MS.57          	16.35          	4.539
MS.58          	16.317         	4.462
MS.59          	16.285         	4.56
MS.60          	16.253         	4.465
MS.61          	16.22          	4.548
MS.62          	16.188         	4.5
MS.63          	16.155         	4.551
MS.64          	16.122         	4.5
MS.65          	16.09          	4.524
MS.66          	16.057         	4.426
MS.67          	16.025         	4.546
MS.68          	15.995         	4.436
MS.69          	15.962         	4.434
MS.70          	15.93          	4.502
MS.71          	15.898         	4.507
MS.72          	15.867         	4.512
MS.73          	15.835         	4.577
MS.74          	15.802         	4.526
MS.75          	15.773         	4.479
MS.76          	15.74          	4.558
MS.77          	15.707         	4.41
MS.78          	15.677         	4.42
MS.79          	15.645         	4.462
MS.80          	15.615         	4.438
MS.81          	15.582         	4.445
MS.82          	15.552         	4.403
MS.83          	15.52          	4.427
MS.84          	15.49          	4.452
MS.85          	15.46          	4.41
MS.86          	15.427         	4.35
MS.87          	15.398         	4.378
MS.88          	15.367         	4.326
MS.89          	15.335         	4.355
MS.90          	15.305         	4.38
MS.91          	15.275         	4.218
MS.92          	15.245         	4.227
MS.93          	15.215         	4.245
MS.94          	15.182         	4.207
MS.95          	15.152         	4.188
MS.96          	15.122         	4.218
MS.97          	15.092         	4.216
MS.98          	15.062         	4.216
MS.99          	15.032         	4.194
MS.100         	15.002         	4.212
MS.101         	14.972         	4.178
MS.102         	14.943         	4.219
MS.103         	14.912         	4.207
MS.104         	14.882         	4.254
MS.105         	14.852         	4.262
MS.106         	14.822         	4.232
MS.107         	14.792         	4.188
MS.108         	14.765         	4.182
MS.109         	14.735         	4.201
MS.110         	14.705         	4.182
MS.111         	14.675         	4.119
MS.112         	14.648         	4.212
MS.113         	14.617         	4.194
MS.114         	14.587         	4.196
MS.115         	14.56          	4.176
MS.116         	14.53          	4.092
MS.117         	14.5           	4.133
MS.118         	14.472         	4.202
MS.119         	14.443         	4.16
MS.120         	14.415         	4.14
MS.121         	14.385         	4.143
MS.122         	14.358         	4.144
MS.123         	14.327         	4.164
MS.124         	14.3           	4.125
MS.125         	14.27          	4.149
MS.126         	14.242         	4.175
MS.127         	14.212         	4.129
MS.128         	14.185         	3.992
MS.129         	14.157         	4.139
MS.130         	14.127         	4.113
MS.131         	14.1           	4.143
MS.132         	14.072         	4.124
MS.133         	14.045         	4.036
MS.134         	14.015         	4.094
MS.135         	13.987         	3.997
MS.136         	13.96          	4.006
MS.137         	13.932         	4.037
MS.138         	13.905         	3.943
MS.139         	13.877         	3.99
MS.140         	13.85          	3.882
MS.141         	13.82          	3.818
MS.142         	13.792         	4.066
MS.143         	13.765         	3.848
MS.144         	13.737         	3.969
MS.145         	13.71          	3.824
MS.146         	13.682         	3.912
MS.147         	13.657         	3.718
MS.148         	13.63          	3.898
MS.149         	13.602         	3.837
MS.150         	13.575         	3.848
MS.151         	13.547         	3.646
MS.152         	13.52          	3.739
MS.153         	13.492         	3.74
MS.154         	13.467         	3.557
MS.155         	13.44          	3.561
MS.156         	13.412         	3.61
MS.157         	13.385         	3.493
MS.158         	13.36          	3.61
MS.159         	13.332         	3.535
MS.160         	13.305         	3.565
MS.161         	13.28          	3.593
MS.162         	13.252         	3.588
MS.163         	13.225         	3.523
MS.164         	13.2           	3.459
MS.165         	13.172         	3.419
MS.166         	13.148         	3.502
MS.167         	13.12          	3.368
MS.168         	13.095         	3.261
MS.169         	13.068         	3.284
MS.170         	13.042         	3.331
MS.171         	13.017         	3.292
MS.172         	12.99          	3.275
MS.173         	12.965         	3.127
MS.174         	12.938         	3.226
MS.175         	12.912         	3.334
MS.176         	12.887         	3.202
MS.177         	12.86          	3.073
MS.178         	12.835         	3.164
MS.179         	12.81          	2.981
MS.180         	12.785         	3.173
MS.181         	12.757         	3.076
MS.182         	12.733         	3.149
MS.183         	12.707         	2.98
MS.184         	12.682         	3.016
MS.185         	12.657         	2.988
MS.186         	12.632         	2.774
MS.187         	12.608         	2.787
MS.188         	12.58          	2.867
MS.189         	12.555         	2.776
MS.190         	12.53          	2.853
MS.191         	12.505         	2.819
MS.192         	12.48          	2.802
MS.193         	12.455         	2.853
MS.194         	12.43          	2.815
MS.195         	12.405         	2.698
MS.196         	12.382         	2.841
MS.197         	12.358         	2.838
MS.198         	12.332         	2.676
MS.199         	12.307         	2.776
MS.200         	12.282         	2.739
MS.201         	12.257         	2.836
MS.202         	12.235         	2.651
MS.203         	12.21          	2.737
MS.204         	12.185         	2.683
MS.205         	12.16          	2.527
MS.206         	12.137         	2.601
MS.207         	12.113         	2.591
MS.208         	12.087         	2.521
MS.209         	12.062         	2.567
MS.210         	12.04          	2.497
MS.211         	12.015         	2.521
MS.212         	11.992         	2.643
MS.213         	11.967         	2.435
MS.214         	11.943         	2.5
MS.215         	11.92          	2.407
MS.216         	11.895         	2.438
MS.217         	11.872         	2.458
MS.218         	11.847         	2.457
MS.219         	11.825         	2.479
MS.220         	11.8           	2.343
MS.221         	11.778         	2.339
MS.222         	11.755         	2.327
MS.223         	11.73          	2.41
MS.224         	11.707         	2.244
MS.225         	11.685         	2.306
MS.226         	11.66          	2.308
MS.227         	11.637         	2.334
MS.228         	11.615         	2.336
MS.229         	11.59          	2.109
MS.230         	11.568         	2.182
MS.231         	11.545         	2.187
MS.232         	11.523         	2.208
MS.233         	11.497         	2.018
MS.234         	11.475         	2.14
MS.235         	11.452         	2.061
MS.236         	11.43          	2.023
MS.237         	11.407         	2.087
MS.238         	11.385         	1.993
MS.239         	11.36          	2.086
MS.240         	11.337         	1.99
MS.241         	11.315         	1.973
MS.242         	11.292         	1.99
MS.243         	11.27          	1.837
MS.244         	11.247         	1.956
MS.245         	11.225         	2.048
MS.246         	11.202         	1.942
MS.247         	11.18          	1.763
MS.248         	11.157         	1.836
MS.249         	11.135         	1.888
MS.250         	11.115         	1.909
MS.251         	11.092         	1.819
MS.252         	11.07          	1.696
MS.253         	11.047         	1.972
MS.254         	11.025         	1.975
MS.255         	11.002         	1.758
MS.256         	10.983         	1.688
MS.257         	10.96          	1.768
MS.258         	10.938         	1.744
MS.259         	10.915         	1.691
MS.260         	10.895         	1.659
MS.261         	10.872         	1.624
MS.262         	10.85          	1.572
MS.263         	10.827         	1.473
MS.264         	10.807         	1.586
MS.265         	10.785         	1.569
MS.266         	10.765         	1.497
MS.267         	10.742         	1.429
MS.268         	10.72          	1.541
MS.269         	10.7           	1.339
MS.270         	10.677         	1.426
MS.271         	10.657         	1.428
MS.272         	10.635         	1.37
MS.273         	10.615         	1.289
MS.274         	10.592         	1.313
MS.275         	10.573         	1.349
MS.276         	10.55          	1.381
MS.277         	10.53          	1.26
MS.278         	10.507         	1.243
MS.279         	10.488         	1.114
MS.280         	10.467         	1.172
MS.281         	10.445         	1.027
MS.282         	10.425         	1.024
MS.283         	10.405         	0.861
MS.284         	10.382         	0.881
MS.285         	10.363         	0.851
MS.286         	10.342         	0.956
MS.287         	10.32          	0.695
MS.288         	10.3           	0.707
MS.289         	10.28          	0.785
MS.290         	10.26          	0.898
MS.291         	10.24          	0.733
MS.292         	10.217         	0.669
MS.293         	10.198         	0.72
MS.294         	10.177         	0.55
MS.295         	10.157         	0.546
MS.296         	10.137         	0.559
MS.297         	10.117         	0.463
MS.298         	10.097         	0.322
MS.299         	10.077         	0.475
MS.300         	10.057         	0.311
MS.301         	10.035         	0.359
MS.302         	10.015         	0.3
MS.303         	9.995          	0.503
MS.304         	9.975          	0.364
MS.305         	9.955          	0.409
MS.306         	9.938          	0.268
MS.307         	9.917          	0.176
MS.308         	9.898          	0.175
MS.309         	9.877          	0.17
MS.310         	9.858          	0.272
MS.311         	9.837          	0.234
MS.312         	9.818          	0.258
MS.313         	9.797          	0.242
MS.314         	9.778          	-0.001
MS.315         	9.76           	0.143
MS.316         	9.74           	0.095
MS.317         	9.72           	-0.039
MS.318         	9.7            	-0.036
MS.319         	9.682          	0.01
MS.320         	9.662          	-0.018
MS.321         	9.642          	-0.059
MS.322         	9.622          	-0.255
MS.323         	9.605          	-0.101
MS.324         	9.585          	-0.138
MS.325         	9.565          	-0.059
MS.326         	9.547          	-0.281
MS.327         	9.528          	-0.204
MS.328         	9.507          	-0.152
MS.329         	9.49           	-0.19
MS.330         	9.47           	-0.275
MS.331         	9.452          	-0.191
MS.332         	9.432          	-0.236
MS.333         	9.415          	-0.267
MS.334         	9.395          	-0.178
MS.335         	9.377          	-0.254
MS.336         	9.358          	-0.258
MS.337         	9.34           	-0.296
MS.338         	9.32           	-0.237
MS.339         	9.302          	-0.28
MS.340         	9.283          	-0.323
MS.341         	9.265          	-0.403
MS.342         	9.245          	-0.323
MS.343         	9.227          	-0.383
MS.344         	9.21           	-0.399
MS.345         	9.19           	-0.414
MS.346         	9.172          	-0.386
MS.347         	9.155          	-0.43
MS.348         	9.135          	-0.496
MS.349         	9.117          	-0.432
MS.350         	9.1            	-0.345
MS.351         	9.08           	-0.433
MS.352         	9.062          	-0.416
MS.353         	9.045          	-0.369
MS.354         	9.028          	-0.436
MS.355         	9.01           	-0.503
MS.356         	8.99           	-0.518
MS.357         	8.972          	-0.471
MS.358         	8.955          	-0.522
MS.359         	8.938          	-0.486
MS.360         	8.92           	-0.562
MS.361         	8.903          	-0.526
MS.362         	8.882          	-0.569
MS.363         	8.865          	-0.546
MS.364         	8.847          	-0.602
MS.365         	8.83           	-0.489
MS.366         	8.812          	-0.591
MS.367         	8.795          	-0.494
MS.368         	8.778          	-0.652
MS.369         	8.76           	-0.575
MS.370         	8.742          	-0.525
MS.371         	8.725          	-0.566
MS.372         	8.707          	-0.637
MS.373         	8.69           	-0.615
MS.374         	8.672          	-0.627
MS.375         	8.655          	-0.627
MS.376         	8.637          	-0.622
MS.377         	8.62           	-0.751
MS.378         	8.605          	-0.793
MS.379         	8.587          	-0.61
MS.380         	8.57           	-0.68
MS.381         	8.552          	-0.701
MS.382         	8.535          	-0.683
MS.383         	8.517          	-0.726
MS.384         	8.5            	-0.696
MS.385         	8.485          	-0.686
MS.386         	8.467          	-0.756
MS.387         	8.45           	-0.673
MS.388         	8.432          	-0.691
MS.389         	8.417          	-0.717
MS.390         	8.4            	-0.723
MS.391         	8.382          	-0.832
MS.392         	8.365          	-0.841
MS.393         	8.35           	-0.834
MS.394         	8.332          	-0.933
MS.395         	8.315          	-0.852
MS.396         	8.3            	-0.881
MS.397         	8.283          	-0.885
MS.398         	8.267          	-0.873
MS.399         	8.25           	-0.795
MS.400         	8.233          	-0.842
MS.401         	8.217          	-0.376
MS.402         	8.2            	-0.923
MS.403         	8.185          	-0.904
MS.404         	8.167          	-0.939
MS.405         	8.153          	-0.977
MS.406         	8.135          	-0.964
MS.407         	8.12           	-0.914
MS.408         	8.102          	-0.955
MS.409         	8.087          	-0.905
MS.410         	8.07           	-0.859
MS.411         	8.055          	-0.935
MS.412         	8.037          	-0.935
MS.413         	8.023          	-0.972
MS.414         	8.005          	-0.977
MS.415         	7.99           	-0.856
MS.416         	7.975          	-0.93
MS.417         	7.957          	-0.881
MS.418         	7.942          	-0.94
MS.419         	7.927          	-0.953
MS.420         	7.91           	-0.961
MS.421         	7.895          	-0.869
MS.422         	7.88           	-0.933
MS.423         	7.862          	-0.967
MS.424         	7.847          	-0.97
MS.425         	7.832          	-0.966
MS.426         	7.815          	-0.902
MS.427         	7.8            	-0.938
MS.428         	7.785          	-0.925
MS.429         	7.77           	-0.901
MS.430         	7.755          	-0.916
MS.431         	7.737          	-0.939
MS.432         	7.722          	-0.901
MS.433         	7.707          	-0.908
MS.434         	7.692          	-0.891
MS.435         	7.677          	-0.89
MS.436         	7.662          	-0.878
MS.437         	7.645          	-0.884
MS.438         	7.63           	-0.882
MS.439         	7.615          	-0.885
MS.440         	7.6            	-0.923
MS.441         	7.585          	-0.854
MS.442         	7.57           	-0.899
MS.443         	7.555          	-0.878
MS.444         	7.54           	-0.865
MS.445         	7.525          	-0.909
MS.446         	7.51           	-0.881
MS.447         	7.495          	-0.869
MS.448         	7.48           	-0.842
MS.449         	7.465          	-0.903
MS.450         	7.45           	-0.861
MS.451         	7.435          	-0.882
MS.452         	7.42           	-0.874
MS.453         	7.405          	-0.836
MS.454         	7.39           	-0.857
MS.455         	7.375          	-0.883
MS.456         	7.36           	-0.867
MS.457         	7.347          	-0.843
MS.458         	7.332          	-0.898
MS.459         	7.317          	-0.834
MS.460         	7.302          	-0.837
MS.461         	7.287          	-0.873
MS.462         	7.273          	-0.849
MS.463         	7.257          	-0.809
MS.464         	7.245          	-0.789
MS.465         	7.23           	-0.809
MS.466         	7.215          	-0.814
MS.467         	7.2            	-0.782
MS.468         	7.188          	-0.814
MS.469         	7.172          	-0.834
MS.470         	7.157          	-0.781
MS.471         	7.142          	-0.804
MS.472         	7.13           	-0.818
MS.473         	7.115          	-0.789
MS.474         	7.1            	-0.804
MS.475         	7.087          	-0.79
MS.476         	7.072          	-0.798
MS.477         	7.057          	-0.794
MS.478         	7.045          	-0.841
MS.479         	7.03           	-0.817
MS.480         	7.015          	-0.834
MS.481         	7.003          	-0.8
DERIVED EXCITABILITY VARIABLES
Program = QTracP 27/06/2023
Threshold method = 6 (optimised for CAP, using data for present condition only)
SR method = 1 (using actual data values)
6.                 	0.000               	Peak response\(mV)
9.                 	33.2                	Temperature ( C)
17.                	22                  	Age (years)
18.                	1                   	Sex (M=1, F=2)

EXTRA VARIABLES

MScPeak(mV) = 5.45
MScS5(mA) = 9.94
MScS50(mA) = 12.3
MScNSteps = 2
MScSteps(%) = 4.1
MScStepMax(%) = 2.1
MScD50 = 60
MScSlope = 3.55
MScDuration(min) = 6.4
MSFTraces = 418
MSFPeakAmp(mV) = 5.53
MSFNUnits = 117
MSFMeanUnitAmp(uV) = 47.3
