File:              	C:\Qtrac\Data\ME2C30630A.QZD
Name:              	 SO09N
Protocol:          	MSCAN-MV
Date:              	30/6/23
Date of birth:     	9/6/00
Age:               	23
Sex:               	M
Temperature:       	32.5
S/R sites:         	Knee CF-TA
NC/disease:        	NC
Operator:          	BY
Comments:
M-SCAN DATA (Repeat 3/3, 34.3-26.6m)
Scanpts: 50, 65, 486, 512
Stim. (mA)     	Amp. (mV)
MS.1           	13.5           	7.127
MS.2           	13.5           	7.054
MS.3           	13.5           	7.125
MS.4           	13.5           	7.072
MS.5           	13.5           	7.043
MS.6           	13.5           	7.079
MS.7           	13.5           	7.045
MS.8           	13.5           	7.076
MS.9           	13.5           	7.05
MS.10          	13.5           	7.037
MS.11          	13.5           	7.047
MS.12          	13.5           	7.05
MS.13          	13.5           	7.062
MS.14          	13.5           	7.06
MS.15          	13.5           	7.043
MS.16          	13.5           	7.026
MS.17          	13.5           	7.019
MS.18          	13.5           	7.013
MS.19          	13.5           	7.053
MS.20          	13.5           	7.028
MS.21          	13.5           	7.038
MS.22          	13.5           	7.046
MS.23          	13.5           	7.045
MS.24          	13.472         	7.014
MS.25          	13.445         	7.05
MS.26          	13.42          	7.068
MS.27          	13.392         	7.067
MS.28          	13.365         	7.053
MS.29          	13.34          	7.065
MS.30          	13.312         	7.072
MS.31          	13.285         	7.058
MS.32          	13.26          	7.072
MS.33          	13.233         	7.082
MS.34          	13.205         	7.089
MS.35          	13.18          	7.103
MS.36          	13.153         	7.048
MS.37          	13.127         	7.09
MS.38          	13.1           	7.079
MS.39          	13.075         	7.061
MS.40          	13.047         	7.104
MS.41          	13.023         	7.072
MS.42          	12.997         	7.079
MS.43          	12.97          	7.076
MS.44          	12.945         	7.095
MS.45          	12.92          	7.068
MS.46          	12.892         	7.081
MS.47          	12.867         	7.09
MS.48          	12.842         	7.085
MS.49          	12.815         	7.079
MS.50          	12.79          	7.079
MS.51          	12.765         	7.117
MS.52          	12.74          	7.122
MS.53          	12.715         	7.097
MS.54          	12.688         	7.089
MS.55          	12.662         	7.063
MS.56          	12.637         	7.12
MS.57          	12.613         	7.078
MS.58          	12.587         	7.066
MS.59          	12.562         	7.103
MS.60          	12.537         	7.077
MS.61          	12.512         	7.047
MS.62          	12.488         	7.087
MS.63          	12.462         	7.105
MS.64          	12.438         	7.131
MS.65          	12.412         	7.029
MS.66          	12.387         	7.067
MS.67          	12.363         	7.091
MS.68          	12.337         	7.072
MS.69          	12.312         	7.089
MS.70          	12.29          	7.062
MS.71          	12.265         	7.057
MS.72          	12.24          	7.007
MS.73          	12.215         	7.082
MS.74          	12.19          	7.032
MS.75          	12.167         	7.094
MS.76          	12.142         	7.016
MS.77          	12.117         	7.056
MS.78          	12.095         	7.066
MS.79          	12.07          	7.036
MS.80          	12.045         	7.059
MS.81          	12.023         	7.029
MS.82          	11.997         	7.009
MS.83          	11.972         	6.984
MS.84          	11.95          	7.033
MS.85          	11.925         	7.047
MS.86          	11.903         	7.056
MS.87          	11.877         	7.037
MS.88          	11.855         	7.006
MS.89          	11.83          	7.072
MS.90          	11.807         	7.037
MS.91          	11.782         	7.033
MS.92          	11.76          	7.063
MS.93          	11.738         	7.012
MS.94          	11.712         	7.007
MS.95          	11.69          	7.023
MS.96          	11.665         	7.045
MS.97          	11.642         	7.027
MS.98          	11.62          	7.06
MS.99          	11.597         	6.998
MS.100         	11.572         	7.054
MS.101         	11.55          	7.005
MS.102         	11.528         	7.045
MS.103         	11.505         	7
MS.104         	11.48          	7.028
MS.105         	11.457         	6.954
MS.106         	11.435         	7.014
MS.107         	11.412         	6.974
MS.108         	11.39          	6.994
MS.109         	11.367         	6.994
MS.110         	11.345         	7.004
MS.111         	11.322         	7.004
MS.112         	11.297         	6.967
MS.113         	11.275         	6.978
MS.114         	11.252         	6.958
MS.115         	11.23          	6.972
MS.116         	11.207         	7.014
MS.117         	11.188         	6.962
MS.118         	11.165         	7.001
MS.119         	11.142         	7.011
MS.120         	11.12          	6.965
MS.121         	11.097         	7.025
MS.122         	11.075         	6.974
MS.123         	11.052         	6.954
MS.124         	11.03          	6.921
MS.125         	11.007         	6.993
MS.126         	10.988         	6.986
MS.127         	10.965         	6.914
MS.128         	10.943         	6.936
MS.129         	10.92          	6.9
MS.130         	10.9           	6.949
MS.131         	10.877         	6.929
MS.132         	10.855         	6.876
MS.133         	10.835         	6.951
MS.134         	10.812         	6.931
MS.135         	10.79          	6.897
MS.136         	10.77          	6.899
MS.137         	10.747         	6.863
MS.138         	10.725         	6.898
MS.139         	10.705         	6.851
MS.140         	10.682         	6.81
MS.141         	10.662         	6.832
MS.142         	10.64          	6.766
MS.143         	10.62          	6.918
MS.144         	10.597         	6.888
MS.145         	10.577         	6.809
MS.146         	10.555         	6.832
MS.147         	10.535         	6.842
MS.148         	10.515         	6.808
MS.149         	10.492         	6.798
MS.150         	10.472         	6.836
MS.151         	10.45          	6.794
MS.152         	10.43          	6.761
MS.153         	10.41          	6.773
MS.154         	10.387         	6.812
MS.155         	10.367         	6.823
MS.156         	10.347         	6.74
MS.157         	10.327         	6.799
MS.158         	10.305         	6.762
MS.159         	10.285         	6.722
MS.160         	10.265         	6.74
MS.161         	10.245         	6.723
MS.162         	10.222         	6.668
MS.163         	10.202         	6.711
MS.164         	10.182         	6.656
MS.165         	10.162         	6.658
MS.166         	10.142         	6.617
MS.167         	10.122         	6.58
MS.168         	10.102         	6.6
MS.169         	10.082         	6.561
MS.170         	10.06          	6.54
MS.171         	10.04          	6.687
MS.172         	10.02          	6.619
MS.173         	10             	6.505
MS.174         	9.98           	6.582
MS.175         	9.96           	6.472
MS.176         	9.94           	6.382
MS.177         	9.922          	6.422
MS.178         	9.903          	6.418
MS.179         	9.882          	6.451
MS.180         	9.863          	6.402
MS.181         	9.842          	6.398
MS.182         	9.823          	6.409
MS.183         	9.802          	6.417
MS.184         	9.782          	6.368
MS.185         	9.765          	6.279
MS.186         	9.745          	6.341
MS.187         	9.725          	6.302
MS.188         	9.705          	6.32
MS.189         	9.685          	6.307
MS.190         	9.667          	6.248
MS.191         	9.648          	6.219
MS.192         	9.627          	6.163
MS.193         	9.61           	6.151
MS.194         	9.59           	6.141
MS.195         	9.57           	6.117
MS.196         	9.552          	6.059
MS.197         	9.532          	6.163
MS.198         	9.512          	5.989
MS.199         	9.495          	5.973
MS.200         	9.475          	5.939
MS.201         	9.457          	6.059
MS.202         	9.438          	5.891
MS.203         	9.417          	5.97
MS.204         	9.4            	6.067
MS.205         	9.38           	5.922
MS.206         	9.363          	5.863
MS.207         	9.342          	5.784
MS.208         	9.325          	5.751
MS.209         	9.307          	5.81
MS.210         	9.287          	5.806
MS.211         	9.27           	5.793
MS.212         	9.25           	5.848
MS.213         	9.233          	5.698
MS.214         	9.212          	5.748
MS.215         	9.195          	5.696
MS.216         	9.177          	5.627
MS.217         	9.158          	5.584
MS.218         	9.14           	5.663
MS.219         	9.122          	5.591
MS.220         	9.105          	5.573
MS.221         	9.085          	5.574
MS.222         	9.068          	5.562
MS.223         	9.05           	5.545
MS.224         	9.03           	5.428
MS.225         	9.012          	5.49
MS.226         	8.995          	5.355
MS.227         	8.977          	5.289
MS.228         	8.96           	5.294
MS.229         	8.943          	5.191
MS.230         	8.922          	5.223
MS.231         	8.905          	5.197
MS.232         	8.887          	5.082
MS.233         	8.87           	5.126
MS.234         	8.852          	5.136
MS.235         	8.835          	5.214
MS.236         	8.818          	4.999
MS.237         	8.8            	4.926
MS.238         	8.783          	5.034
MS.239         	8.765          	4.855
MS.240         	8.747          	4.935
MS.241         	8.73           	4.921
MS.242         	8.712          	4.771
MS.243         	8.695          	4.863
MS.244         	8.677          	4.672
MS.245         	8.66           	4.699
MS.246         	8.642          	4.735
MS.247         	8.625          	4.542
MS.248         	8.608          	4.601
MS.249         	8.59           	4.421
MS.250         	8.573          	4.484
MS.251         	8.557          	4.478
MS.252         	8.54           	4.609
MS.253         	8.523          	4.432
MS.254         	8.505          	4.424
MS.255         	8.488          	4.424
MS.256         	8.472          	4.205
MS.257         	8.455          	4.361
MS.258         	8.438          	4.225
MS.259         	8.42           	4.186
MS.260         	8.405          	4.269
MS.261         	8.387          	4.12
MS.262         	8.37           	4.138
MS.263         	8.352          	4.079
MS.264         	8.337          	4.149
MS.265         	8.32           	3.958
MS.266         	8.302          	3.998
MS.267         	8.287          	3.898
MS.268         	8.27           	3.991
MS.269         	8.255          	3.887
MS.270         	8.238          	3.89
MS.271         	8.22           	3.673
MS.272         	8.205          	3.769
MS.273         	8.188          	3.663
MS.274         	8.172          	3.668
MS.275         	8.155          	3.605
MS.276         	8.14           	3.6
MS.277         	8.122          	3.649
MS.278         	8.108          	3.657
MS.279         	8.09           	3.694
MS.280         	8.075          	3.458
MS.281         	8.057          	3.391
MS.282         	8.042          	3.318
MS.283         	8.025          	3.442
MS.284         	8.01           	3.364
MS.285         	7.995          	3.34
MS.286         	7.977          	3.28
MS.287         	7.962          	3.222
MS.288         	7.945          	3.195
MS.289         	7.93           	3.174
MS.290         	7.915          	3.24
MS.291         	7.898          	3.15
MS.292         	7.882          	3.112
MS.293         	7.867          	3.22
MS.294         	7.852          	3.056
MS.295         	7.835          	3.023
MS.296         	7.82           	3.029
MS.297         	7.805          	3.005
MS.298         	7.79           	2.928
MS.299         	7.773          	2.9
MS.300         	7.757          	2.83
MS.301         	7.742          	2.915
MS.302         	7.727          	2.792
MS.303         	7.712          	2.912
MS.304         	7.695          	2.687
MS.305         	7.68           	2.797
MS.306         	7.665          	2.875
MS.307         	7.65           	2.683
MS.308         	7.635          	2.681
MS.309         	7.62           	2.715
MS.310         	7.605          	2.64
MS.311         	7.59           	2.527
MS.312         	7.575          	2.616
MS.313         	7.557          	2.571
MS.314         	7.543          	2.661
MS.315         	7.527          	2.573
MS.316         	7.512          	2.469
MS.317         	7.497          	2.513
MS.318         	7.482          	2.394
MS.319         	7.467          	2.435
MS.320         	7.452          	2.493
MS.321         	7.438          	2.302
MS.322         	7.425          	2.391
MS.323         	7.41           	2.337
MS.324         	7.395          	2.2
MS.325         	7.38           	2.207
MS.326         	7.365          	2.224
MS.327         	7.35           	2.209
MS.328         	7.335          	2.12
MS.329         	7.32           	2.184
MS.330         	7.305          	2.137
MS.331         	7.293          	2.04
MS.332         	7.277          	2.089
MS.333         	7.262          	1.926
MS.334         	7.247          	1.949
MS.335         	7.233          	1.956
MS.336         	7.22           	1.965
MS.337         	7.205          	1.838
MS.338         	7.19           	1.86
MS.339         	7.175          	1.893
MS.340         	7.162          	1.859
MS.341         	7.148          	1.858
MS.342         	7.132          	1.795
MS.343         	7.117          	1.854
MS.344         	7.105          	1.613
MS.345         	7.09           	1.886
MS.346         	7.075          	1.684
MS.347         	7.062          	1.578
MS.348         	7.047          	1.642
MS.349         	7.032          	1.698
MS.350         	7.02           	1.632
MS.351         	7.005          	1.36
MS.352         	6.992          	1.502
MS.353         	6.977          	1.406
MS.354         	6.962          	1.303
MS.355         	6.95           	1.353
MS.356         	6.935          	1.362
MS.357         	6.922          	1.429
MS.358         	6.907          	1.182
MS.359         	6.895          	1.279
MS.360         	6.88           	1.07
MS.361         	6.867          	1.259
MS.362         	6.852          	1.06
MS.363         	6.84           	1.051
MS.364         	6.825          	1.028
MS.365         	6.812          	1.08
MS.366         	6.797          	0.914
MS.367         	6.785          	0.991
MS.368         	6.773          	0.917
MS.369         	6.757          	0.927
MS.370         	6.745          	0.934
MS.371         	6.73           	0.851
MS.372         	6.717          	0.856
MS.373         	6.705          	0.758
MS.374         	6.69           	0.839
MS.375         	6.677          	0.804
MS.376         	6.665          	0.759
MS.377         	6.65           	0.845
MS.378         	6.637          	0.682
MS.379         	6.625          	0.681
MS.380         	6.61           	0.653
MS.381         	6.597          	0.627
MS.382         	6.585          	0.624
MS.383         	6.57           	0.601
MS.384         	6.557          	0.543
MS.385         	6.545          	0.59
MS.386         	6.532          	0.501
MS.387         	6.52           	0.507
MS.388         	6.505          	0.58
MS.389         	6.492          	0.567
MS.390         	6.48           	0.441
MS.391         	6.467          	0.37
MS.392         	6.455          	0.435
MS.393         	6.44           	0.372
MS.394         	6.427          	0.422
MS.395         	6.415          	0.322
MS.396         	6.402          	0.342
MS.397         	6.39           	0.329
MS.398         	6.378          	0.285
MS.399         	6.365          	0.322
MS.400         	6.352          	0.201
MS.401         	6.34           	0.297
MS.402         	6.325          	0.25
MS.403         	6.312          	0.176
MS.404         	6.3            	0.206
MS.405         	6.287          	0.214
MS.406         	6.275          	0.261
MS.407         	6.262          	0.165
MS.408         	6.25           	0.179
MS.409         	6.237          	0.149
MS.410         	6.225          	-0.022
MS.411         	6.213          	0.054
MS.412         	6.2            	0.083
MS.413         	6.188          	0.013
MS.414         	6.175          	0.065
MS.415         	6.165          	0.007
MS.416         	6.152          	0.056
MS.417         	6.14           	0.063
MS.418         	6.128          	-0.01
MS.419         	6.115          	-0.034
MS.420         	6.102          	-0.043
MS.421         	6.09           	-0.089
MS.422         	6.077          	-0.063
MS.423         	6.065          	-0.095
MS.424         	6.055          	-0.056
MS.425         	6.043          	-0.108
MS.426         	6.03           	-0.173
MS.427         	6.017          	-0.113
MS.428         	6.005          	-0.195
MS.429         	5.992          	-0.2
MS.430         	5.983          	-0.118
MS.431         	5.97           	-0.17
MS.432         	5.957          	-0.222
MS.433         	5.945          	-0.151
MS.434         	5.935          	-0.204
MS.435         	5.922          	-0.262
MS.436         	5.91           	-0.189
MS.437         	5.898          	-0.197
MS.438         	5.887          	-0.275
MS.439         	5.875          	-0.287
MS.440         	5.862          	-0.278
MS.441         	5.852          	-0.278
MS.442         	5.84           	-0.312
MS.443         	5.827          	-0.376
MS.444         	5.817          	-0.392
MS.445         	5.805          	-0.378
MS.446         	5.793          	-0.399
MS.447         	5.782          	-0.334
MS.448         	5.77           	-0.323
MS.449         	5.757          	-0.381
MS.450         	5.747          	-0.367
MS.451         	5.735          	-0.378
MS.452         	5.725          	-0.452
MS.453         	5.713          	-0.49
MS.454         	5.702          	-0.406
MS.455         	5.69           	-0.411
MS.456         	5.677          	-0.496
MS.457         	5.668          	-0.396
MS.458         	5.655          	-0.56
MS.459         	5.645          	-0.559
MS.460         	5.632          	-0.541
MS.461         	5.622          	-0.543
MS.462         	5.61           	-0.544
MS.463         	5.6            	-0.582
MS.464         	5.588          	-0.593
MS.465         	5.577          	-0.595
MS.466         	5.565          	-0.571
MS.467         	5.555          	-0.582
MS.468         	5.545          	-0.617
MS.469         	5.532          	-0.533
MS.470         	5.523          	-0.62
MS.471         	5.51           	-0.616
MS.472         	5.5            	-0.591
MS.473         	5.487          	-0.628
MS.474         	5.477          	-0.646
MS.475         	5.467          	-0.593
MS.476         	5.455          	-0.585
MS.477         	5.445          	-0.639
MS.478         	5.435          	-0.622
MS.479         	5.422          	-0.589
MS.480         	5.412          	-0.635
MS.481         	5.402          	-0.599
MS.482         	5.39           	-0.615
MS.483         	5.38           	-0.618
MS.484         	5.37           	-0.607
MS.485         	5.358          	-0.621
MS.486         	5.347          	-0.61
MS.487         	5.338          	-0.617
MS.488         	5.327          	-0.591
MS.489         	5.315          	-0.609
MS.490         	5.305          	-0.594
MS.491         	5.295          	-0.628
MS.492         	5.285          	-0.625
MS.493         	5.273          	-0.624
MS.494         	5.262          	-0.624
MS.495         	5.253          	-0.659
MS.496         	5.242          	-0.613
MS.497         	5.233          	-0.643
MS.498         	5.22           	-0.643
MS.499         	5.21           	-0.642
MS.500         	5.2            	-0.63
MS.501         	5.19           	-0.602
