File:              	C:\Qtrac\Data\ME2C30712A.QZD
Name:              	 JA20R
Protocol:          	MSCAN-MV
Date:              	12/7/23
Date of birth:     	20/10/00
Age:               	22
Sex:               	F
Temperature:       	33.5
S/R sites:         	Knee CF-TA
NC/disease:        	NC
Operator:          	BY
Comments:
M-SCAN DATA (Repeat 1/3, 7.8-2.9m)
Scanpts: 1, 8, 354, 365
Stim. (mA)     	Amp. (mV)
MS.1           	11.5           	3.8
MS.2           	11.5           	3.799
MS.3           	11.5           	3.79
MS.4           	11.5           	3.806
MS.5           	11.5           	3.782
MS.6           	11.5           	3.799
MS.7           	11.5           	3.756
MS.8           	11.5           	3.743
MS.9           	11.5           	3.812
MS.10          	11.5           	3.807
MS.11          	11.5           	3.751
MS.12          	11.5           	3.823
MS.13          	11.5           	3.773
MS.14          	11.5           	3.795
MS.15          	11.5           	3.786
MS.16          	11.5           	3.774
MS.17          	11.5           	3.831
MS.18          	11.5           	3.806
MS.19          	11.5           	3.81
MS.20          	11.5           	3.812
MS.21          	11.5           	3.768
MS.22          	11.5           	3.803
MS.23          	11.5           	3.774
MS.24          	11.455         	3.821
MS.25          	11.43          	3.8
MS.26          	11.407         	3.768
MS.27          	11.385         	3.78
MS.28          	11.363         	3.812
MS.29          	11.34          	3.808
MS.30          	11.318         	3.773
MS.31          	11.295         	3.856
MS.32          	11.273         	3.781
MS.33          	11.25          	3.77
MS.34          	11.227         	3.789
MS.35          	11.205         	3.743
MS.36          	11.182         	3.732
MS.37          	11.16          	3.774
MS.38          	11.137         	3.749
MS.39          	11.115         	3.774
MS.40          	11.092         	3.729
MS.41          	11.07          	3.787
MS.42          	11.05          	3.773
MS.43          	11.028         	3.781
MS.44          	11.005         	3.727
MS.45          	10.983         	3.788
MS.46          	10.96          	3.741
MS.47          	10.94          	3.728
MS.48          	10.917         	3.766
MS.49          	10.895         	3.76
MS.50          	10.872         	3.732
MS.51          	10.852         	3.618
MS.52          	10.83          	3.738
MS.53          	10.807         	3.821
MS.54          	10.787         	3.612
MS.55          	10.765         	3.757
MS.56          	10.745         	3.715
MS.57          	10.722         	3.702
MS.58          	10.7           	3.643
MS.59          	10.68          	3.694
MS.60          	10.657         	3.664
MS.61          	10.637         	3.673
MS.62          	10.615         	3.676
MS.63          	10.595         	3.616
MS.64          	10.573         	3.606
MS.65          	10.552         	3.644
MS.66          	10.53          	3.564
MS.67          	10.51          	3.562
MS.68          	10.49          	3.508
MS.69          	10.467         	3.615
MS.70          	10.448         	3.5
MS.71          	10.427         	3.49
MS.72          	10.405         	3.518
MS.73          	10.385         	3.353
MS.74          	10.365         	3.442
MS.75          	10.342         	3.458
MS.76          	10.323         	3.436
MS.77          	10.302         	3.377
MS.78          	10.282         	3.4
MS.79          	10.26          	3.359
MS.80          	10.24          	3.464
MS.81          	10.22          	3.423
MS.82          	10.2           	3.5
MS.83          	10.18          	3.373
MS.84          	10.16          	3.488
MS.85          	10.137         	3.369
MS.86          	10.117         	3.361
MS.87          	10.097         	3.374
MS.88          	10.077         	3.337
MS.89          	10.057         	3.351
MS.90          	10.037         	3.415
MS.91          	10.017         	3.324
MS.92          	9.997          	3.252
MS.93          	9.977          	3.312
MS.94          	9.957          	3.311
MS.95          	9.938          	3.236
MS.96          	9.917          	3.251
MS.97          	9.898          	3.333
MS.98          	9.877          	3.092
MS.99          	9.858          	2.971
MS.100         	9.84           	2.997
MS.101         	9.82           	3.043
MS.102         	9.8            	3.091
MS.103         	9.78           	3.065
MS.104         	9.76           	3.159
MS.105         	9.74           	3.037
MS.106         	9.722          	3.053
MS.107         	9.702          	2.996
MS.108         	9.682          	2.989
MS.109         	9.662          	2.865
MS.110         	9.645          	2.958
MS.111         	9.625          	2.787
MS.112         	9.605          	2.725
MS.113         	9.587          	2.906
MS.114         	9.568          	2.759
MS.115         	9.547          	2.706
MS.116         	9.53           	2.652
MS.117         	9.51           	2.662
MS.118         	9.49           	2.633
MS.119         	9.472          	2.764
MS.120         	9.452          	2.594
MS.121         	9.435          	2.518
MS.122         	9.415          	2.607
MS.123         	9.398          	2.611
MS.124         	9.377          	2.625
MS.125         	9.36           	2.585
MS.126         	9.34           	2.558
MS.127         	9.323          	2.643
MS.128         	9.302          	2.565
MS.129         	9.285          	2.432
MS.130         	9.265          	2.503
MS.131         	9.247          	2.489
MS.132         	9.23           	2.549
MS.133         	9.21           	2.487
MS.134         	9.193          	2.43
MS.135         	9.172          	2.429
MS.136         	9.155          	2.39
MS.137         	9.137          	2.346
MS.138         	9.12           	2.311
MS.139         	9.1            	2.399
MS.140         	9.082          	2.255
MS.141         	9.065          	2.301
MS.142         	9.045          	2.311
MS.143         	9.028          	2.178
MS.144         	9.01           	2.191
MS.145         	8.992          	2.144
MS.146         	8.975          	2.013
MS.147         	8.955          	2.088
MS.148         	8.938          	2.244
MS.149         	8.92           	2.177
MS.150         	8.903          	2.201
MS.151         	8.885          	2.079
MS.152         	8.867          	2.062
MS.153         	8.85           	2.106
MS.154         	8.832          	1.926
MS.155         	8.815          	1.954
MS.156         	8.797          	1.979
MS.157         	8.78           	1.813
MS.158         	8.762          	1.912
MS.159         	8.745          	1.862
MS.160         	8.727          	1.949
MS.161         	8.71           	1.835
MS.162         	8.693          	1.888
MS.163         	8.675          	1.819
MS.164         	8.658          	1.696
MS.165         	8.64           	1.865
MS.166         	8.622          	1.746
MS.167         	8.605          	1.826
MS.168         	8.587          	1.664
MS.169         	8.57           	1.651
MS.170         	8.552          	1.618
MS.171         	8.537          	1.698
MS.172         	8.52           	1.599
MS.173         	8.502          	1.553
MS.174         	8.485          	1.596
MS.175         	8.467          	1.559
MS.176         	8.452          	1.503
MS.177         	8.435          	1.47
MS.178         	8.417          	1.517
MS.179         	8.4            	1.435
MS.180         	8.385          	1.429
MS.181         	8.367          	1.451
MS.182         	8.35           	1.396
MS.183         	8.335          	1.442
MS.184         	8.318          	1.282
MS.185         	8.3            	1.353
MS.186         	8.285          	1.315
MS.187         	8.267          	1.402
MS.188         	8.25           	1.241
MS.189         	8.235          	1.273
MS.190         	8.217          	1.287
MS.191         	8.202          	1.226
MS.192         	8.185          	1.199
MS.193         	8.17           	1.111
MS.194         	8.153          	1.118
MS.195         	8.137          	1.102
MS.196         	8.12           	0.973
MS.197         	8.105          	1.092
MS.198         	8.087          	1.069
MS.199         	8.073          	1.049
MS.200         	8.055          	0.895
MS.201         	8.04           	0.986
MS.202         	8.023          	0.986
MS.203         	8.007          	0.925
MS.204         	7.99           	0.963
MS.205         	7.975          	0.841
MS.206         	7.96           	0.906
MS.207         	7.942          	0.803
MS.208         	7.927          	0.835
MS.209         	7.912          	0.962
MS.210         	7.895          	0.909
MS.211         	7.88           	0.828
MS.212         	7.865          	0.85
MS.213         	7.847          	0.648
MS.214         	7.832          	0.723
MS.215         	7.817          	0.817
MS.216         	7.802          	0.751
MS.217         	7.785          	0.645
MS.218         	7.77           	0.749
MS.219         	7.755          	0.568
MS.220         	7.74           	0.737
MS.221         	7.725          	0.978
MS.222         	7.707          	0.891
MS.223         	7.692          	0.824
MS.224         	7.677          	0.806
MS.225         	7.662          	0.815
MS.226         	7.648          	0.781
MS.227         	7.632          	0.654
MS.228         	7.617          	0.514
MS.229         	7.602          	0.621
MS.230         	7.587          	0.581
MS.231         	7.57           	0.587
MS.232         	7.555          	0.508
MS.233         	7.54           	0.51
MS.234         	7.525          	0.444
MS.235         	7.51           	0.458
MS.236         	7.495          	0.573
MS.237         	7.48           	0.447
MS.238         	7.465          	0.525
MS.239         	7.45           	0.331
MS.240         	7.435          	0.669
MS.241         	7.42           	0.505
MS.242         	7.407          	0.624
MS.243         	7.392          	0.474
MS.244         	7.378          	0.388
MS.245         	7.362          	0.342
MS.246         	7.347          	0.361
MS.247         	7.332          	0.297
MS.248         	7.317          	0.258
MS.249         	7.302          	0.259
MS.250         	7.29           	0.266
MS.251         	7.275          	0.391
MS.252         	7.26           	0.308
MS.253         	7.245          	0.215
MS.254         	7.23           	0.261
MS.255         	7.217          	0.156
MS.256         	7.202          	0.126
MS.257         	7.188          	0.22
MS.258         	7.172          	0.121
MS.259         	7.16           	0.095
MS.260         	7.145          	0.122
MS.261         	7.13           	0.074
MS.262         	7.115          	0.097
MS.263         	7.102          	-0.012
MS.264         	7.087          	-0.027
MS.265         	7.072          	0.019
MS.266         	7.06           	-0.049
MS.267         	7.045          	-0.138
MS.268         	7.03           	-0.173
MS.269         	7.017          	-0.15
MS.270         	7.003          	-0.093
MS.271         	6.99           	-0.149
MS.272         	6.975          	-0.045
MS.273         	6.96           	-0.242
MS.274         	6.947          	-0.183
MS.275         	6.932          	-0.159
MS.276         	6.92           	-0.18
MS.277         	6.905          	-0.244
MS.278         	6.892          	-0.27
MS.279         	6.878          	-0.328
MS.280         	6.865          	-0.457
MS.281         	6.85           	-0.389
MS.282         	6.837          	-0.416
MS.283         	6.822          	-0.522
MS.284         	6.81           	-0.479
MS.285         	6.795          	-0.494
MS.286         	6.782          	-0.438
MS.287         	6.77           	-0.508
MS.288         	6.755          	-0.537
MS.289         	6.742          	-0.53
MS.290         	6.727          	-0.549
MS.291         	6.715          	-0.516
MS.292         	6.702          	-0.551
MS.293         	6.688          	-0.558
MS.294         	6.675          	-0.596
MS.295         	6.662          	-0.591
MS.296         	6.648          	-0.582
MS.297         	6.635          	-0.662
MS.298         	6.622          	-0.612
MS.299         	6.608          	-0.671
MS.300         	6.595          	-0.659
MS.301         	6.582          	-0.687
MS.302         	6.57           	-0.676
MS.303         	6.555          	-0.671
MS.304         	6.543          	-0.709
MS.305         	6.53           	-0.704
MS.306         	6.517          	-0.703
MS.307         	6.503          	-0.67
MS.308         	6.49           	-0.708
MS.309         	6.477          	-0.737
MS.310         	6.465          	-0.703
MS.311         	6.452          	-0.737
MS.312         	6.44           	-0.721
MS.313         	6.425          	-0.707
MS.314         	6.412          	-0.688
MS.315         	6.4            	-0.689
MS.316         	6.387          	-0.717
MS.317         	6.375          	-0.731
MS.318         	6.362          	-0.729
MS.319         	6.35           	-0.752
MS.320         	6.338          	-0.768
MS.321         	6.325          	-0.749
MS.322         	6.312          	-0.731
MS.323         	6.297          	-0.748
MS.324         	6.285          	-0.739
MS.325         	6.273          	-0.744
MS.326         	6.26           	-0.742
MS.327         	6.247          	-0.777
MS.328         	6.235          	-0.739
MS.329         	6.222          	-0.787
MS.330         	6.21           	-0.754
MS.331         	6.197          	-0.714
MS.332         	6.188          	-0.76
MS.333         	6.175          	-0.781
MS.334         	6.162          	-0.771
MS.335         	6.15           	-0.742
MS.336         	6.137          	-0.751
MS.337         	6.125          	-0.698
MS.338         	6.112          	-0.704
MS.339         	6.1            	-0.818
MS.340         	6.088          	-0.758
MS.341         	6.075          	-0.789
MS.342         	6.065          	-0.75
MS.343         	6.052          	-0.761
MS.344         	6.04           	-0.781
MS.345         	6.027          	-0.732
MS.346         	6.015          	-0.786
MS.347         	6.003          	-0.76
MS.348         	5.992          	-0.79
MS.349         	5.98           	-0.779
MS.350         	5.967          	-0.787
MS.351         	5.955          	-0.772
MS.352         	5.945          	-0.811
MS.353         	5.932          	-0.814
MS.354         	5.92           	-0.806
MS.355         	5.907          	-0.784
MS.356         	5.898          	-0.804
MS.357         	5.885          	-0.756
MS.358         	5.872          	-0.787
MS.359         	5.86           	-0.779
MS.360         	5.85           	-0.779
MS.361         	5.838          	-0.789
MS.362         	5.825          	-0.817
MS.363         	5.815          	-0.789
MS.364         	5.802          	-0.768
MS.365         	5.79           	-0.748
MS.366         	5.78           	-0.801
MS.367         	5.767          	-0.788
MS.368         	5.757          	-0.789
MS.369         	5.745          	-0.775
MS.370         	5.733          	-0.797
MS.371         	5.722          	-0.786
MS.372         	5.71           	-0.793
MS.373         	5.7            	-0.804
MS.374         	5.688          	-0.777
MS.375         	5.677          	-0.814
MS.376         	5.665          	-0.763
MS.377         	5.655          	-0.762
MS.378         	5.642          	-0.761
MS.379         	5.632          	-0.797
MS.380         	5.62           	-0.793
MS.381         	5.61           	-0.757
MS.382         	5.597          	-0.746
MS.383         	5.588          	-0.714
MS.384         	5.575          	-0.746
MS.385         	5.565          	-0.767
MS.386         	5.552          	-0.792
MS.387         	5.543          	-0.722
MS.388         	5.53           	-0.765
MS.389         	5.52           	-0.784
MS.390         	5.51           	-0.762
MS.391         	5.497          	-0.781
MS.392         	5.487          	-0.803
MS.393         	5.475          	-0.771
MS.394         	5.465          	-0.784
MS.395         	5.455          	-0.762
MS.396         	5.443          	-0.754
MS.397         	5.432          	-0.762
MS.398         	5.422          	-0.78
MS.399         	5.41           	-0.75
MS.400         	5.4            	-0.785
MS.401         	5.39           	-0.703
MS.402         	5.378          	-0.745
MS.403         	5.367          	-0.761
MS.404         	5.358          	-0.735
MS.405         	5.345          	-0.731
MS.406         	5.335          	-0.743
MS.407         	5.325          	-0.75
MS.408         	5.315          	-0.72
MS.409         	5.302          	-0.761
MS.410         	5.293          	-0.701
MS.411         	5.282          	-0.732
MS.412         	5.273          	-0.75
MS.413         	5.26           	-0.784
DERIVED EXCITABILITY VARIABLES
Program = QTracP 27/06/2023
Threshold method = 6 (optimised for CAP, using data for present condition only)
SR method = 1 (using actual data values)
6.                 	0.000               	Peak response\(mV)
9.                 	33.5                	Temperature ( C)
17.                	22                  	Age (years)
18.                	2                   	Sex (M=1, F=2)

EXTRA VARIABLES

MScPeak(mV) = 4.55
MScS5(mA) = 7.24
MScS50(mA) = 9.07
MScNSteps = 0
MScSteps(%) = 0.0
MScStepMax(%) = 0.0
MScD50 = 51
MScSlope = 4.45
MScDuration(min) = 5.5
MSFTraces = 365
MSFPeakAmp(mV) = 4.57
MSFNUnits = 127
MSFMeanUnitAmp(uV) = 36
MSFHuntTime(m) = 0.9
MSFError(%) = 3.08
MSFNLarge = 35.2
MSFMedianAmp(%) = 0.615
MSFMedianAmp(mV) = 0.0281
MSFHalfAmpAmp(%) = 0.846
MSFHalfAmpAmp(mV) = 0.0387
MSFLargestAmp(%) = 3.89
MSFLargestAmp(mV) = 0.178
MSFMeanRS(%) = 2
MSFSizeLimit(uV) = 15.2
MSFLimitType = 1
MSFSmallestAmp(uV) = 15.5
MSFOpts = 10104222032
MSFSDMax = 23
MSFSDMin = 20

EXTRA WAVEFORMS


!MScan Model
!127
	1	6.04	0.39	2
	2	6.34	0.67	2
	3	6.45	0.51	2
	4	6.52	0.6	2
	5	6.56	0.41	2
	6	6.59	0.47	2
	7	6.64	0.84	2
	8	6.67	0.58	2
	9	6.69	0.36	2
	10	6.72	0.42	2
	11	6.74	0.4	2
	12	6.75	0.48	2
	13	6.77	0.68	2
	14	6.79	0.47	2
	15	6.8	0.47	2
	16	6.82	0.37	2
	17	6.83	0.46	2
	18	6.85	0.6	2
	19	6.86	0.61	2
	20	6.89	0.73	2
	21	6.91	0.38	2
	22	6.93	0.9	2
	23	6.95	0.99	2
	24	6.98	1.06	2
	25	7	0.79	2
	26	7.02	0.7	2
	27	7.04	0.77	2
	28	7.06	0.58	2
	29	7.07	0.37	2
	30	7.09	0.39	2
	31	7.11	0.62	2
	32	7.12	0.41	2
	33	7.13	0.46	2
	34	7.14	0.46	2
	35	7.16	0.74	2
	36	7.18	0.54	2
	37	7.2	0.6	2
	38	7.23	0.9	2
	39	7.26	1.15	2
	40	7.3	1.18	2
	41	7.38	2.16	2
	42	7.52	2.68	2
	43	7.58	2.22	2
	44	7.83	3.89	2
	45	7.9	0.46	2
	46	7.96	1.41	2
	47	7.99	0.74	2
	48	8.03	1.06	2
	49	8.06	0.73	2
	50	8.07	0.37	2
	51	8.09	0.34	2
	52	8.1	0.51	2
	53	8.12	0.49	2
	54	8.13	0.5	2
	55	8.15	0.52	2
	56	8.16	0.42	2
	57	8.19	0.76	2
	58	8.21	0.53	2
	59	8.22	0.49	2
	60	8.23	0.45	2
	61	8.25	0.44	2
	62	8.26	0.37	2
	63	8.27	0.37	2
	64	8.29	0.39	2
	65	8.3	0.44	2
	66	8.32	0.44	2
	67	8.34	0.58	2
	68	8.35	0.55	2
	69	8.37	0.4	2
	70	8.38	0.42	2
	71	8.4	0.34	2
	72	8.42	0.55	2
	73	8.44	0.63	2
	74	8.46	0.37	2
	75	8.47	0.43	2
	76	8.48	0.44	2
	77	8.5	0.38	2
	78	8.51	0.39	2
	79	8.53	0.43	2
	80	8.54	0.45	2
	81	8.56	0.6	2
	82	8.59	0.79	2
	83	8.62	0.71	2
	84	8.65	0.74	2
	85	8.67	0.77	2
	86	8.7	0.79	2
	87	8.73	0.85	2
	88	8.78	1.47	2
	89	8.83	1.18	2
	90	8.87	1.07	2
	91	8.92	1.12	2
	92	8.96	1.24	2
	93	8.99	0.93	2
	94	9.03	0.97	2
	95	9.06	1.01	2
	96	9.09	0.7	2
	97	9.11	0.4	2
	98	9.14	0.63	2
	99	9.15	0.45	2
	100	9.19	0.93	2
	101	9.22	0.75	2
	102	9.26	0.69	2
	103	9.34	1.81	2
	104	9.41	0.95	2
	105	9.49	0.49	2
	106	9.54	0.7	2
	107	9.57	0.7	2
	108	9.59	0.56	2
	109	9.62	0.7	2
	110	9.62	0.68	2
	111	9.64	0.77	2
	112	9.68	1.28	2
	113	9.74	1.32	2
	114	9.8	1.89	2
	115	9.84	0.98	2
	116	9.85	1.38	2
	117	9.9	1.03	2
	118	9.91	1.21	2
	119	9.97	1.44	2
	120	10.35	1.24	2
	121	10.42	0.82	2
	122	10.46	0.6	2
	123	10.46	2.63	2
	124	10.49	0.41	2
	125	10.52	0.39	2
	126	10.6	1.34	2
	127	10.79	1.81	2

