File:              	C:\Qtrac\Data\ME2C30630A.QZD
Name:              	 SO09N
Protocol:          	MSCAN-MV
Date:              	30/6/23
Date of birth:     	9/6/00
Age:               	23
Sex:               	M
Temperature:       	32.5
S/R sites:         	Knee CF-TA
NC/disease:        	NC
Operator:          	BY
Comments:
M-SCAN DATA (Repeat 1/3, 14.6-5.3m)
Scanpts: 85, 97, 654, 738
Stim. (mA)     	Amp. (mV)
MS.1           	15             	7.798
MS.2           	15             	7.811
MS.3           	15             	7.814
MS.4           	15             	7.797
MS.5           	15             	7.804
MS.6           	15             	7.78
MS.7           	15             	7.786
MS.8           	15             	7.793
MS.9           	15             	7.778
MS.10          	15             	7.786
MS.11          	15             	7.796
MS.12          	15             	7.797
MS.13          	15             	7.775
MS.14          	15             	7.783
MS.15          	15             	7.779
MS.16          	15             	7.783
MS.17          	15             	7.785
MS.18          	15             	7.791
MS.19          	15             	7.789
MS.20          	15             	7.792
MS.21          	15             	7.795
MS.22          	15             	7.792
MS.23          	15             	7.812
MS.24          	14.94          	7.813
MS.25          	14.91          	7.793
MS.26          	14.88          	7.799
MS.27          	14.85          	7.789
MS.28          	14.82          	7.806
MS.29          	14.792         	7.813
MS.30          	14.762         	7.806
MS.31          	14.733         	7.796
MS.32          	14.702         	7.802
MS.33          	14.672         	7.811
MS.34          	14.645         	7.804
MS.35          	14.615         	7.793
MS.36          	14.585         	7.81
MS.37          	14.557         	7.795
MS.38          	14.527         	7.798
MS.39          	14.497         	7.795
MS.40          	14.47          	7.805
MS.41          	14.44          	7.803
MS.42          	14.412         	7.806
MS.43          	14.382         	7.812
MS.44          	14.355         	7.8
MS.45          	14.325         	7.807
MS.46          	14.297         	7.834
MS.47          	14.267         	7.809
MS.48          	14.24          	7.794
MS.49          	14.212         	7.803
MS.50          	14.182         	7.809
MS.51          	14.155         	7.808
MS.52          	14.127         	7.812
MS.53          	14.097         	7.812
MS.54          	14.07          	7.811
MS.55          	14.042         	7.805
MS.56          	14.015         	7.805
MS.57          	13.985         	7.787
MS.58          	13.957         	7.783
MS.59          	13.93          	7.776
MS.60          	13.903         	7.817
MS.61          	13.875         	7.821
MS.62          	13.847         	7.795
MS.63          	13.82          	7.786
MS.64          	13.792         	7.783
MS.65          	13.765         	7.818
MS.66          	13.737         	7.805
MS.67          	13.71          	7.799
MS.68          	13.682         	7.794
MS.69          	13.655         	7.786
MS.70          	13.627         	7.74
MS.71          	13.6           	7.809
MS.72          	13.572         	7.758
MS.73          	13.545         	7.855
MS.74          	13.517         	7.745
MS.75          	13.492         	7.826
MS.76          	13.465         	7.797
MS.77          	13.438         	7.814
MS.78          	13.41          	7.815
MS.79          	13.385         	7.822
MS.80          	13.358         	7.842
MS.81          	13.33          	7.811
MS.82          	13.305         	7.868
MS.83          	13.278         	7.828
MS.84          	13.25          	7.848
MS.85          	13.225         	7.874
MS.86          	13.197         	7.845
MS.87          	13.172         	7.852
MS.88          	13.145         	7.832
MS.89          	13.12          	7.795
MS.90          	13.092         	7.844
MS.91          	13.068         	7.818
MS.92          	13.04          	7.833
MS.93          	13.015         	7.845
MS.94          	12.987         	7.833
MS.95          	12.962         	7.832
MS.96          	12.938         	7.819
MS.97          	12.91          	7.772
MS.98          	12.885         	7.785
MS.99          	12.86          	7.785
MS.100         	12.832         	7.764
MS.101         	12.807         	7.786
MS.102         	12.782         	7.817
MS.103         	12.757         	7.812
MS.104         	12.73          	7.816
MS.105         	12.705         	7.793
MS.106         	12.68          	7.799
MS.107         	12.655         	7.809
MS.108         	12.63          	7.82
MS.109         	12.605         	7.776
MS.110         	12.58          	7.779
MS.111         	12.555         	7.737
MS.112         	12.53          	7.769
MS.113         	12.505         	7.764
MS.114         	12.48          	7.764
MS.115         	12.455         	7.758
MS.116         	12.43          	7.775
MS.117         	12.405         	7.769
MS.118         	12.38          	7.77
MS.119         	12.355         	7.796
MS.120         	12.33          	7.747
MS.121         	12.305         	7.755
MS.122         	12.28          	7.739
MS.123         	12.257         	7.753
MS.124         	12.233         	7.748
MS.125         	12.207         	7.74
MS.126         	12.182         	7.776
MS.127         	12.157         	7.74
MS.128         	12.135         	7.756
MS.129         	12.11          	7.765
MS.130         	12.085         	7.714
MS.131         	12.062         	7.734
MS.132         	12.037         	7.737
MS.133         	12.012         	7.751
MS.134         	11.99          	7.73
MS.135         	11.965         	7.732
MS.136         	11.943         	7.745
MS.137         	11.917         	7.721
MS.138         	11.895         	7.707
MS.139         	11.87          	7.748
MS.140         	11.847         	7.726
MS.141         	11.822         	7.717
MS.142         	11.8           	7.704
MS.143         	11.775         	7.701
MS.144         	11.752         	7.731
MS.145         	11.73          	7.717
MS.146         	11.705         	7.719
MS.147         	11.682         	7.684
MS.148         	11.657         	7.748
MS.149         	11.635         	7.734
MS.150         	11.613         	7.727
MS.151         	11.59          	7.717
MS.152         	11.565         	7.709
MS.153         	11.542         	7.771
MS.154         	11.52          	7.759
MS.155         	11.497         	7.714
MS.156         	11.472         	7.709
MS.157         	11.45          	7.676
MS.158         	11.427         	7.704
MS.159         	11.405         	7.681
MS.160         	11.382         	7.744
MS.161         	11.36          	7.69
MS.162         	11.337         	7.732
MS.163         	11.315         	7.643
MS.164         	11.292         	7.654
MS.165         	11.27          	7.676
MS.166         	11.247         	7.588
MS.167         	11.225         	7.64
MS.168         	11.202         	7.654
MS.169         	11.18          	7.624
MS.170         	11.157         	7.697
MS.171         	11.135         	7.646
MS.172         	11.113         	7.634
MS.173         	11.09          	7.585
MS.174         	11.068         	7.534
MS.175         	11.045         	7.609
MS.176         	11.023         	7.537
MS.177         	11.002         	7.578
MS.178         	10.98          	7.591
MS.179         	10.957         	7.545
MS.180         	10.935         	7.502
MS.181         	10.915         	7.54
MS.182         	10.892         	7.376
MS.183         	10.87          	7.409
MS.184         	10.847         	7.454
MS.185         	10.827         	7.463
MS.186         	10.805         	7.4
MS.187         	10.785         	7.449
MS.188         	10.762         	7.371
MS.189         	10.74          	7.47
MS.190         	10.72          	7.355
MS.191         	10.698         	7.303
MS.192         	10.677         	7.512
MS.193         	10.655         	7.394
MS.194         	10.635         	7.368
MS.195         	10.613         	7.471
MS.196         	10.592         	7.399
MS.197         	10.57          	7.318
MS.198         	10.55          	7.288
MS.199         	10.528         	7.275
MS.200         	10.507         	7.288
MS.201         	10.485         	7.333
MS.202         	10.465         	7.322
MS.203         	10.445         	7.23
MS.204         	10.422         	7.324
MS.205         	10.403         	7.288
MS.206         	10.382         	7.243
MS.207         	10.36          	7.25
MS.208         	10.34          	7.289
MS.209         	10.32          	7.191
MS.210         	10.3           	7.246
MS.211         	10.278         	7.245
MS.212         	10.257         	7.184
MS.213         	10.238         	7.139
MS.214         	10.217         	7.147
MS.215         	10.198         	7.151
MS.216         	10.175         	7.2
MS.217         	10.155         	7.156
MS.218         	10.135         	7.172
MS.219         	10.115         	7.084
MS.220         	10.095         	7.173
MS.221         	10.075         	7.083
MS.222         	10.055         	7.211
MS.223         	10.035         	7.068
MS.224         	10.015         	7.059
MS.225         	9.995          	7.134
MS.226         	9.975          	7.041
MS.227         	9.955          	7.044
MS.228         	9.935          	6.923
MS.229         	9.915          	7.024
MS.230         	9.895          	7.012
MS.231         	9.875          	6.981
MS.232         	9.855          	7.026
MS.233         	9.835          	7.019
MS.234         	9.818          	6.983
MS.235         	9.797          	7.012
MS.236         	9.778          	6.903
MS.237         	9.757          	6.973
MS.238         	9.738          	6.975
MS.239         	9.717          	6.967
MS.240         	9.7            	6.96
MS.241         	9.68           	6.849
MS.242         	9.66           	6.998
MS.243         	9.64           	6.889
MS.244         	9.622          	6.97
MS.245         	9.602          	6.776
MS.246         	9.582          	6.776
MS.247         	9.565          	6.856
MS.248         	9.545          	6.656
MS.249         	9.525          	6.803
MS.250         	9.507          	6.752
MS.251         	9.488          	6.622
MS.252         	9.47           	6.797
MS.253         	9.45           	6.553
MS.254         	9.432          	6.716
MS.255         	9.412          	6.59
MS.256         	9.395          	6.633
MS.257         	9.375          	6.653
MS.258         	9.358          	6.552
MS.259         	9.337          	6.655
MS.260         	9.32           	6.52
MS.261         	9.3            	6.545
MS.262         	9.283          	6.414
MS.263         	9.262          	6.611
MS.264         	9.245          	6.362
MS.265         	9.225          	6.368
MS.266         	9.207          	6.37
MS.267         	9.19           	6.482
MS.268         	9.17           	6.324
MS.269         	9.153          	6.299
MS.270         	9.135          	6.459
MS.271         	9.115          	6.403
MS.272         	9.097          	6.331
MS.273         	9.08           	6.201
MS.274         	9.062          	6.085
MS.275         	9.042          	5.908
MS.276         	9.025          	5.915
MS.277         	9.007          	5.953
MS.278         	8.99           	6.12
MS.279         	8.972          	6.087
MS.280         	8.952          	5.686
MS.281         	8.935          	5.914
MS.282         	8.917          	5.82
MS.283         	8.9            	5.848
MS.284         	8.882          	5.828
MS.285         	8.865          	5.809
MS.286         	8.847          	5.586
MS.287         	8.83           	5.578
MS.288         	8.812          	5.496
MS.289         	8.795          	5.587
MS.290         	8.775          	5.541
MS.291         	8.757          	5.475
MS.292         	8.74           	5.482
MS.293         	8.722          	5.464
MS.294         	8.707          	5.481
MS.295         	8.69           	5.544
MS.296         	8.672          	5.312
MS.297         	8.655          	5.273
MS.298         	8.637          	5.314
MS.299         	8.62           	5.292
MS.300         	8.602          	5.197
MS.301         	8.585          	5.045
MS.302         	8.568          	5.198
MS.303         	8.55           	5.007
MS.304         	8.535          	5.08
MS.305         	8.517          	5.169
MS.306         	8.5            	4.968
MS.307         	8.483          	4.972
MS.308         	8.465          	4.963
MS.309         	8.45           	4.927
MS.310         	8.432          	4.879
MS.311         	8.415          	4.919
MS.312         	8.398          	4.783
MS.313         	8.382          	4.789
MS.314         	8.365          	4.767
MS.315         	8.347          	4.775
MS.316         	8.332          	4.766
MS.317         	8.315          	4.99
MS.318         	8.297          	4.727
MS.319         	8.283          	4.716
MS.320         	8.265          	4.838
MS.321         	8.247          	4.694
MS.322         	8.233          	4.664
MS.323         	8.215          	4.458
MS.324         	8.2            	4.443
MS.325         	8.182          	4.567
MS.326         	8.167          	4.448
MS.327         	8.15           	4.607
MS.328         	8.135          	4.482
MS.329         	8.117          	4.446
MS.330         	8.102          	4.343
MS.331         	8.085          	4.462
MS.332         	8.07           	4.454
MS.333         	8.052          	4.332
MS.334         	8.037          	4.345
MS.335         	8.02           	4.269
MS.336         	8.005          	4.31
MS.337         	7.99           	4.28
MS.338         	7.972          	4.286
MS.339         	7.957          	4.234
MS.340         	7.94           	4.229
MS.341         	7.925          	4.195
MS.342         	7.91           	4.138
MS.343         	7.892          	4.083
MS.344         	7.878          	4.09
MS.345         	7.862          	4.073
MS.346         	7.847          	4.109
MS.347         	7.83           	4.091
MS.348         	7.815          	4.097
MS.349         	7.8            	4.031
MS.350         	7.785          	3.882
MS.351         	7.767          	3.945
MS.352         	7.753          	4.026
MS.353         	7.737          	3.894
MS.354         	7.722          	3.812
MS.355         	7.707          	3.895
MS.356         	7.69           	3.86
MS.357         	7.675          	3.867
MS.358         	7.66           	3.651
MS.359         	7.645          	3.701
MS.360         	7.63           	3.656
MS.361         	7.615          	3.427
MS.362         	7.6            	3.573
MS.363         	7.585          	3.52
MS.364         	7.57           	3.554
MS.365         	7.555          	3.425
MS.366         	7.537          	3.417
MS.367         	7.523          	3.521
MS.368         	7.507          	3.359
MS.369         	7.492          	3.342
MS.370         	7.477          	3.275
MS.371         	7.462          	3.506
MS.372         	7.447          	3.141
MS.373         	7.435          	3.232
MS.374         	7.42           	3.353
MS.375         	7.405          	3.235
MS.376         	7.39           	3.147
MS.377         	7.375          	3.091
MS.378         	7.36           	3.088
MS.379         	7.345          	3.089
MS.380         	7.33           	3.025
MS.381         	7.315          	2.988
MS.382         	7.302          	3.011
MS.383         	7.287          	3.047
MS.384         	7.273          	3.09
MS.385         	7.257          	2.973
MS.386         	7.242          	2.886
MS.387         	7.227          	2.903
MS.388         	7.215          	2.835
MS.389         	7.2            	2.979
MS.390         	7.185          	2.827
MS.391         	7.17           	2.857
MS.392         	7.157          	2.755
MS.393         	7.142          	2.765
MS.394         	7.128          	2.729
MS.395         	7.115          	2.662
MS.396         	7.1            	2.713
MS.397         	7.085          	2.606
MS.398         	7.072          	2.581
MS.399         	7.057          	2.659
MS.400         	7.043          	2.567
MS.401         	7.03           	2.682
MS.402         	7.015          	2.712
MS.403         	7              	2.52
MS.404         	6.987          	2.463
MS.405         	6.972          	2.468
MS.406         	6.96           	2.374
MS.407         	6.945          	2.482
MS.408         	6.932          	2.382
MS.409         	6.918          	2.357
MS.410         	6.902          	2.281
MS.411         	6.89           	2.36
MS.412         	6.875          	2.404
MS.413         	6.862          	2.312
MS.414         	6.847          	2.18
MS.415         	6.835          	2.292
MS.416         	6.822          	2.088
MS.417         	6.807          	2.206
MS.418         	6.795          	2.056
MS.419         	6.78           	2.134
MS.420         	6.767          	2
MS.421         	6.753          	2.057
MS.422         	6.74           	2.01
MS.423         	6.727          	2.051
MS.424         	6.712          	2.003
MS.425         	6.7            	1.996
MS.426         	6.685          	2.017
MS.427         	6.672          	1.94
MS.428         	6.66           	1.847
MS.429         	6.645          	1.861
MS.430         	6.632          	1.885
MS.431         	6.62           	1.905
MS.432         	6.608          	1.874
MS.433         	6.592          	1.835
MS.434         	6.58           	1.99
MS.435         	6.567          	1.689
MS.436         	6.555          	1.694
MS.437         	6.54           	1.721
MS.438         	6.527          	1.725
MS.439         	6.515          	1.725
MS.440         	6.503          	1.741
MS.441         	6.487          	1.715
MS.442         	6.475          	1.606
MS.443         	6.462          	1.594
MS.444         	6.45           	1.589
MS.445         	6.438          	1.6
MS.446         	6.425          	1.586
MS.447         	6.41           	1.528
MS.448         	6.398          	1.473
MS.449         	6.385          	1.573
MS.450         	6.372          	1.503
MS.451         	6.36           	1.472
MS.452         	6.347          	1.465
MS.453         	6.335          	1.369
MS.454         	6.322          	1.423
MS.455         	6.31           	1.277
MS.456         	6.297          	1.354
MS.457         	6.285          	1.348
MS.458         	6.273          	1.339
MS.459         	6.26           	1.191
MS.460         	6.247          	1.266
MS.461         	6.235          	1.296
MS.462         	6.222          	1.239
MS.463         	6.21           	1.098
MS.464         	6.197          	1.107
MS.465         	6.185          	1.039
MS.466         	6.172          	1.204
MS.467         	6.16           	1.043
MS.468         	6.148          	1.152
MS.469         	6.135          	1.078
MS.470         	6.122          	0.954
MS.471         	6.11           	1.067
MS.472         	6.097          	0.909
MS.473         	6.088          	0.932
MS.474         	6.075          	0.94
MS.475         	6.062          	0.955
MS.476         	6.05           	0.978
MS.477         	6.037          	0.882
MS.478         	6.025          	0.905
MS.479         	6.012          	0.808
MS.480         	6.003          	0.812
MS.481         	5.99           	0.938
MS.482         	5.977          	0.773
MS.483         	5.965          	0.761
MS.484         	5.955          	0.82
MS.485         	5.942          	0.713
MS.486         	5.93           	0.764
MS.487         	5.918          	0.77
MS.488         	5.907          	0.765
MS.489         	5.895          	0.673
MS.490         	5.882          	0.677
MS.491         	5.87           	0.673
MS.492         	5.86           	0.624
MS.493         	5.847          	0.563
MS.494         	5.835          	0.599
MS.495         	5.825          	0.62
MS.496         	5.812          	0.591
MS.497         	5.8            	0.63
MS.498         	5.79           	0.534
MS.499         	5.777          	0.496
MS.500         	5.767          	0.621
MS.501         	5.755          	0.511
MS.502         	5.742          	0.48
MS.503         	5.733          	0.529
