File:              	C:\Qtrac\Data\ME2C30623B.QZD
Name:              	 JO31X
Protocol:          	MSCAN-MV
Date:              	23/6/23
Date of birth:     	31/10/91
Age:               	31
Sex:               	M
Temperature:       	33.5
S/R sites:         	Knee CF-TA
NC/disease:        	NC
Operator:          	BY
Comments:
M-SCAN DATA (Repeat 2/3, 17.5-11m)
Scanpts: 1, 26, 485, 538
Stim. (mA)     	Amp. (mV)
MS.1           	9              	4.026
MS.2           	9              	4.022
MS.3           	9              	4.022
MS.4           	9              	4.027
MS.5           	9              	4.025
MS.6           	9              	4.036
MS.7           	9              	4.015
MS.8           	9              	4.022
MS.9           	9              	4.012
MS.10          	9              	4.04
MS.11          	9              	4.006
MS.12          	9              	4.039
MS.13          	9              	4.042
MS.14          	9              	4.016
MS.15          	9              	4.009
MS.16          	9              	4.017
MS.17          	9              	4.021
MS.18          	9              	4.02
MS.19          	9              	4.025
MS.20          	9              	4.042
MS.21          	9              	4.022
MS.22          	9              	4.02
MS.23          	9              	4.024
MS.24          	8.983          	4.011
MS.25          	8.965          	4.022
MS.26          	8.945          	4.022
MS.27          	8.927          	4.042
MS.28          	8.91           	4.018
MS.29          	8.892          	4.025
MS.30          	8.875          	4.031
MS.31          	8.858          	4.02
MS.32          	8.84           	4.02
MS.33          	8.823          	4.039
MS.34          	8.805          	4.037
MS.35          	8.787          	4.023
MS.36          	8.77           	4.044
MS.37          	8.752          	4.027
MS.38          	8.735          	4.025
MS.39          	8.717          	4.02
MS.40          	8.7            	4.056
MS.41          	8.682          	4.035
MS.42          	8.665          	4.031
MS.43          	8.648          	4.035
MS.44          	8.63           	4.033
MS.45          	8.613          	4.038
MS.46          	8.595          	4.045
MS.47          	8.577          	4.019
MS.48          	8.56           	4.037
MS.49          	8.545          	4.032
MS.50          	8.528          	4.033
MS.51          	8.51           	4.053
MS.52          	8.492          	4.047
MS.53          	8.475          	4.041
MS.54          	8.46           	4.052
MS.55          	8.443          	4.062
MS.56          	8.425          	4.051
MS.57          	8.408          	4.05
MS.58          	8.392          	4.047
MS.59          	8.375          	4.048
MS.60          	8.358          	4.056
MS.61          	8.342          	4.047
MS.62          	8.325          	4.055
MS.63          	8.307          	4.052
MS.64          	8.292          	4.053
MS.65          	8.275          	4.043
MS.66          	8.257          	4.053
MS.67          	8.242          	4.052
MS.68          	8.225          	4.069
MS.69          	8.21           	4.077
MS.70          	8.193          	4.059
MS.71          	8.175          	4.043
MS.72          	8.16           	4.044
MS.73          	8.142          	4.031
MS.74          	8.127          	4.058
MS.75          	8.11           	4.047
MS.76          	8.095          	4.041
MS.77          	8.077          	4.056
MS.78          	8.062          	4.058
MS.79          	8.047          	4.056
MS.80          	8.03           	4.054
MS.81          	8.015          	4.05
MS.82          	7.997          	4.065
MS.83          	7.982          	4.043
MS.84          	7.967          	4.038
MS.85          	7.95           	4.046
MS.86          	7.935          	4.066
MS.87          	7.918          	4.045
MS.88          	7.902          	4.064
MS.89          	7.887          	4.039
MS.90          	7.872          	4.024
MS.91          	7.855          	4.025
MS.92          	7.84           	3.998
MS.93          	7.825          	4.004
MS.94          	7.807          	4.048
MS.95          	7.793          	4.031
MS.96          	7.777          	4.028
MS.97          	7.762          	4.025
MS.98          	7.747          	3.978
MS.99          	7.73           	4.042
MS.100         	7.715          	4.023
MS.101         	7.7            	3.995
MS.102         	7.685          	4
MS.103         	7.67           	4.022
MS.104         	7.655          	3.984
MS.105         	7.637          	3.972
MS.106         	7.622          	3.984
MS.107         	7.607          	3.946
MS.108         	7.592          	3.939
MS.109         	7.577          	3.966
MS.110         	7.562          	3.911
MS.111         	7.547          	3.943
MS.112         	7.532          	3.964
MS.113         	7.517          	3.934
MS.114         	7.503          	3.957
MS.115         	7.487          	3.923
MS.116         	7.472          	3.937
MS.117         	7.457          	3.914
MS.118         	7.442          	3.953
MS.119         	7.427          	3.93
MS.120         	7.412          	3.945
MS.121         	7.398          	3.864
MS.122         	7.382          	3.968
MS.123         	7.367          	3.884
MS.124         	7.355          	3.702
MS.125         	7.34           	3.874
MS.126         	7.325          	3.781
MS.127         	7.31           	3.7
MS.128         	7.295          	3.759
MS.129         	7.28           	3.788
MS.130         	7.265          	3.881
MS.131         	7.253          	3.646
MS.132         	7.237          	3.745
MS.133         	7.222          	3.873
MS.134         	7.207          	3.574
MS.135         	7.195          	3.654
MS.136         	7.18           	3.461
MS.137         	7.165          	3.535
MS.138         	7.15           	3.516
MS.139         	7.137          	3.721
MS.140         	7.122          	3.481
MS.141         	7.108          	3.781
MS.142         	7.095          	3.317
MS.143         	7.08           	3.437
MS.144         	7.065          	3.49
MS.145         	7.052          	3.445
MS.146         	7.037          	3.568
MS.147         	7.023          	3.59
MS.148         	7.01           	3.618
MS.149         	6.995          	3.528
MS.150         	6.98           	3.34
MS.151         	6.967          	3.387
MS.152         	6.952          	3.382
MS.153         	6.94           	3.301
MS.154         	6.925          	3.32
MS.155         	6.912          	3.256
MS.156         	6.898          	3.42
MS.157         	6.885          	3.356
MS.158         	6.87           	3.231
MS.159         	6.858          	3.257
MS.160         	6.842          	3.326
MS.161         	6.83           	3.292
MS.162         	6.815          	3.28
MS.163         	6.802          	3.224
MS.164         	6.787          	3.152
MS.165         	6.775          	3.41
MS.166         	6.762          	3.184
MS.167         	6.747          	3.231
MS.168         	6.735          	3.191
MS.169         	6.72           	3.116
MS.170         	6.707          	3.205
MS.171         	6.695          	3.145
MS.172         	6.68           	2.996
MS.173         	6.668          	3.133
MS.174         	6.655          	3.197
MS.175         	6.64           	3.117
MS.176         	6.628          	3.029
MS.177         	6.615          	3.138
MS.178         	6.6            	3.085
MS.179         	6.587          	3.082
MS.180         	6.575          	3.044
MS.181         	6.562          	3.077
MS.182         	6.547          	2.934
MS.183         	6.535          	3.107
MS.184         	6.523          	2.964
MS.185         	6.51           	3.048
MS.186         	6.495          	3.051
MS.187         	6.483          	3.022
MS.188         	6.47           	3.029
MS.189         	6.457          	2.979
MS.190         	6.445          	2.991
MS.191         	6.432          	2.925
MS.192         	6.42           	2.977
MS.193         	6.405          	2.888
MS.194         	6.392          	2.863
MS.195         	6.38           	2.825
MS.196         	6.367          	2.833
MS.197         	6.355          	2.842
MS.198         	6.342          	2.922
MS.199         	6.33           	2.929
MS.200         	6.317          	2.849
MS.201         	6.305          	2.797
MS.202         	6.293          	2.69
MS.203         	6.28           	2.643
MS.204         	6.267          	2.747
MS.205         	6.255          	2.581
MS.206         	6.242          	2.53
MS.207         	6.23           	2.581
MS.208         	6.217          	2.644
MS.209         	6.205          	2.531
MS.210         	6.192          	2.675
MS.211         	6.18           	2.431
MS.212         	6.168          	2.468
MS.213         	6.155          	2.447
MS.214         	6.142          	2.404
MS.215         	6.13           	2.489
MS.216         	6.117          	2.43
MS.217         	6.105          	2.36
MS.218         	6.092          	2.382
MS.219         	6.082          	2.407
MS.220         	6.07           	2.358
MS.221         	6.057          	2.399
MS.222         	6.045          	2.362
MS.223         	6.032          	2.375
MS.224         	6.02           	2.358
MS.225         	6.01           	2.213
MS.226         	5.997          	2.326
MS.227         	5.985          	2.231
MS.228         	5.972          	2.297
MS.229         	5.96           	2.31
MS.230         	5.95           	2.217
MS.231         	5.938          	2.255
MS.232         	5.925          	2.174
MS.233         	5.912          	2.104
MS.234         	5.902          	2.117
MS.235         	5.89           	2.107
MS.236         	5.878          	2.054
MS.237         	5.867          	2.125
MS.238         	5.855          	1.996
MS.239         	5.842          	2.14
MS.240         	5.83           	2.054
MS.241         	5.82           	1.917
MS.242         	5.807          	2.012
MS.243         	5.797          	2.172
MS.244         	5.785          	1.879
MS.245         	5.773          	2.008
MS.246         	5.762          	1.861
MS.247         	5.75           	1.885
MS.248         	5.737          	1.879
MS.249         	5.727          	1.808
MS.250         	5.715          	1.798
MS.251         	5.705          	1.84
MS.252         	5.692          	1.87
MS.253         	5.682          	1.606
MS.254         	5.67           	1.758
MS.255         	5.66           	1.941
MS.256         	5.648          	1.822
MS.257         	5.637          	1.735
MS.258         	5.625          	1.596
MS.259         	5.615          	1.73
MS.260         	5.602          	1.673
MS.261         	5.592          	1.623
MS.262         	5.58           	1.628
MS.263         	5.57           	1.531
MS.264         	5.557          	1.454
MS.265         	5.547          	1.492
MS.266         	5.535          	1.449
MS.267         	5.525          	1.409
MS.268         	5.512          	1.475
MS.269         	5.503          	1.43
MS.270         	5.492          	1.25
MS.271         	5.48           	1.327
MS.272         	5.47           	1.309
MS.273         	5.46           	1.352
MS.274         	5.447          	1.28
MS.275         	5.438          	1.265
MS.276         	5.425          	1.202
MS.277         	5.415          	1.322
MS.278         	5.405          	1.187
MS.279         	5.392          	1.228
MS.280         	5.382          	1.185
MS.281         	5.372          	1.23
MS.282         	5.362          	1.197
MS.283         	5.35           	1.14
MS.284         	5.34           	1.176
MS.285         	5.33           	1.095
MS.286         	5.318          	1.074
MS.287         	5.307          	1.027
MS.288         	5.297          	1.044
MS.289         	5.287          	1.068
MS.290         	5.277          	1.151
MS.291         	5.265          	1.047
MS.292         	5.255          	1.099
MS.293         	5.245          	1.036
MS.294         	5.235          	1.038
MS.295         	5.225          	1.011
MS.296         	5.213          	1.002
MS.297         	5.202          	0.891
MS.298         	5.193          	1.06
MS.299         	5.182          	1.033
MS.300         	5.172          	1.07
MS.301         	5.162          	0.982
MS.302         	5.15           	0.939
MS.303         	5.14           	0.898
MS.304         	5.13           	0.964
MS.305         	5.12           	0.961
MS.306         	5.11           	0.981
MS.307         	5.1            	0.962
MS.308         	5.09           	0.991
MS.309         	5.08           	0.787
MS.310         	5.07           	0.839
MS.311         	5.06           	0.925
MS.312         	5.05           	0.803
MS.313         	5.04           	0.879
MS.314         	5.03           	0.679
MS.315         	5.02           	0.722
MS.316         	5.01           	0.88
MS.317         	5              	0.887
MS.318         	4.99           	0.704
MS.319         	4.98           	0.906
MS.320         	4.97           	0.775
MS.321         	4.96           	0.772
MS.322         	4.95           	0.765
MS.323         	4.94           	0.812
MS.324         	4.93           	0.626
MS.325         	4.92           	0.685
MS.326         	4.91           	0.704
MS.327         	4.9            	0.723
MS.328         	4.89           	0.704
MS.329         	4.88           	0.831
MS.330         	4.87           	0.618
MS.331         	4.86           	0.643
MS.332         	4.85           	0.648
MS.333         	4.842          	0.569
MS.334         	4.832          	0.627
MS.335         	4.822          	0.632
MS.336         	4.812          	0.673
MS.337         	4.802          	0.505
MS.338         	4.793          	0.554
MS.339         	4.782          	0.503
MS.340         	4.775          	0.475
MS.341         	4.765          	0.585
MS.342         	4.755          	0.448
MS.343         	4.745          	0.431
MS.344         	4.735          	0.477
MS.345         	4.727          	0.491
MS.346         	4.717          	0.435
MS.347         	4.707          	0.459
MS.348         	4.697          	0.494
MS.349         	4.69           	0.435
MS.350         	4.68           	0.474
MS.351         	4.67           	0.4
MS.352         	4.66           	0.456
MS.353         	4.652          	0.413
MS.354         	4.642          	0.433
MS.355         	4.632          	0.381
MS.356         	4.625          	0.36
MS.357         	4.615          	0.366
MS.358         	4.605          	0.428
MS.359         	4.595          	0.363
MS.360         	4.588          	0.297
MS.361         	4.577          	0.325
MS.362         	4.568          	0.297
MS.363         	4.56           	0.294
MS.364         	4.55           	0.311
MS.365         	4.543          	0.264
MS.366         	4.532          	0.24
MS.367         	4.523          	0.233
MS.368         	4.515          	0.232
MS.369         	4.505          	0.269
MS.370         	4.495          	0.207
MS.371         	4.487          	0.22
MS.372         	4.477          	0.275
MS.373         	4.47           	0.192
MS.374         	4.46           	0.214
MS.375         	4.452          	0.153
MS.376         	4.443          	0.216
MS.377         	4.432          	0.193
MS.378         	4.425          	0.176
MS.379         	4.415          	0.176
MS.380         	4.407          	0.15
MS.381         	4.398          	0.18
MS.382         	4.39           	0.137
MS.383         	4.38           	0.201
MS.384         	4.372          	0.167
MS.385         	4.362          	0.158
MS.386         	4.355          	0.137
MS.387         	4.345          	0.166
MS.388         	4.338          	0.15
MS.389         	4.327          	0.143
MS.390         	4.32           	0.181
MS.391         	4.31           	0.217
MS.392         	4.302          	0.162
MS.393         	4.295          	0.145
MS.394         	4.285          	0.159
MS.395         	4.277          	0.11
MS.396         	4.267          	0.148
MS.397         	4.26           	0.122
MS.398         	4.253          	0.12
MS.399         	4.242          	0.12
MS.400         	4.235          	0.123
MS.401         	4.225          	0.12
MS.402         	4.217          	0.096
MS.403         	4.21           	0.125
MS.404         	4.2            	0.086
MS.405         	4.193          	0.11
MS.406         	4.185          	0.11
MS.407         	4.175          	0.109
MS.408         	4.168          	0.091
MS.409         	4.16           	0.105
MS.410         	4.15           	0.084
MS.411         	4.142          	0.108
MS.412         	4.135          	0.101
MS.413         	4.125          	0.106
MS.414         	4.117          	0.095
MS.415         	4.11           	0.078
MS.416         	4.1            	0.085
MS.417         	4.092          	0.076
MS.418         	4.085          	0.089
MS.419         	4.077          	0.071
MS.420         	4.068          	0.104
MS.421         	4.06           	0.077
MS.422         	4.052          	0.076
MS.423         	4.045          	0.077
MS.424         	4.035          	0.076
MS.425         	4.027          	0.082
MS.426         	4.02           	0.091
MS.427         	4.012          	0.057
MS.428         	4.003          	0.064
MS.429         	3.995          	0.045
MS.430         	3.987          	0.056
MS.431         	3.98           	0.068
MS.432         	3.972          	0.053
MS.433         	3.965          	0.056
MS.434         	3.955          	0.054
MS.435         	3.947          	0.058
MS.436         	3.94           	0.046
MS.437         	3.932          	0.04
MS.438         	3.925          	0.046
MS.439         	3.918          	0.05
MS.440         	3.91           	0.049
MS.441         	3.9            	0.045
MS.442         	3.892          	0.044
MS.443         	3.885          	0.041
MS.444         	3.877          	0.041
MS.445         	3.87           	0.041
MS.446         	3.862          	0.034
MS.447         	3.855          	0.04
MS.448         	3.847          	0.036
MS.449         	3.84           	0.037
MS.450         	3.832          	0.037
MS.451         	3.822          	0.038
MS.452         	3.815          	0.036
MS.453         	3.807          	0.033
MS.454         	3.8            	0.033
MS.455         	3.793          	0.034
MS.456         	3.785          	0.032
MS.457         	3.777          	0.034
MS.458         	3.77           	0.029
MS.459         	3.762          	0.031
MS.460         	3.755          	0.031
MS.461         	3.747          	0.03
MS.462         	3.74           	0.036
MS.463         	3.732          	0.036
MS.464         	3.725          	0.034
MS.465         	3.717          	0.029
MS.466         	3.71           	0.035
MS.467         	3.702          	0.027
MS.468         	3.695          	0.026
MS.469         	3.688          	0.024
MS.470         	3.68           	0.028
MS.471         	3.675          	0.025
MS.472         	3.668          	0.026
MS.473         	3.66           	0.025
MS.474         	3.652          	0.03
MS.475         	3.645          	0.025
MS.476         	3.637          	0.025
MS.477         	3.63           	0.028
MS.478         	3.622          	0.024
MS.479         	3.615          	0.026
MS.480         	3.607          	0.026
MS.481         	3.6            	0.027
MS.482         	3.595          	0.024
MS.483         	3.587          	0.025
MS.484         	3.58           	0.025
MS.485         	3.572          	0.027
MS.486         	3.565          	0.024
MS.487         	3.557          	0.025
MS.488         	3.55           	0.023
MS.489         	3.545          	0.027
MS.490         	3.537          	0.025
MS.491         	3.53           	0.022
MS.492         	3.523          	0.024
MS.493         	3.515          	0.024
MS.494         	3.507          	0.023
MS.495         	3.502          	0.023
MS.496         	3.495          	0.025
MS.497         	3.487          	0.022
MS.498         	3.48           	0.024
MS.499         	3.472          	0.026
MS.500         	3.467          	0.024
MS.501         	3.46           	0.023
MS.502         	3.452          	0.023
MS.503         	3.445          	0.023
