File:              	C:\Qtrac\Data\ME2C30711A.QZD
Name:              	 LL19N
Protocol:          	MSCAN-MV
Date:              	11/7/23
Date of birth:     	19/1/96
Age:               	27
Sex:               	M
Temperature:       	30.0
S/R sites:         	Knee CF-TA
NC/disease:        	NC
Operator:          	BY
Comments:
M-SCAN DATA (Repeat 3/3, 30-23.8m)
Scanpts: 2, 8, 385, 394
Stim. (mA)     	Amp. (mV)
MS.1           	10             	5.728
MS.2           	10             	5.698
MS.3           	9.98           	5.759
MS.4           	9.96           	5.715
MS.5           	9.94           	5.71
MS.6           	9.92           	5.708
MS.7           	9.9            	5.741
MS.8           	9.88           	5.703
MS.9           	9.86           	5.739
MS.10          	9.842          	5.739
MS.11          	9.823          	5.682
MS.12          	9.802          	5.676
MS.13          	9.782          	5.682
MS.14          	9.762          	5.712
MS.15          	9.742          	5.687
MS.16          	9.725          	5.647
MS.17          	9.705          	5.675
MS.18          	9.685          	5.666
MS.19          	9.665          	5.716
MS.20          	9.648          	5.684
MS.21          	9.627          	5.655
MS.22          	9.608          	5.645
MS.23          	9.587          	5.662
MS.24          	9.57           	5.626
MS.25          	9.55           	5.685
MS.26          	9.532          	5.651
MS.27          	9.512          	5.659
MS.28          	9.492          	5.654
MS.29          	9.475          	5.675
MS.30          	9.455          	5.691
MS.31          	9.438          	5.687
MS.32          	9.417          	5.64
MS.33          	9.4            	5.646
MS.34          	9.38           	5.654
MS.35          	9.363          	5.618
MS.36          	9.342          	5.639
MS.37          	9.325          	5.62
MS.38          	9.305          	5.571
MS.39          	9.287          	5.618
MS.40          	9.267          	5.63
MS.41          	9.25           	5.698
MS.42          	9.23           	5.624
MS.43          	9.212          	5.739
MS.44          	9.195          	5.676
MS.45          	9.175          	5.565
MS.46          	9.158          	5.579
MS.47          	9.14           	5.544
MS.48          	9.12           	5.594
MS.49          	9.102          	5.579
MS.50          	9.085          	5.616
MS.51          	9.068          	5.587
MS.52          	9.047          	5.592
MS.53          	9.03           	5.536
MS.54          	9.012          	5.532
MS.55          	8.995          	5.574
MS.56          	8.977          	5.549
MS.57          	8.957          	5.517
MS.58          	8.94           	5.491
MS.59          	8.922          	5.475
MS.60          	8.905          	5.506
MS.61          	8.887          	5.53
MS.62          	8.87           	5.501
MS.63          	8.852          	5.519
MS.64          	8.835          	5.488
MS.65          	8.815          	5.49
MS.66          	8.797          	5.48
MS.67          	8.78           	5.454
MS.68          	8.762          	5.497
MS.69          	8.745          	5.456
MS.70          	8.727          	5.314
MS.71          	8.71           	5.416
MS.72          	8.693          	5.412
MS.73          	8.675          	5.367
MS.74          	8.66           	5.373
MS.75          	8.642          	5.333
MS.76          	8.625          	5.345
MS.77          	8.608          	5.319
MS.78          	8.59           	5.287
MS.79          	8.573          	5.255
MS.80          	8.555          	5.367
MS.81          	8.537          	5.275
MS.82          	8.523          	5.236
MS.83          	8.505          	5.228
MS.84          	8.488          	5.282
MS.85          	8.47           	5.283
MS.86          	8.452          	5.295
MS.87          	8.438          	5.206
MS.88          	8.42           	5.234
MS.89          	8.403          	5.145
MS.90          	8.385          	5.169
MS.91          	8.37           	5.093
MS.92          	8.352          	5.115
MS.93          	8.335          	5.072
MS.94          	8.32           	5.064
MS.95          	8.302          	5.009
MS.96          	8.285          	5.033
MS.97          	8.27           	5.056
MS.98          	8.252          	5.007
MS.99          	8.238          	4.971
MS.100         	8.22           	4.936
MS.101         	8.202          	4.786
MS.102         	8.188          	4.844
MS.103         	8.17           	5.037
MS.104         	8.155          	4.92
MS.105         	8.137          	4.832
MS.106         	8.122          	4.909
MS.107         	8.105          	4.902
MS.108         	8.09           	4.758
MS.109         	8.073          	4.785
MS.110         	8.057          	4.819
MS.111         	8.042          	4.766
MS.112         	8.025          	4.815
MS.113         	8.01           	4.722
MS.114         	7.992          	4.722
MS.115         	7.977          	4.587
MS.116         	7.96           	4.572
MS.117         	7.945          	4.749
MS.118         	7.93           	4.703
MS.119         	7.912          	4.714
MS.120         	7.898          	4.63
MS.121         	7.882          	4.625
MS.122         	7.867          	4.465
MS.123         	7.85           	4.59
MS.124         	7.835          	4.528
MS.125         	7.82           	4.619
MS.126         	7.802          	4.591
MS.127         	7.787          	4.539
MS.128         	7.773          	4.476
MS.129         	7.757          	4.464
MS.130         	7.742          	4.522
MS.131         	7.725          	4.432
MS.132         	7.71           	4.382
MS.133         	7.695          	4.396
MS.134         	7.68           	4.344
MS.135         	7.665          	4.326
MS.136         	7.65           	4.159
MS.137         	7.635          	4.301
MS.138         	7.617          	4.291
MS.139         	7.602          	4.37
MS.140         	7.587          	4.296
MS.141         	7.572          	4.08
MS.142         	7.557          	4.21
MS.143         	7.543          	4.161
MS.144         	7.527          	4.052
MS.145         	7.512          	4.028
MS.146         	7.497          	4.137
MS.147         	7.482          	4.11
MS.148         	7.467          	3.939
MS.149         	7.452          	4.014
MS.150         	7.438          	3.809
MS.151         	7.422          	3.898
MS.152         	7.407          	3.961
MS.153         	7.392          	3.907
MS.154         	7.378          	3.663
MS.155         	7.365          	3.73
MS.156         	7.35           	3.922
MS.157         	7.335          	3.588
MS.158         	7.32           	3.604
MS.159         	7.305          	3.636
MS.160         	7.29           	3.489
MS.161         	7.275          	3.623
MS.162         	7.262          	3.622
MS.163         	7.247          	3.428
MS.164         	7.233          	3.404
MS.165         	7.217          	3.4
MS.166         	7.202          	3.293
MS.167         	7.19           	3.279
MS.168         	7.175          	3.457
MS.169         	7.16           	3.464
MS.170         	7.145          	3.234
MS.171         	7.132          	3.273
MS.172         	7.117          	3.105
MS.173         	7.102          	3.07
MS.174         	7.09           	2.996
MS.175         	7.075          	2.817
MS.176         	7.06           	3.057
MS.177         	7.047          	3.112
MS.178         	7.032          	2.837
MS.179         	7.02           	3.008
MS.180         	7.005          	2.818
MS.181         	6.99           	2.798
MS.182         	6.977          	2.772
MS.183         	6.962          	2.775
MS.184         	6.95           	2.841
MS.185         	6.935          	2.823
MS.186         	6.92           	2.533
MS.187         	6.907          	2.538
MS.188         	6.892          	2.58
MS.189         	6.88           	2.515
MS.190         	6.865          	2.471
MS.191         	6.852          	2.35
MS.192         	6.837          	2.473
MS.193         	6.825          	2.302
MS.194         	6.812          	2.2
MS.195         	6.797          	2.277
MS.196         	6.785          	2.305
MS.197         	6.77           	2.283
MS.198         	6.757          	2.156
MS.199         	6.742          	2.125
MS.200         	6.73           	2.169
MS.201         	6.717          	2.086
MS.202         	6.702          	2.135
MS.203         	6.69           	2.049
MS.204         	6.677          	2.004
MS.205         	6.662          	2
MS.206         	6.65           	1.974
MS.207         	6.637          	2.005
MS.208         	6.622          	2.007
MS.209         	6.61           	2.031
MS.210         	6.597          	1.908
MS.211         	6.582          	1.929
MS.212         	6.57           	1.718
MS.213         	6.557          	1.899
MS.214         	6.545          	1.911
MS.215         	6.53           	1.687
MS.216         	6.517          	1.907
MS.217         	6.505          	1.716
MS.218         	6.492          	1.679
MS.219         	6.48           	1.525
MS.220         	6.465          	1.432
MS.221         	6.452          	1.566
MS.222         	6.44           	1.616
MS.223         	6.427          	1.641
MS.224         	6.415          	1.505
MS.225         	6.402          	1.454
MS.226         	6.39           	1.626
MS.227         	6.378          	1.41
MS.228         	6.362          	1.535
MS.229         	6.35           	1.277
MS.230         	6.338          	1.398
MS.231         	6.325          	1.429
MS.232         	6.312          	1.423
MS.233         	6.3            	1.326
MS.234         	6.287          	1.265
MS.235         	6.275          	1.237
MS.236         	6.262          	1.107
MS.237         	6.25           	1.302
MS.238         	6.237          	1.321
MS.239         	6.225          	1.177
MS.240         	6.213          	1.183
MS.241         	6.2            	1.244
MS.242         	6.188          	1.053
MS.243         	6.175          	1.035
MS.244         	6.162          	1.001
MS.245         	6.15           	0.964
MS.246         	6.137          	1.061
MS.247         	6.128          	0.862
MS.248         	6.115          	0.891
MS.249         	6.102          	0.845
MS.250         	6.09           	1.079
MS.251         	6.077          	0.91
MS.252         	6.065          	0.937
MS.253         	6.052          	0.938
MS.254         	6.04           	0.913
MS.255         	6.03           	0.842
MS.256         	6.017          	0.749
MS.257         	6.005          	0.801
MS.258         	5.992          	0.739
MS.259         	5.98           	0.591
MS.260         	5.97           	0.679
MS.261         	5.957          	0.628
MS.262         	5.945          	0.609
MS.263         	5.932          	0.615
MS.264         	5.922          	0.415
MS.265         	5.91           	0.557
MS.266         	5.898          	0.43
MS.267         	5.885          	0.535
MS.268         	5.875          	0.433
MS.269         	5.862          	0.444
MS.270         	5.85           	0.351
MS.271         	5.84           	0.529
MS.272         	5.827          	0.24
MS.273         	5.815          	0.37
MS.274         	5.805          	0.218
MS.275         	5.793          	0.273
MS.276         	5.78           	0.298
MS.277         	5.77           	0.267
MS.278         	5.757          	0.132
MS.279         	5.747          	0.202
MS.280         	5.735          	0.098
MS.281         	5.722          	0.165
MS.282         	5.713          	0.101
MS.283         	5.7            	0.213
MS.284         	5.69           	0.123
MS.285         	5.677          	0.043
MS.286         	5.668          	0.031
MS.287         	5.655          	-0.074
MS.288         	5.645          	0.059
MS.289         	5.632          	-0.056
MS.290         	5.622          	-0.13
MS.291         	5.61           	-0.095
MS.292         	5.6            	-0.226
MS.293         	5.588          	-0.034
MS.294         	5.577          	-0.215
MS.295         	5.565          	-0.175
MS.296         	5.555          	-0.081
MS.297         	5.543          	-0.244
MS.298         	5.532          	-0.253
MS.299         	5.52           	-0.311
MS.300         	5.51           	-0.268
MS.301         	5.5            	-0.322
MS.302         	5.487          	-0.294
MS.303         	5.477          	-0.36
MS.304         	5.465          	-0.344
MS.305         	5.455          	-0.327
MS.306         	5.445          	-0.271
MS.307         	5.432          	-0.413
MS.308         	5.422          	-0.42
MS.309         	5.412          	-0.371
MS.310         	5.4            	-0.45
MS.311         	5.39           	-0.481
MS.312         	5.38           	-0.361
MS.313         	5.367          	-0.408
MS.314         	5.358          	-0.329
MS.315         	5.347          	-0.438
MS.316         	5.338          	-0.494
MS.317         	5.325          	-0.46
MS.318         	5.315          	-0.439
MS.319         	5.305          	-0.505
MS.320         	5.295          	-0.517
MS.321         	5.282          	-0.545
MS.322         	5.273          	-0.429
MS.323         	5.262          	-0.526
MS.324         	5.253          	-0.455
MS.325         	5.242          	-0.436
MS.326         	5.23           	-0.499
MS.327         	5.22           	-0.492
MS.328         	5.21           	-0.482
MS.329         	5.2            	-0.45
MS.330         	5.19           	-0.479
MS.331         	5.18           	-0.366
MS.332         	5.168          	-0.438
MS.333         	5.157          	-0.559
MS.334         	5.148          	-0.533
MS.335         	5.137          	-0.621
MS.336         	5.128          	-0.657
MS.337         	5.117          	-0.591
MS.338         	5.108          	-0.565
MS.339         	5.097          	-0.511
MS.340         	5.088          	-0.569
MS.341         	5.077          	-0.645
MS.342         	5.065          	-0.647
MS.343         	5.055          	-0.671
MS.344         	5.045          	-0.723
MS.345         	5.035          	-0.517
MS.346         	5.025          	-0.667
MS.347         	5.015          	-0.542
MS.348         	5.005          	-0.714
MS.349         	4.995          	-0.663
MS.350         	4.985          	-0.655
MS.351         	4.975          	-0.673
MS.352         	4.965          	-0.69
MS.353         	4.955          	-0.653
MS.354         	4.945          	-0.674
MS.355         	4.935          	-0.731
MS.356         	4.927          	-0.744
MS.357         	4.918          	-0.689
MS.358         	4.907          	-0.681
MS.359         	4.898          	-0.719
MS.360         	4.887          	-0.649
MS.361         	4.878          	-0.678
MS.362         	4.867          	-0.693
MS.363         	4.858          	-0.627
MS.364         	4.847          	-0.677
MS.365         	4.838          	-0.667
MS.366         	4.827          	-0.656
MS.367         	4.82           	-0.723
MS.368         	4.81           	-0.712
MS.369         	4.8            	-0.707
MS.370         	4.79           	-0.703
MS.371         	4.78           	-0.712
MS.372         	4.77           	-0.727
MS.373         	4.762          	-0.725
MS.374         	4.753          	-0.687
MS.375         	4.742          	-0.726
MS.376         	4.733          	-0.719
MS.377         	4.722          	-0.688
MS.378         	4.715          	-0.728
MS.379         	4.705          	-0.718
MS.380         	4.695          	-0.724
MS.381         	4.685          	-0.722
MS.382         	4.677          	-0.702
MS.383         	4.668          	-0.726
MS.384         	4.657          	-0.688
MS.385         	4.648          	-0.74
MS.386         	4.64           	-0.752
MS.387         	4.63           	-0.757
MS.388         	4.62           	-0.702
MS.389         	4.612          	-0.73
MS.390         	4.602          	-0.757
MS.391         	4.592          	-0.693
MS.392         	4.585          	-0.746
MS.393         	4.575          	-0.753
MS.394         	4.565          	-0.736
MS.395         	4.557          	-0.702
MS.396         	4.548          	-0.715
MS.397         	4.537          	-0.699
MS.398         	4.53           	-0.721
MS.399         	4.52           	-0.684
MS.400         	4.512          	-0.705
MS.401         	4.503          	-0.652
MS.402         	4.492          	-0.689
MS.403         	4.485          	-0.685
MS.404         	4.475          	-0.734
MS.405         	4.467          	-0.718
MS.406         	4.457          	-0.695
MS.407         	4.447          	-0.724
MS.408         	4.44           	-0.678
MS.409         	4.43           	-0.685
MS.410         	4.423          	-0.665
MS.411         	4.412          	-0.659
MS.412         	4.405          	-0.667
MS.413         	4.395          	-0.681
MS.414         	4.387          	-0.707
MS.415         	4.378          	-0.681
MS.416         	4.37           	-0.683
MS.417         	4.36           	-0.699
MS.418         	4.352          	-0.713
MS.419         	4.342          	-0.69
MS.420         	4.335          	-0.665
MS.421         	4.325          	-0.677
MS.422         	4.318          	-0.668
MS.423         	4.307          	-0.669
MS.424         	4.3            	-0.685
MS.425         	4.293          	-0.673
MS.426         	4.282          	-0.679
MS.427         	4.275          	-0.693
MS.428         	4.265          	-0.676
MS.429         	4.257          	-0.694
MS.430         	4.247          	-0.685
MS.431         	4.24           	-0.703
MS.432         	4.233          	-0.65
MS.433         	4.222          	-0.684
MS.434         	4.215          	-0.672
MS.435         	4.207          	-0.677
MS.436         	4.197          	-0.658
MS.437         	4.19           	-0.694
MS.438         	4.18           	-0.673
MS.439         	4.173          	-0.67
MS.440         	4.165          	-0.701
MS.441         	4.155          	-0.694
MS.442         	4.148          	-0.683
MS.443         	4.14           	-0.628
MS.444         	4.132          	-0.659
MS.445         	4.122          	-0.692
MS.446         	4.115          	-0.679
MS.447         	4.108          	-0.687
MS.448         	4.097          	-0.62
MS.449         	4.09           	-0.67
MS.450         	4.082          	-0.701
MS.451         	4.075          	-0.677
MS.452         	4.065          	-0.663
MS.453         	4.057          	-0.643
MS.454         	4.05           	-0.669
MS.455         	4.043          	-0.657
MS.456         	4.032          	-0.651
MS.457         	4.025          	-0.649
MS.458         	4.017          	-0.679
MS.459         	4.01           	-0.651
MS.460         	4              	-0.667
MS.461         	3.992          	-0.665
DERIVED EXCITABILITY VARIABLES
Program = QTracP 27/06/2023
Threshold method = 6 (optimised for CAP, using data for present condition only)
SR method = 1 (using actual data values)
6.                 	0.000               	Peak response\(mV)
9.                 	30                  	Temperature ( C)
17.                	27                  	Age (years)
18.                	1                   	Sex (M=1, F=2)

EXTRA VARIABLES

MScPeak(mV) = 5.73
MScS5(mA) = 5.8
MScS50(mA) = 7.04
MScS95(mA) = 8.74
MScNSteps = 5
MScSteps(%) = 13.5
MScStepMax(%) = 3.3
MScD50 = 52
MScSlope = 5.61
MScDuration(min) = 6.5
MSFTraces = 393
MSFPeakAmp(mV) = 6.46
MSFNUnits = 145
MSFMeanUnitAmp(uV) = 44.5
MSFHuntTime(m) = 1.48
MSFError(%) = 1.8
MSFNLarge = 52.42
MSFMedianAmp(%) = 0.652
MSFMedianAmp(mV) = 0.0421
MSFHalfAmpAmp(%) = 0.753
MSFHalfAmpAmp(mV) = 0.0486
MSFLargestAmp(%) = 1.64
MSFLargestAmp(mV) = 0.106
MSFMeanRS(%) = 2
MSFSizeLimit(uV) = 21.5
MSFLimitType = 1
MSFSmallestAmp(uV) = 21.7
MSFOpts = 10104222032
MSFSDMax = 22.3
MSFSDMin = 22.3

EXTRA WAVEFORMS


!MScan Model
!145
	1	4.77	0.42	2
	2	4.91	0.34	2
	3	5.06	0.8	2
	4	5.07	1.17	2
	5	5.12	0.9	2
	6	5.36	1.11	2
	7	5.43	0.98	2
	8	5.46	0.46	2
	9	5.49	0.54	2
	10	5.52	0.64	2
	11	5.53	0.58	2
	12	5.57	0.94	2
	13	5.59	0.56	2
	14	5.6	0.37	2
	15	5.63	0.66	2
	16	5.64	0.78	2
	17	5.67	0.74	2
	18	5.69	0.68	2
	19	5.72	0.75	2
	20	5.74	0.99	2
	21	5.76	0.48	2
	22	5.78	0.56	2
