File:              	C:\Qtrac\Data\ME2C30707A.QZD
Name:              	 SO09N
Protocol:          	MSCAN-MV
Date:              	7/7/23
Date of birth:     	9/6/00
Age:               	23
Sex:               	M
Temperature:       	32
S/R sites:         	Knee CF-TA
NC/disease:        	NC
Operator:          	BY
Comments:
M-SCAN DATA (Repeat 3/3, 30.4-22.5m)
Scanpts: 63, 78, 584, 594
Stim. (mA)     	Amp. (mV)
MS.1           	13.5           	7.151
MS.2           	13.5           	7.109
MS.3           	13.5           	7.11
MS.4           	13.5           	7.101
MS.5           	13.5           	7.108
MS.6           	13.5           	7.131
MS.7           	13.5           	7.115
MS.8           	13.5           	7.136
MS.9           	13.5           	7.139
MS.10          	13.5           	7.13
MS.11          	13.5           	7.119
MS.12          	13.5           	7.119
MS.13          	13.5           	7.123
MS.14          	13.5           	7.121
MS.15          	13.5           	7.112
MS.16          	13.5           	7.13
MS.17          	13.5           	7.141
MS.18          	13.5           	7.133
MS.19          	13.5           	7.138
MS.20          	13.5           	7.117
MS.21          	13.5           	7.126
MS.22          	13.5           	7.121
MS.23          	13.5           	7.137
MS.24          	13.472         	7.15
MS.25          	13.445         	7.153
MS.26          	13.42          	7.123
MS.27          	13.392         	7.147
MS.28          	13.365         	7.123
MS.29          	13.34          	7.122
MS.30          	13.312         	7.124
MS.31          	13.285         	7.131
MS.32          	13.26          	7.145
MS.33          	13.233         	7.15
MS.34          	13.205         	7.147
MS.35          	13.18          	7.092
MS.36          	13.153         	7.119
MS.37          	13.127         	7.115
MS.38          	13.1           	7.145
MS.39          	13.075         	7.155
MS.40          	13.047         	7.134
MS.41          	13.023         	7.128
MS.42          	12.997         	7.147
MS.43          	12.97          	7.137
MS.44          	12.945         	7.127
MS.45          	12.92          	7.116
MS.46          	12.892         	7.166
MS.47          	12.867         	7.075
MS.48          	12.842         	7.107
MS.49          	12.815         	7.087
MS.50          	12.79          	7.086
MS.51          	12.765         	7.09
MS.52          	12.74          	7.073
MS.53          	12.715         	7.104
MS.54          	12.688         	7.09
MS.55          	12.662         	7.09
MS.56          	12.637         	7.125
MS.57          	12.613         	7.127
MS.58          	12.587         	7.122
MS.59          	12.562         	7.137
MS.60          	12.537         	7.086
MS.61          	12.512         	7.142
MS.62          	12.488         	7.11
MS.63          	12.462         	7.153
MS.64          	12.438         	7.113
MS.65          	12.412         	7.124
MS.66          	12.387         	7.132
MS.67          	12.363         	7.143
MS.68          	12.337         	7.122
MS.69          	12.312         	7.119
MS.70          	12.29          	7.149
MS.71          	12.265         	7.14
MS.72          	12.24          	7.148
MS.73          	12.215         	7.144
MS.74          	12.19          	7.103
MS.75          	12.167         	7.175
MS.76          	12.142         	7.125
MS.77          	12.117         	7.122
MS.78          	12.095         	7.122
MS.79          	12.07          	7.139
MS.80          	12.045         	7.155
MS.81          	12.023         	7.158
MS.82          	11.997         	7.196
MS.83          	11.972         	7.145
MS.84          	11.95          	7.161
MS.85          	11.925         	7.114
MS.86          	11.903         	7.133
MS.87          	11.877         	7.099
MS.88          	11.855         	7.116
MS.89          	11.83          	7.118
MS.90          	11.807         	7.11
MS.91          	11.782         	7.148
MS.92          	11.76          	7.109
MS.93          	11.738         	7.155
MS.94          	11.712         	7.165
MS.95          	11.69          	7.127
MS.96          	11.665         	7.162
MS.97          	11.642         	7.161
MS.98          	11.62          	7.164
MS.99          	11.597         	7.139
MS.100         	11.572         	7.165
MS.101         	11.55          	7.195
MS.102         	11.528         	7.162
MS.103         	11.505         	7.186
MS.104         	11.48          	7.134
MS.105         	11.457         	7.145
MS.106         	11.435         	7.156
MS.107         	11.412         	7.174
MS.108         	11.39          	7.175
MS.109         	11.367         	7.186
MS.110         	11.345         	7.168
MS.111         	11.322         	7.136
MS.112         	11.297         	7.13
MS.113         	11.275         	7.139
MS.114         	11.252         	7.173
MS.115         	11.23          	7.159
MS.116         	11.207         	7.174
MS.117         	11.188         	7.181
MS.118         	11.165         	7.144
MS.119         	11.142         	7.147
MS.120         	11.12          	7.186
MS.121         	11.097         	7.148
MS.122         	11.075         	7.158
MS.123         	11.052         	7.144
MS.124         	11.03          	7.179
MS.125         	11.007         	7.155
MS.126         	10.988         	7.17
MS.127         	10.965         	7.175
MS.128         	10.943         	7.181
MS.129         	10.92          	7.18
MS.130         	10.9           	7.173
MS.131         	10.877         	7.181
MS.132         	10.855         	7.161
MS.133         	10.835         	7.156
MS.134         	10.812         	7.139
MS.135         	10.79          	7.171
MS.136         	10.77          	7.167
MS.137         	10.747         	7.167
MS.138         	10.725         	7.181
MS.139         	10.705         	7.159
MS.140         	10.682         	7.16
MS.141         	10.662         	7.173
MS.142         	10.64          	7.201
MS.143         	10.62          	7.136
MS.144         	10.597         	7.144
MS.145         	10.577         	7.168
MS.146         	10.555         	7.158
MS.147         	10.535         	7.135
MS.148         	10.515         	7.138
MS.149         	10.492         	7.158
MS.150         	10.472         	7.177
MS.151         	10.45          	7.158
MS.152         	10.43          	7.133
MS.153         	10.41          	7.175
MS.154         	10.387         	7.13
MS.155         	10.367         	7.092
MS.156         	10.347         	7.2
MS.157         	10.327         	7.119
MS.158         	10.305         	7.09
MS.159         	10.285         	7.157
MS.160         	10.265         	7.125
MS.161         	10.245         	7.109
MS.162         	10.222         	7.121
MS.163         	10.202         	7.123
MS.164         	10.182         	7.124
MS.165         	10.162         	7.128
MS.166         	10.142         	7.071
MS.167         	10.122         	7.115
MS.168         	10.102         	7.128
MS.169         	10.082         	7.09
MS.170         	10.06          	7.085
MS.171         	10.04          	7.073
MS.172         	10.02          	7.072
MS.173         	10             	7.091
MS.174         	9.98           	7.061
MS.175         	9.96           	7.07
MS.176         	9.94           	7.082
MS.177         	9.922          	7.076
MS.178         	9.903          	7.069
MS.179         	9.882          	7.053
MS.180         	9.863          	7.042
MS.181         	9.842          	6.994
MS.182         	9.823          	6.989
MS.183         	9.802          	6.974
MS.184         	9.782          	6.991
MS.185         	9.765          	7.06
MS.186         	9.745          	6.974
MS.187         	9.725          	6.973
MS.188         	9.705          	6.966
MS.189         	9.685          	6.931
MS.190         	9.667          	6.916
MS.191         	9.648          	6.958
MS.192         	9.627          	7.01
MS.193         	9.61           	6.96
MS.194         	9.59           	6.982
MS.195         	9.57           	6.925
MS.196         	9.552          	6.957
MS.197         	9.532          	6.949
MS.198         	9.512          	6.871
MS.199         	9.495          	6.838
MS.200         	9.475          	6.905
MS.201         	9.457          	6.835
MS.202         	9.438          	6.862
MS.203         	9.417          	6.863
MS.204         	9.4            	6.847
MS.205         	9.38           	6.902
MS.206         	9.363          	6.827
MS.207         	9.342          	6.865
MS.208         	9.325          	6.865
MS.209         	9.307          	6.741
MS.210         	9.287          	6.788
MS.211         	9.27           	6.793
MS.212         	9.25           	6.663
MS.213         	9.233          	6.726
MS.214         	9.212          	6.701
MS.215         	9.195          	6.703
MS.216         	9.177          	6.678
MS.217         	9.158          	6.71
MS.218         	9.14           	6.716
MS.219         	9.122          	6.702
MS.220         	9.105          	6.66
MS.221         	9.085          	6.524
MS.222         	9.068          	6.699
MS.223         	9.05           	6.636
MS.224         	9.03           	6.615
MS.225         	9.012          	6.407
MS.226         	8.995          	6.505
MS.227         	8.977          	6.412
MS.228         	8.96           	6.359
MS.229         	8.943          	6.387
MS.230         	8.922          	6.482
MS.231         	8.905          	6.291
MS.232         	8.887          	6.387
MS.233         	8.87           	6.373
MS.234         	8.852          	6.289
MS.235         	8.835          	6.387
MS.236         	8.818          	6.368
MS.237         	8.8            	6.34
MS.238         	8.783          	6.384
MS.239         	8.765          	6.065
MS.240         	8.747          	6.163
MS.241         	8.73           	6.122
MS.242         	8.712          	6.083
MS.243         	8.695          	6.136
MS.244         	8.677          	6.156
MS.245         	8.66           	6.168
MS.246         	8.642          	6.238
MS.247         	8.625          	6.096
MS.248         	8.608          	5.995
MS.249         	8.59           	5.947
MS.250         	8.573          	6.053
MS.251         	8.557          	5.81
MS.252         	8.54           	5.963
MS.253         	8.523          	5.87
MS.254         	8.505          	5.914
MS.255         	8.488          	5.927
MS.256         	8.472          	5.822
MS.257         	8.455          	5.82
MS.258         	8.438          	5.798
MS.259         	8.42           	5.764
MS.260         	8.405          	5.745
MS.261         	8.387          	5.705
MS.262         	8.37           	5.716
MS.263         	8.352          	5.704
MS.264         	8.337          	5.556
MS.265         	8.32           	5.609
MS.266         	8.302          	5.522
MS.267         	8.287          	5.498
MS.268         	8.27           	5.526
MS.269         	8.255          	5.419
MS.270         	8.238          	5.483
MS.271         	8.22           	5.43
MS.272         	8.205          	5.458
MS.273         	8.188          	5.313
MS.274         	8.172          	5.255
MS.275         	8.155          	5.307
MS.276         	8.14           	5.222
MS.277         	8.122          	5.226
MS.278         	8.108          	5.187
MS.279         	8.09           	5.264
MS.280         	8.075          	5.186
MS.281         	8.057          	5.132
MS.282         	8.042          	5.159
MS.283         	8.025          	4.999
MS.284         	8.01           	5.065
MS.285         	7.995          	5.182
MS.286         	7.977          	5.01
MS.287         	7.962          	5.028
MS.288         	7.945          	4.93
MS.289         	7.93           	4.971
MS.290         	7.915          	4.854
MS.291         	7.898          	4.825
MS.292         	7.882          	4.808
MS.293         	7.867          	4.838
MS.294         	7.852          	4.814
MS.295         	7.835          	4.733
MS.296         	7.82           	4.72
MS.297         	7.805          	4.677
MS.298         	7.79           	4.603
MS.299         	7.773          	4.583
MS.300         	7.757          	4.662
MS.301         	7.742          	4.435
MS.302         	7.727          	4.507
MS.303         	7.712          	4.52
MS.304         	7.695          	4.304
MS.305         	7.68           	4.308
MS.306         	7.665          	4.456
MS.307         	7.65           	4.275
MS.308         	7.635          	4.366
MS.309         	7.62           	4.285
MS.310         	7.605          	4.352
MS.311         	7.59           	4.247
MS.312         	7.575          	4.218
MS.313         	7.557          	4.088
MS.314         	7.543          	4.142
MS.315         	7.527          	4.15
MS.316         	7.512          	4.102
MS.317         	7.497          	4.143
MS.318         	7.482          	4.01
MS.319         	7.467          	4.014
MS.320         	7.452          	4.051
MS.321         	7.438          	4.057
MS.322         	7.425          	4.144
MS.323         	7.41           	3.905
MS.324         	7.395          	4.016
MS.325         	7.38           	3.97
MS.326         	7.365          	3.895
MS.327         	7.35           	3.882
MS.328         	7.335          	3.856
MS.329         	7.32           	3.936
MS.330         	7.305          	3.884
MS.331         	7.293          	3.951
MS.332         	7.277          	3.958
MS.333         	7.262          	3.79
MS.334         	7.247          	3.793
MS.335         	7.233          	3.765
MS.336         	7.22           	3.768
MS.337         	7.205          	3.769
MS.338         	7.19           	3.751
MS.339         	7.175          	3.67
MS.340         	7.162          	3.612
MS.341         	7.148          	3.644
MS.342         	7.132          	3.693
MS.343         	7.117          	3.649
MS.344         	7.105          	3.566
MS.345         	7.09           	3.583
MS.346         	7.075          	3.545
MS.347         	7.062          	3.569
MS.348         	7.047          	3.553
MS.349         	7.032          	3.577
MS.350         	7.02           	3.597
MS.351         	7.005          	3.504
MS.352         	6.992          	3.502
MS.353         	6.977          	3.427
MS.354         	6.962          	3.456
MS.355         	6.95           	3.384
MS.356         	6.935          	3.427
MS.357         	6.922          	3.392
MS.358         	6.907          	3.333
MS.359         	6.895          	3.34
MS.360         	6.88           	3.295
MS.361         	6.867          	3.206
MS.362         	6.852          	3.375
MS.363         	6.84           	3.293
MS.364         	6.825          	3.265
MS.365         	6.812          	3.225
MS.366         	6.797          	3.201
MS.367         	6.785          	3.123
MS.368         	6.773          	3.175
MS.369         	6.757          	3.11
MS.370         	6.745          	3.153
MS.371         	6.73           	3.081
MS.372         	6.717          	2.922
MS.373         	6.705          	2.9
MS.374         	6.69           	2.919
MS.375         	6.677          	3.043
MS.376         	6.665          	2.737
MS.377         	6.65           	2.761
MS.378         	6.637          	2.839
MS.379         	6.625          	2.689
MS.380         	6.61           	2.776
MS.381         	6.597          	2.785
MS.382         	6.585          	2.762
MS.383         	6.57           	2.554
MS.384         	6.557          	2.833
MS.385         	6.545          	2.642
MS.386         	6.532          	2.495
MS.387         	6.52           	2.532
MS.388         	6.505          	2.423
MS.389         	6.492          	2.508
MS.390         	6.48           	2.385
MS.391         	6.467          	2.443
MS.392         	6.455          	2.45
MS.393         	6.44           	2.38
MS.394         	6.427          	2.318
MS.395         	6.415          	2.302
MS.396         	6.402          	2.197
MS.397         	6.39           	2.242
MS.398         	6.378          	2.285
MS.399         	6.365          	2.133
MS.400         	6.352          	2.123
MS.401         	6.34           	2.173
MS.402         	6.325          	2.136
MS.403         	6.312          	1.998
MS.404         	6.3            	2.072
MS.405         	6.287          	2.035
MS.406         	6.275          	2.158
MS.407         	6.262          	2.043
MS.408         	6.25           	1.933
MS.409         	6.237          	1.884
MS.410         	6.225          	1.996
MS.411         	6.213          	1.974
MS.412         	6.2            	1.877
MS.413         	6.188          	1.963
MS.414         	6.175          	1.724
MS.415         	6.165          	1.84
MS.416         	6.152          	1.729
MS.417         	6.14           	1.628
MS.418         	6.128          	1.79
MS.419         	6.115          	1.834
MS.420         	6.102          	1.657
MS.421         	6.09           	1.643
MS.422         	6.077          	1.597
MS.423         	6.065          	1.706
MS.424         	6.055          	1.631
MS.425         	6.043          	1.546
MS.426         	6.03           	1.596
MS.427         	6.017          	1.515
MS.428         	6.005          	1.547
MS.429         	5.992          	1.416
MS.430         	5.983          	1.467
MS.431         	5.97           	1.55
MS.432         	5.957          	1.474
MS.433         	5.945          	1.423
MS.434         	5.935          	1.484
MS.435         	5.922          	1.407
MS.436         	5.91           	1.277
MS.437         	5.898          	1.213
MS.438         	5.887          	1.264
MS.439         	5.875          	1.237
MS.440         	5.862          	1.252
MS.441         	5.852          	1.188
MS.442         	5.84           	1.159
MS.443         	5.827          	1.176
MS.444         	5.817          	1.128
MS.445         	5.805          	1.112
MS.446         	5.793          	1.093
MS.447         	5.782          	0.975
MS.448         	5.77           	0.948
MS.449         	5.757          	0.913
MS.450         	5.747          	1.037
MS.451         	5.735          	0.913
MS.452         	5.725          	1.005
MS.453         	5.713          	0.87
MS.454         	5.702          	0.852
MS.455         	5.69           	0.815
MS.456         	5.677          	0.908
MS.457         	5.668          	0.883
MS.458         	5.655          	0.92
MS.459         	5.645          	0.815
MS.460         	5.632          	0.833
MS.461         	5.622          	0.841
MS.462         	5.61           	0.815
MS.463         	5.6            	0.702
MS.464         	5.588          	0.693
MS.465         	5.577          	0.743
MS.466         	5.565          	0.724
MS.467         	5.555          	0.599
MS.468         	5.545          	0.589
MS.469         	5.532          	0.526
MS.470         	5.523          	0.637
MS.471         	5.51           	0.604
MS.472         	5.5            	0.532
MS.473         	5.487          	0.505
MS.474         	5.477          	0.483
MS.475         	5.467          	0.539
MS.476         	5.455          	0.49
MS.477         	5.445          	0.377
MS.478         	5.435          	0.491
MS.479         	5.422          	0.383
MS.480         	5.412          	0.336
MS.481         	5.402          	0.336
MS.482         	5.39           	0.286
MS.483         	5.38           	0.377
MS.484         	5.37           	0.331
MS.485         	5.358          	0.27
MS.486         	5.347          	0.261
MS.487         	5.338          	0.269
MS.488         	5.327          	0.264
MS.489         	5.315          	0.249
MS.490         	5.305          	0.193
MS.491         	5.295          	0.236
MS.492         	5.285          	0.11
MS.493         	5.273          	0.158
MS.494         	5.262          	0.082
MS.495         	5.253          	0.106
MS.496         	5.242          	0.128
MS.497         	5.233          	0.096
MS.498         	5.22           	0.073
MS.499         	5.21           	0.032
MS.500         	5.2            	0.037
MS.501         	5.19           	0.086
MS.502         	5.18           	-0.015
MS.503         	5.17           	0.011
