File:              	C:\Qtrac\Data\ME2C30713A.QZD
Name:              	 SH18U
Protocol:          	MSCAN-MV
Date:              	13/7/23
Date of birth:     	18/6/94
Age:               	29
Sex:               	F
Temperature:       	32.0
S/R sites:         	Knee CF-TA
NC/disease:        	NC
Operator:          	BY
Comments:
M-SCAN DATA (Repeat 2/3, 15.3-9.1m)
Scanpts: 20, 30, 454, 503
Stim. (mA)     	Amp. (mV)
MS.1           	20             	5.877
MS.2           	20             	5.874
MS.3           	20             	5.877
MS.4           	20             	5.859
MS.5           	20             	5.837
MS.6           	20             	5.847
MS.7           	20             	5.846
MS.8           	20             	5.852
MS.9           	20             	5.849
MS.10          	20             	5.806
MS.11          	20             	5.838
MS.12          	20             	5.833
MS.13          	20             	5.858
MS.14          	20             	5.859
MS.15          	20             	5.875
MS.16          	20             	5.888
MS.17          	20             	5.865
MS.18          	20             	5.906
MS.19          	20             	5.86
MS.20          	20             	5.919
MS.21          	20             	5.895
MS.22          	20             	5.917
MS.23          	20             	5.87
MS.24          	19.96          	5.9
MS.25          	19.92          	5.93
MS.26          	19.88          	5.914
MS.27          	19.84          	5.853
MS.28          	19.8           	5.898
MS.29          	19.762         	5.872
MS.30          	19.722         	5.865
MS.31          	19.682         	5.908
MS.32          	19.642         	5.896
MS.33          	19.605         	5.888
MS.34          	19.565         	5.905
MS.35          	19.525         	5.827
MS.36          	19.487         	5.854
MS.37          	19.448         	5.802
MS.38          	19.41          	5.826
MS.39          	19.37          	5.832
MS.40          	19.333         	5.825
MS.41          	19.292         	5.826
MS.42          	19.255         	5.822
MS.43          	19.215         	5.828
MS.44          	19.177         	5.792
MS.45          	19.14          	5.795
MS.46          	19.1           	5.794
MS.47          	19.062         	5.797
MS.48          	19.025         	5.795
MS.49          	18.987         	5.786
MS.50          	18.948         	5.774
MS.51          	18.91          	5.783
MS.52          	18.872         	5.763
MS.53          	18.835         	5.746
MS.54          	18.797         	5.723
MS.55          	18.76          	5.742
MS.56          	18.722         	5.783
MS.57          	18.685         	5.754
MS.58          	18.647         	5.77
MS.59          	18.61          	5.737
MS.60          	18.573         	5.688
MS.61          	18.538         	5.698
MS.62          	18.5           	5.706
MS.63          	18.462         	5.684
MS.64          	18.425         	5.674
MS.65          	18.387         	5.714
MS.66          	18.352         	5.68
MS.67          	18.315         	5.698
MS.68          	18.278         	5.69
MS.69          	18.243         	5.682
MS.70          	18.205         	5.645
MS.71          	18.17          	5.657
MS.72          	18.132         	5.551
MS.73          	18.097         	5.623
MS.74          	18.06          	5.562
MS.75          	18.025         	5.55
MS.76          	17.987         	5.613
MS.77          	17.952         	5.555
MS.78          	17.917         	5.547
MS.79          	17.88          	5.549
MS.80          	17.845         	5.535
MS.81          	17.81          	5.464
MS.82          	17.775         	5.484
MS.83          	17.737         	5.483
MS.84          	17.702         	5.464
MS.85          	17.667         	5.467
MS.86          	17.632         	5.43
MS.87          	17.597         	5.416
MS.88          	17.562         	5.36
MS.89          	17.528         	5.4
MS.90          	17.493         	5.422
MS.91          	17.458         	5.421
MS.92          	17.422         	5.416
MS.93          	17.387         	5.377
MS.94          	17.352         	5.333
MS.95          	17.317         	5.335
MS.96          	17.282         	5.389
MS.97          	17.247         	5.387
MS.98          	17.215         	5.345
MS.99          	17.18          	5.344
MS.100         	17.145         	5.295
MS.101         	17.11          	5.287
MS.102         	17.077         	5.314
MS.103         	17.042         	5.24
MS.104         	17.01          	5.258
MS.105         	16.975         	5.226
MS.106         	16.94          	5.172
MS.107         	16.907         	5.177
MS.108         	16.872         	5.179
MS.109         	16.84          	5.154
MS.110         	16.805         	5.103
MS.111         	16.772         	5.052
MS.112         	16.74          	5.09
MS.113         	16.705         	4.96
MS.114         	16.672         	5.026
MS.115         	16.637         	4.996
MS.116         	16.605         	5.04
MS.117         	16.573         	4.904
MS.118         	16.54          	4.924
MS.119         	16.505         	4.911
MS.120         	16.472         	4.849
MS.121         	16.44          	4.778
MS.122         	16.407         	4.852
MS.123         	16.375         	4.877
MS.124         	16.342         	4.792
MS.125         	16.31          	4.852
MS.126         	16.278         	4.747
MS.127         	16.245         	4.677
MS.128         	16.212         	4.784
MS.129         	16.18          	4.612
MS.130         	16.147         	4.666
MS.131         	16.115         	4.559
MS.132         	16.083         	4.628
MS.133         	16.05          	4.579
MS.134         	16.017         	4.618
MS.135         	15.987         	4.5
MS.136         	15.955         	4.503
MS.137         	15.922         	4.449
MS.138         	15.89          	4.536
MS.139         	15.86          	4.418
MS.140         	15.827         	4.387
MS.141         	15.795         	4.325
MS.142         	15.765         	4.336
MS.143         	15.733         	4.362
MS.144         	15.7           	4.24
MS.145         	15.67          	4.24
MS.146         	15.637         	4.255
MS.147         	15.608         	4.291
MS.148         	15.575         	4.163
MS.149         	15.545         	4.124
MS.150         	15.515         	4.11
MS.151         	15.483         	4.08
MS.152         	15.452         	4.036
MS.153         	15.42          	4.052
MS.154         	15.39          	3.984
MS.155         	15.36          	4.016
MS.156         	15.33          	3.956
MS.157         	15.297         	3.849
MS.158         	15.267         	3.86
MS.159         	15.237         	3.892
MS.160         	15.207         	3.877
MS.161         	15.177         	3.715
MS.162         	15.145         	3.819
MS.163         	15.115         	3.693
MS.164         	15.085         	3.73
MS.165         	15.055         	3.744
MS.166         	15.025         	3.742
MS.167         	14.995         	3.672
MS.168         	14.965         	3.664
MS.169         	14.935         	3.586
MS.170         	14.905         	3.545
MS.171         	14.875         	3.569
MS.172         	14.845         	3.485
MS.173         	14.818         	3.539
MS.174         	14.787         	3.391
MS.175         	14.757         	3.491
MS.176         	14.727         	3.376
MS.177         	14.697         	3.361
MS.178         	14.67          	3.29
MS.179         	14.64          	3.289
MS.180         	14.61          	3.229
MS.181         	14.58          	3.192
MS.182         	14.552         	3.228
MS.183         	14.523         	3.121
MS.184         	14.495         	3.096
MS.185         	14.465         	3.087
MS.186         	14.435         	3.008
MS.187         	14.407         	2.95
MS.188         	14.377         	2.993
MS.189         	14.35          	2.982
MS.190         	14.32          	3.015
MS.191         	14.292         	3.022
MS.192         	14.265         	3.03
MS.193         	14.235         	2.914
MS.194         	14.207         	2.974
MS.195         	14.177         	2.868
MS.196         	14.15          	2.819
MS.197         	14.122         	2.803
MS.198         	14.095         	2.715
MS.199         	14.065         	2.739
MS.200         	14.037         	2.617
MS.201         	14.01          	2.631
MS.202         	13.983         	2.581
MS.203         	13.952         	2.59
MS.204         	13.925         	2.624
MS.205         	13.898         	2.595
MS.206         	13.87          	2.485
MS.207         	13.842         	2.548
MS.208         	13.815         	2.452
MS.209         	13.787         	2.433
MS.210         	13.76          	2.477
MS.211         	13.733         	2.371
MS.212         	13.705         	2.347
MS.213         	13.677         	2.388
MS.214         	13.65          	2.284
MS.215         	13.622         	2.332
MS.216         	13.595         	2.265
MS.217         	13.568         	2.19
MS.218         	13.54          	2.203
MS.219         	13.515         	2.136
MS.220         	13.487         	2.156
MS.221         	13.46          	2.105
MS.222         	13.432         	2.059
MS.223         	13.407         	2.094
MS.224         	13.38          	2.025
MS.225         	13.352         	2.034
MS.226         	13.325         	1.971
MS.227         	13.3           	1.995
MS.228         	13.273         	1.909
MS.229         	13.247         	1.863
MS.230         	13.22          	1.905
MS.231         	13.193         	1.829
MS.232         	13.167         	1.767
MS.233         	13.14          	1.859
MS.234         	13.115         	1.794
MS.235         	13.087         	1.696
MS.236         	13.062         	1.705
MS.237         	13.035         	1.755
MS.238         	13.01          	1.778
MS.239         	12.985         	1.743
MS.240         	12.957         	1.672
MS.241         	12.932         	1.563
MS.242         	12.907         	1.55
MS.243         	12.88          	1.537
MS.244         	12.855         	1.516
MS.245         	12.83          	1.489
MS.246         	12.802         	1.511
MS.247         	12.778         	1.503
MS.248         	12.752         	1.484
MS.249         	12.727         	1.446
MS.250         	12.702         	1.405
MS.251         	12.677         	1.42
MS.252         	12.65          	1.394
MS.253         	12.625         	1.407
MS.254         	12.6           	1.289
MS.255         	12.575         	1.3
MS.256         	12.55          	1.299
MS.257         	12.525         	1.259
MS.258         	12.5           	1.236
MS.259         	12.475         	1.215
MS.260         	12.45          	1.208
MS.261         	12.425         	1.234
MS.262         	12.4           	1.125
MS.263         	12.375         	1.191
MS.264         	12.35          	1.185
MS.265         	12.327         	1.089
MS.266         	12.302         	1.069
MS.267         	12.278         	1.035
MS.268         	12.252         	0.967
MS.269         	12.227         	1.022
MS.270         	12.202         	0.944
MS.271         	12.18          	0.947
MS.272         	12.155         	0.89
MS.273         	12.13          	0.923
MS.274         	12.108         	0.901
MS.275         	12.082         	0.872
MS.276         	12.057         	0.806
MS.277         	12.035         	0.857
MS.278         	12.01          	0.822
MS.279         	11.985         	0.815
MS.280         	11.962         	0.85
MS.281         	11.938         	0.824
MS.282         	11.915         	0.82
MS.283         	11.89          	0.789
MS.284         	11.867         	0.796
MS.285         	11.842         	0.762
MS.286         	11.82          	0.762
MS.287         	11.795         	0.751
MS.288         	11.773         	0.738
MS.289         	11.747         	0.79
MS.290         	11.725         	0.804
MS.291         	11.702         	0.717
MS.292         	11.677         	0.728
MS.293         	11.655         	0.674
MS.294         	11.632         	0.692
MS.295         	11.608         	0.686
MS.296         	11.585         	0.687
MS.297         	11.562         	0.62
MS.298         	11.54          	0.643
MS.299         	11.515         	0.664
MS.300         	11.492         	0.62
MS.301         	11.47          	0.612
MS.302         	11.447         	0.588
MS.303         	11.425         	0.527
MS.304         	11.403         	0.593
MS.305         	11.377         	0.596
MS.306         	11.355         	0.561
MS.307         	11.332         	0.498
MS.308         	11.31          	0.507
MS.309         	11.287         	0.541
MS.310         	11.265         	0.515
MS.311         	11.242         	0.461
MS.312         	11.22          	0.558
MS.313         	11.197         	0.443
MS.314         	11.175         	0.435
MS.315         	11.153         	0.427
MS.316         	11.13          	0.419
MS.317         	11.108         	0.363
MS.318         	11.087         	0.436
MS.319         	11.065         	0.427
MS.320         	11.042         	0.347
MS.321         	11.02          	0.388
MS.322         	10.997         	0.333
MS.323         	10.975         	0.361
MS.324         	10.955         	0.334
MS.325         	10.932         	0.294
MS.326         	10.91          	0.316
MS.327         	10.89          	0.243
MS.328         	10.867         	0.28
MS.329         	10.845         	0.286
MS.330         	10.823         	0.255
MS.331         	10.802         	0.264
MS.332         	10.78          	0.204
MS.333         	10.76          	0.179
MS.334         	10.738         	0.256
MS.335         	10.715         	0.201
MS.336         	10.695         	0.168
MS.337         	10.672         	0.171
MS.338         	10.653         	0.192
MS.339         	10.63          	0.107
MS.340         	10.61          	0.154
MS.341         	10.587         	0.107
MS.342         	10.568         	0.121
MS.343         	10.545         	0.125
MS.344         	10.525         	0.164
MS.345         	10.505         	0.168
MS.346         	10.483         	0.094
MS.347         	10.462         	0.058
MS.348         	10.44          	0.069
MS.349         	10.42          	0.059
MS.350         	10.4           	0.028
MS.351         	10.377         	0.051
MS.352         	10.358         	0.029
MS.353         	10.337         	0.044
MS.354         	10.318         	0.04
MS.355         	10.295         	0.017
MS.356         	10.275         	0.032
MS.357         	10.255         	0.027
MS.358         	10.235         	0.013
MS.359         	10.212         	-0.012
MS.360         	10.193         	-0.004
MS.361         	10.172         	0.004
MS.362         	10.153         	-0.009
MS.363         	10.132         	-0.026
MS.364         	10.113         	-0.011
MS.365         	10.092         	-0.023
MS.366         	10.073         	-0.034
MS.367         	10.052         	-0.026
MS.368         	10.032         	-0.048
MS.369         	10.012         	-0.036
MS.370         	9.992          	-0.044
MS.371         	9.972          	-0.039
MS.372         	9.952          	-0.045
MS.373         	9.932          	-0.052
MS.374         	9.912          	-0.009
MS.375         	9.892          	-0.05
MS.376         	9.872          	-0.053
MS.377         	9.852          	-0.048
MS.378         	9.832          	-0.059
MS.379         	9.812          	-0.071
MS.380         	9.792          	-0.103
MS.381         	9.775          	-0.079
MS.382         	9.755          	-0.103
MS.383         	9.735          	-0.103
MS.384         	9.715          	-0.078
MS.385         	9.695          	-0.104
MS.386         	9.677          	-0.104
MS.387         	9.657          	-0.095
MS.388         	9.637          	-0.081
MS.389         	9.62           	-0.109
MS.390         	9.6            	-0.086
MS.391         	9.58           	-0.102
MS.392         	9.562          	-0.098
MS.393         	9.542          	-0.121
MS.394         	9.523          	-0.132
MS.395         	9.505          	-0.114
MS.396         	9.485          	-0.124
MS.397         	9.465          	-0.127
MS.398         	9.448          	-0.113
MS.399         	9.427          	-0.104
MS.400         	9.41           	-0.145
MS.401         	9.39           	-0.135
MS.402         	9.372          	-0.134
MS.403         	9.352          	-0.123
MS.404         	9.335          	-0.142
MS.405         	9.315          	-0.134
MS.406         	9.297          	-0.122
MS.407         	9.28           	-0.13
MS.408         	9.26           	-0.15
MS.409         	9.242          	-0.135
MS.410         	9.222          	-0.14
MS.411         	9.205          	-0.14
MS.412         	9.188          	-0.135
MS.413         	9.167          	-0.129
MS.414         	9.15           	-0.133
MS.415         	9.132          	-0.14
MS.416         	9.113          	-0.121
MS.417         	9.095          	-0.146
MS.418         	9.077          	-0.145
MS.419         	9.06           	-0.141
MS.420         	9.04           	-0.143
MS.421         	9.023          	-0.145
MS.422         	9.005          	-0.14
MS.423         	8.988          	-0.144
MS.424         	8.967          	-0.139
MS.425         	8.95           	-0.147
MS.426         	8.932          	-0.134
MS.427         	8.915          	-0.142
MS.428         	8.898          	-0.146
MS.429         	8.88           	-0.133
MS.430         	8.863          	-0.144
MS.431         	8.845          	-0.144
MS.432         	8.827          	-0.15
MS.433         	8.807          	-0.143
MS.434         	8.79           	-0.138
MS.435         	8.773          	-0.14
MS.436         	8.755          	-0.134
MS.437         	8.738          	-0.14
MS.438         	8.72           	-0.139
MS.439         	8.702          	-0.135
MS.440         	8.685          	-0.141
MS.441         	8.67           	-0.143
MS.442         	8.653          	-0.133
MS.443         	8.635          	-0.133
MS.444         	8.617          	-0.132
MS.445         	8.6            	-0.134
MS.446         	8.582          	-0.134
MS.447         	8.565          	-0.139
MS.448         	8.547          	-0.139
MS.449         	8.53           	-0.14
MS.450         	8.515          	-0.136
MS.451         	8.497          	-0.132
MS.452         	8.48           	-0.139
MS.453         	8.462          	-0.121
MS.454         	8.448          	-0.131
MS.455         	8.43           	-0.136
MS.456         	8.412          	-0.123
MS.457         	8.395          	-0.139
MS.458         	8.38           	-0.131
MS.459         	8.363          	-0.13
MS.460         	8.345          	-0.131
MS.461         	8.33           	-0.135
MS.462         	8.312          	-0.136
MS.463         	8.295          	-0.128
MS.464         	8.28           	-0.126
MS.465         	8.262          	-0.132
MS.466         	8.245          	-0.137
MS.467         	8.23           	-0.128
MS.468         	8.212          	-0.136
MS.469         	8.198          	-0.121
MS.470         	8.18           	-0.131
MS.471         	8.165          	-0.133
MS.472         	8.148          	-0.132
MS.473         	8.132          	-0.131
MS.474         	8.115          	-0.131
MS.475         	8.1            	-0.118
MS.476         	8.082          	-0.123
MS.477         	8.068          	-0.132
MS.478         	8.05           	-0.126
MS.479         	8.035          	-0.121
MS.480         	8.017          	-0.121
MS.481         	8.002          	-0.131
MS.482         	7.987          	-0.126
MS.483         	7.97           	-0.13
MS.484         	7.955          	-0.121
MS.485         	7.938          	-0.128
MS.486         	7.922          	-0.131
MS.487         	7.907          	-0.134
MS.488         	7.89           	-0.129
MS.489         	7.875          	-0.128
MS.490         	7.86           	-0.124
MS.491         	7.845          	-0.129
MS.492         	7.827          	-0.123
MS.493         	7.812          	-0.126
MS.494         	7.797          	-0.122
MS.495         	7.782          	-0.126
MS.496         	7.765          	-0.121
MS.497         	7.75           	-0.123
MS.498         	7.735          	-0.122
MS.499         	7.72           	-0.123
