File:              	C:\Qtrac\Data\ME2C30707A.QZD
Name:              	 SO09N
Protocol:          	MSCAN-MV
Date:              	7/7/23
Date of birth:     	9/6/00
Age:               	23
Sex:               	M
Temperature:       	32
S/R sites:         	Knee CF-TA
NC/disease:        	NC
Operator:          	BY
Comments:
M-SCAN DATA (Repeat 2/3, 21-12.6m)
Scanpts: 7, 19, 637, 677
Stim. (mA)     	Amp. (mV)
MS.1           	13.5           	7.111
MS.2           	13.5           	7.122
MS.3           	13.5           	7.106
MS.4           	13.5           	7.083
MS.5           	13.5           	7.108
MS.6           	13.5           	7.084
MS.7           	13.5           	7.095
MS.8           	13.5           	7.101
MS.9           	13.5           	7.084
MS.10          	13.5           	7.072
MS.11          	13.5           	7.098
MS.12          	13.5           	7.108
MS.13          	13.5           	7.103
MS.14          	13.5           	7.092
MS.15          	13.5           	7.101
MS.16          	13.5           	7.095
MS.17          	13.5           	7.104
MS.18          	13.5           	7.094
MS.19          	13.5           	7.072
MS.20          	13.5           	7.086
MS.21          	13.5           	7.066
MS.22          	13.5           	7.073
MS.23          	13.5           	7.095
MS.24          	13.472         	7.079
MS.25          	13.445         	7.077
MS.26          	13.42          	7.08
MS.27          	13.392         	7.067
MS.28          	13.365         	7.079
MS.29          	13.34          	7.059
MS.30          	13.312         	7.07
MS.31          	13.285         	7.045
MS.32          	13.26          	7.068
MS.33          	13.233         	7.021
MS.34          	13.205         	7.042
MS.35          	13.18          	7.032
MS.36          	13.153         	7.043
MS.37          	13.127         	7.033
MS.38          	13.1           	7.041
MS.39          	13.075         	7.017
MS.40          	13.047         	7.023
MS.41          	13.023         	7.056
MS.42          	12.997         	7.025
MS.43          	12.97          	7.006
MS.44          	12.945         	6.994
MS.45          	12.92          	6.995
MS.46          	12.892         	6.999
MS.47          	12.867         	6.982
MS.48          	12.842         	6.992
MS.49          	12.815         	7.003
MS.50          	12.79          	6.98
MS.51          	12.765         	6.997
MS.52          	12.74          	7.014
MS.53          	12.715         	6.973
MS.54          	12.688         	6.992
MS.55          	12.662         	6.99
MS.56          	12.637         	6.984
MS.57          	12.613         	6.979
MS.58          	12.587         	6.987
MS.59          	12.562         	6.977
MS.60          	12.537         	6.962
MS.61          	12.512         	6.971
MS.62          	12.488         	6.949
MS.63          	12.462         	6.951
MS.64          	12.438         	6.956
MS.65          	12.412         	6.951
MS.66          	12.387         	6.985
MS.67          	12.363         	6.949
MS.68          	12.337         	6.945
MS.69          	12.312         	6.943
MS.70          	12.29          	6.938
MS.71          	12.265         	6.949
MS.72          	12.24          	6.953
MS.73          	12.215         	6.934
MS.74          	12.19          	6.967
MS.75          	12.167         	6.926
MS.76          	12.142         	6.92
MS.77          	12.117         	6.924
MS.78          	12.095         	6.933
MS.79          	12.07          	6.953
MS.80          	12.045         	6.923
MS.81          	12.023         	6.912
MS.82          	11.997         	6.921
MS.83          	11.972         	6.9
MS.84          	11.95          	6.926
MS.85          	11.925         	6.896
MS.86          	11.903         	6.927
MS.87          	11.877         	6.929
MS.88          	11.855         	6.946
MS.89          	11.83          	6.893
MS.90          	11.807         	6.927
MS.91          	11.782         	6.904
MS.92          	11.76          	6.9
MS.93          	11.738         	6.911
MS.94          	11.712         	6.898
MS.95          	11.69          	6.898
MS.96          	11.665         	6.832
MS.97          	11.642         	6.907
MS.98          	11.62          	6.864
MS.99          	11.597         	6.872
MS.100         	11.572         	6.86
MS.101         	11.55          	6.832
MS.102         	11.528         	6.876
MS.103         	11.505         	6.858
MS.104         	11.48          	6.895
MS.105         	11.457         	6.813
MS.106         	11.435         	6.86
MS.107         	11.412         	6.866
MS.108         	11.39          	6.867
MS.109         	11.367         	6.865
MS.110         	11.345         	6.832
MS.111         	11.322         	6.805
MS.112         	11.297         	6.818
MS.113         	11.275         	6.83
MS.114         	11.252         	6.817
MS.115         	11.23          	6.799
MS.116         	11.207         	6.824
MS.117         	11.188         	6.763
MS.118         	11.165         	6.812
MS.119         	11.142         	6.806
MS.120         	11.12          	6.829
MS.121         	11.097         	6.806
MS.122         	11.075         	6.785
MS.123         	11.052         	6.785
MS.124         	11.03          	6.774
MS.125         	11.007         	6.766
MS.126         	10.988         	6.727
MS.127         	10.965         	6.798
MS.128         	10.943         	6.746
MS.129         	10.92          	6.744
MS.130         	10.9           	6.696
MS.131         	10.877         	6.732
MS.132         	10.855         	6.743
MS.133         	10.835         	6.713
MS.134         	10.812         	6.748
MS.135         	10.79          	6.703
MS.136         	10.77          	6.71
MS.137         	10.747         	6.735
MS.138         	10.725         	6.66
MS.139         	10.705         	6.713
MS.140         	10.682         	6.65
MS.141         	10.662         	6.683
MS.142         	10.64          	6.716
MS.143         	10.62          	6.669
MS.144         	10.597         	6.667
MS.145         	10.577         	6.638
MS.146         	10.555         	6.655
MS.147         	10.535         	6.599
MS.148         	10.515         	6.625
MS.149         	10.492         	6.627
MS.150         	10.472         	6.622
MS.151         	10.45          	6.665
MS.152         	10.43          	6.624
MS.153         	10.41          	6.628
MS.154         	10.387         	6.646
MS.155         	10.367         	6.606
MS.156         	10.347         	6.631
MS.157         	10.327         	6.545
MS.158         	10.305         	6.608
MS.159         	10.285         	6.585
MS.160         	10.265         	6.619
MS.161         	10.245         	6.629
MS.162         	10.222         	6.554
MS.163         	10.202         	6.506
MS.164         	10.182         	6.606
MS.165         	10.162         	6.453
MS.166         	10.142         	6.562
MS.167         	10.122         	6.53
MS.168         	10.102         	6.329
MS.169         	10.082         	6.48
MS.170         	10.06          	6.447
MS.171         	10.04          	6.476
MS.172         	10.02          	6.457
MS.173         	10             	6.395
MS.174         	9.98           	6.334
MS.175         	9.96           	6.455
MS.176         	9.94           	6.301
MS.177         	9.922          	6.533
MS.178         	9.903          	6.464
MS.179         	9.882          	6.385
MS.180         	9.863          	6.342
MS.181         	9.842          	6.309
MS.182         	9.823          	6.355
MS.183         	9.802          	6.341
MS.184         	9.782          	6.231
MS.185         	9.765          	6.249
MS.186         	9.745          	6.299
MS.187         	9.725          	6.271
MS.188         	9.705          	6.332
MS.189         	9.685          	6.165
MS.190         	9.667          	6.24
MS.191         	9.648          	6.183
MS.192         	9.627          	6.211
MS.193         	9.61           	6.253
MS.194         	9.59           	6.207
MS.195         	9.57           	6.175
MS.196         	9.552          	6.15
MS.197         	9.532          	6.021
MS.198         	9.512          	6.126
MS.199         	9.495          	6.021
MS.200         	9.475          	6.078
MS.201         	9.457          	6.02
MS.202         	9.438          	6.099
MS.203         	9.417          	6
MS.204         	9.4            	5.972
MS.205         	9.38           	5.844
MS.206         	9.363          	5.861
MS.207         	9.342          	5.971
MS.208         	9.325          	5.884
MS.209         	9.307          	5.847
MS.210         	9.287          	5.841
MS.211         	9.27           	5.929
MS.212         	9.25           	5.753
MS.213         	9.233          	5.926
MS.214         	9.212          	5.947
MS.215         	9.195          	5.761
MS.216         	9.177          	5.737
MS.217         	9.158          	5.591
MS.218         	9.14           	5.675
MS.219         	9.122          	5.809
MS.220         	9.105          	5.62
MS.221         	9.085          	5.688
MS.222         	9.068          	5.595
MS.223         	9.05           	5.517
MS.224         	9.03           	5.486
MS.225         	9.012          	5.491
MS.226         	8.995          	5.609
MS.227         	8.977          	5.449
MS.228         	8.96           	5.576
MS.229         	8.943          	5.382
MS.230         	8.922          	5.549
MS.231         	8.905          	5.35
MS.232         	8.887          	5.263
MS.233         	8.87           	5.513
MS.234         	8.852          	5.374
MS.235         	8.835          	5.345
MS.236         	8.818          	5.342
MS.237         	8.8            	5.203
MS.238         	8.783          	5.327
MS.239         	8.765          	5.217
MS.240         	8.747          	5.159
MS.241         	8.73           	5.134
MS.242         	8.712          	5.427
MS.243         	8.695          	5.146
MS.244         	8.677          	5.2
MS.245         	8.66           	5.164
MS.246         	8.642          	5.196
MS.247         	8.625          	5.012
MS.248         	8.608          	5.148
MS.249         	8.59           	5.015
MS.250         	8.573          	5.078
MS.251         	8.557          	5.101
MS.252         	8.54           	5.098
MS.253         	8.523          	5.123
MS.254         	8.505          	5.175
MS.255         	8.488          	5.084
MS.256         	8.472          	5.052
MS.257         	8.455          	5.06
MS.258         	8.438          	4.846
MS.259         	8.42           	4.948
MS.260         	8.405          	4.927
MS.261         	8.387          	5.084
MS.262         	8.37           	4.935
MS.263         	8.352          	4.75
MS.264         	8.337          	4.839
MS.265         	8.32           	4.767
MS.266         	8.302          	4.885
MS.267         	8.287          	4.77
MS.268         	8.27           	4.805
MS.269         	8.255          	4.853
MS.270         	8.238          	4.718
MS.271         	8.22           	4.794
MS.272         	8.205          	4.652
MS.273         	8.188          	4.605
MS.274         	8.172          	4.539
MS.275         	8.155          	4.544
MS.276         	8.14           	4.551
MS.277         	8.122          	4.476
MS.278         	8.108          	4.607
MS.279         	8.09           	4.51
MS.280         	8.075          	4.489
MS.281         	8.057          	4.41
MS.282         	8.042          	4.421
MS.283         	8.025          	4.461
MS.284         	8.01           	4.451
MS.285         	7.995          	4.352
MS.286         	7.977          	4.453
MS.287         	7.962          	4.381
MS.288         	7.945          	4.357
MS.289         	7.93           	4.424
MS.290         	7.915          	4.413
MS.291         	7.898          	4.288
MS.292         	7.882          	4.251
MS.293         	7.867          	4.304
MS.294         	7.852          	4.208
MS.295         	7.835          	4.232
MS.296         	7.82           	4.261
MS.297         	7.805          	4.196
MS.298         	7.79           	4.244
MS.299         	7.773          	4.124
MS.300         	7.757          	4.075
MS.301         	7.742          	4.09
MS.302         	7.727          	4.125
MS.303         	7.712          	4.119
MS.304         	7.695          	4.124
MS.305         	7.68           	4.074
MS.306         	7.665          	3.987
MS.307         	7.65           	4.062
MS.308         	7.635          	4.03
MS.309         	7.62           	3.926
MS.310         	7.605          	3.946
MS.311         	7.59           	3.884
MS.312         	7.575          	3.834
MS.313         	7.557          	3.913
MS.314         	7.543          	3.824
MS.315         	7.527          	3.783
MS.316         	7.512          	3.713
MS.317         	7.497          	3.779
MS.318         	7.482          	3.812
MS.319         	7.467          	3.697
MS.320         	7.452          	3.674
MS.321         	7.438          	3.645
MS.322         	7.425          	3.533
MS.323         	7.41           	3.622
MS.324         	7.395          	3.682
MS.325         	7.38           	3.683
MS.326         	7.365          	3.643
MS.327         	7.35           	3.508
MS.328         	7.335          	3.426
MS.329         	7.32           	3.473
MS.330         	7.305          	3.636
MS.331         	7.293          	3.655
MS.332         	7.277          	3.574
MS.333         	7.262          	3.513
MS.334         	7.247          	3.456
MS.335         	7.233          	3.547
MS.336         	7.22           	3.529
MS.337         	7.205          	3.574
MS.338         	7.19           	3.469
MS.339         	7.175          	3.466
MS.340         	7.162          	3.417
MS.341         	7.148          	3.276
MS.342         	7.132          	3.344
MS.343         	7.117          	3.376
MS.344         	7.105          	3.459
MS.345         	7.09           	3.386
MS.346         	7.075          	3.337
MS.347         	7.062          	3.3
MS.348         	7.047          	3.331
MS.349         	7.032          	3.309
MS.350         	7.02           	3.275
MS.351         	7.005          	3.132
MS.352         	6.992          	3.25
MS.353         	6.977          	3.171
MS.354         	6.962          	3.266
MS.355         	6.95           	3.152
MS.356         	6.935          	3.142
MS.357         	6.922          	3.199
MS.358         	6.907          	3.232
MS.359         	6.895          	3.046
MS.360         	6.88           	3.212
MS.361         	6.867          	3.048
MS.362         	6.852          	3.062
MS.363         	6.84           	2.903
MS.364         	6.825          	3.004
MS.365         	6.812          	3.008
MS.366         	6.797          	3.007
MS.367         	6.785          	2.886
MS.368         	6.773          	2.972
MS.369         	6.757          	2.886
MS.370         	6.745          	2.713
MS.371         	6.73           	2.862
MS.372         	6.717          	2.773
MS.373         	6.705          	2.767
MS.374         	6.69           	2.809
MS.375         	6.677          	2.658
MS.376         	6.665          	2.67
MS.377         	6.65           	2.483
MS.378         	6.637          	2.52
MS.379         	6.625          	2.577
MS.380         	6.61           	2.577
MS.381         	6.597          	2.468
MS.382         	6.585          	2.676
MS.383         	6.57           	2.516
MS.384         	6.557          	2.487
MS.385         	6.545          	2.512
MS.386         	6.532          	2.504
MS.387         	6.52           	2.482
MS.388         	6.505          	2.416
MS.389         	6.492          	2.338
MS.390         	6.48           	2.339
MS.391         	6.467          	2.396
MS.392         	6.455          	2.374
MS.393         	6.44           	2.442
MS.394         	6.427          	2.275
MS.395         	6.415          	2.352
MS.396         	6.402          	2.257
MS.397         	6.39           	2.239
MS.398         	6.378          	2.339
MS.399         	6.365          	2.205
MS.400         	6.352          	2.174
MS.401         	6.34           	2.208
MS.402         	6.325          	2.078
MS.403         	6.312          	2.095
MS.404         	6.3            	2.076
MS.405         	6.287          	1.949
MS.406         	6.275          	2.052
MS.407         	6.262          	2.172
MS.408         	6.25           	2.056
MS.409         	6.237          	2.166
MS.410         	6.225          	2.035
MS.411         	6.213          	1.941
MS.412         	6.2            	1.812
MS.413         	6.188          	1.788
MS.414         	6.175          	1.765
MS.415         	6.165          	1.846
MS.416         	6.152          	1.828
MS.417         	6.14           	1.992
MS.418         	6.128          	1.921
MS.419         	6.115          	1.752
MS.420         	6.102          	1.772
MS.421         	6.09           	1.721
MS.422         	6.077          	1.56
MS.423         	6.065          	1.797
MS.424         	6.055          	1.683
MS.425         	6.043          	1.582
MS.426         	6.03           	1.487
MS.427         	6.017          	1.644
MS.428         	6.005          	1.578
MS.429         	5.992          	1.556
MS.430         	5.983          	1.575
MS.431         	5.97           	1.492
MS.432         	5.957          	1.458
MS.433         	5.945          	1.438
MS.434         	5.935          	1.447
MS.435         	5.922          	1.445
MS.436         	5.91           	1.348
MS.437         	5.898          	1.339
MS.438         	5.887          	1.346
MS.439         	5.875          	1.428
MS.440         	5.862          	1.401
MS.441         	5.852          	1.324
MS.442         	5.84           	1.22
MS.443         	5.827          	1.132
MS.444         	5.817          	1.299
MS.445         	5.805          	1.226
MS.446         	5.793          	1.16
MS.447         	5.782          	1.199
MS.448         	5.77           	1.143
MS.449         	5.757          	1.224
MS.450         	5.747          	1.094
MS.451         	5.735          	1
MS.452         	5.725          	1.089
MS.453         	5.713          	1.088
MS.454         	5.702          	0.912
MS.455         	5.69           	0.963
MS.456         	5.677          	0.966
MS.457         	5.668          	0.995
MS.458         	5.655          	0.963
MS.459         	5.645          	0.967
MS.460         	5.632          	0.917
MS.461         	5.622          	0.793
MS.462         	5.61           	0.831
MS.463         	5.6            	0.892
MS.464         	5.588          	0.859
MS.465         	5.577          	0.828
MS.466         	5.565          	0.804
MS.467         	5.555          	0.713
MS.468         	5.545          	0.751
MS.469         	5.532          	0.704
MS.470         	5.523          	0.768
MS.471         	5.51           	0.757
MS.472         	5.5            	0.747
MS.473         	5.487          	0.795
MS.474         	5.477          	0.648
MS.475         	5.467          	0.648
MS.476         	5.455          	0.668
MS.477         	5.445          	0.776
MS.478         	5.435          	0.623
MS.479         	5.422          	0.695
MS.480         	5.412          	0.645
MS.481         	5.402          	0.573
MS.482         	5.39           	0.616
MS.483         	5.38           	0.579
MS.484         	5.37           	0.555
MS.485         	5.358          	0.54
MS.486         	5.347          	0.638
MS.487         	5.338          	0.612
MS.488         	5.327          	0.506
MS.489         	5.315          	0.539
MS.490         	5.305          	0.487
MS.491         	5.295          	0.57
MS.492         	5.285          	0.522
MS.493         	5.273          	0.525
MS.494         	5.262          	0.483
MS.495         	5.253          	0.533
MS.496         	5.242          	0.469
MS.497         	5.233          	0.449
MS.498         	5.22           	0.444
MS.499         	5.21           	0.441
MS.500         	5.2            	0.441
MS.501         	5.19           	0.36
MS.502         	5.18           	0.357
MS.503         	5.17           	0.483
