File:              	C:\Qtrac\Data\ME2C30717B.QZD
Name:              	 ST26P
Protocol:          	MSCAN-MV
Date:              	17/7/23
Date of birth:     	26/5/03
Age:               	20
Sex:               	M
Temperature:       	31.6
S/R sites:         	Knee CF-TA
NC/disease:        	NC
Operator:          	BY
Comments:
M-SCAN DATA (Repeat 3/3, 31.2-23.1m)
Scanpts: 41, 56, 575, 587
Stim. (mA)     	Amp. (mV)
MS.1           	17.5           	8.537
MS.2           	17.5           	8.575
MS.3           	17.5           	8.56
MS.4           	17.5           	8.702
MS.5           	17.5           	8.563
MS.6           	17.5           	8.538
MS.7           	17.5           	8.519
MS.8           	17.5           	8.589
MS.9           	17.5           	8.582
MS.10          	17.5           	8.627
MS.11          	17.5           	8.61
MS.12          	17.5           	8.547
MS.13          	17.5           	8.544
MS.14          	17.5           	8.47
MS.15          	17.5           	8.539
MS.16          	17.5           	8.578
MS.17          	17.5           	8.608
MS.18          	17.5           	8.597
MS.19          	17.5           	8.598
MS.20          	17.5           	8.62
MS.21          	17.5           	8.542
MS.22          	17.5           	8.589
MS.23          	17.5           	8.553
MS.24          	17.465         	8.628
MS.25          	17.43          	8.602
MS.26          	17.395         	8.536
MS.27          	17.36          	8.567
MS.28          	17.325         	8.57
MS.29          	17.292         	8.575
MS.30          	17.257         	8.602
MS.31          	17.222         	8.579
MS.32          	17.188         	8.568
MS.33          	17.153         	8.607
MS.34          	17.12          	8.608
MS.35          	17.085         	8.666
MS.36          	17.05          	8.569
MS.37          	17.017         	8.627
MS.38          	16.983         	8.667
MS.39          	16.95          	8.613
MS.40          	16.915         	8.548
MS.41          	16.88          	8.581
MS.42          	16.847         	8.581
MS.43          	16.815         	8.627
MS.44          	16.78          	8.626
MS.45          	16.747         	8.616
MS.46          	16.712         	8.58
MS.47          	16.68          	8.574
MS.48          	16.647         	8.685
MS.49          	16.612         	8.641
MS.50          	16.58          	8.573
MS.51          	16.547         	8.64
MS.52          	16.515         	8.55
MS.53          	16.48          	8.682
MS.54          	16.448         	8.604
MS.55          	16.415         	8.62
MS.56          	16.382         	8.586
MS.57          	16.35          	8.651
MS.58          	16.317         	8.652
MS.59          	16.285         	8.501
MS.60          	16.253         	8.64
MS.61          	16.22          	8.611
MS.62          	16.188         	8.572
MS.63          	16.155         	8.548
MS.64          	16.122         	8.552
MS.65          	16.09          	8.546
MS.66          	16.057         	8.558
MS.67          	16.025         	8.542
MS.68          	15.995         	8.573
MS.69          	15.962         	8.619
MS.70          	15.93          	8.526
MS.71          	15.898         	8.585
MS.72          	15.867         	8.494
MS.73          	15.835         	8.604
MS.74          	15.802         	8.595
MS.75          	15.773         	8.586
MS.76          	15.74          	8.599
MS.77          	15.707         	8.524
MS.78          	15.677         	8.536
MS.79          	15.645         	8.57
MS.80          	15.615         	8.663
MS.81          	15.582         	8.559
MS.82          	15.552         	8.604
MS.83          	15.52          	8.58
MS.84          	15.49          	8.502
MS.85          	15.46          	8.539
MS.86          	15.427         	8.552
MS.87          	15.398         	8.587
MS.88          	15.367         	8.566
MS.89          	15.335         	8.551
MS.90          	15.305         	8.557
MS.91          	15.275         	8.542
MS.92          	15.245         	8.571
MS.93          	15.215         	8.587
MS.94          	15.182         	8.539
MS.95          	15.152         	8.531
MS.96          	15.122         	8.58
MS.97          	15.092         	8.502
MS.98          	15.062         	8.5
MS.99          	15.032         	8.516
MS.100         	15.002         	8.485
MS.101         	14.972         	8.545
MS.102         	14.943         	8.569
MS.103         	14.912         	8.473
MS.104         	14.882         	8.497
MS.105         	14.852         	8.488
MS.106         	14.822         	8.456
MS.107         	14.792         	8.492
MS.108         	14.765         	8.459
MS.109         	14.735         	8.506
MS.110         	14.705         	8.454
MS.111         	14.675         	8.446
MS.112         	14.648         	8.467
MS.113         	14.617         	8.494
MS.114         	14.587         	8.51
MS.115         	14.56          	8.493
MS.116         	14.53          	8.45
MS.117         	14.5           	8.525
MS.118         	14.472         	8.525
MS.119         	14.443         	8.544
MS.120         	14.415         	8.463
MS.121         	14.385         	8.545
MS.122         	14.358         	8.474
MS.123         	14.327         	8.504
MS.124         	14.3           	8.51
MS.125         	14.27          	8.466
MS.126         	14.242         	8.571
MS.127         	14.212         	8.484
MS.128         	14.185         	8.444
MS.129         	14.157         	8.457
MS.130         	14.127         	8.522
MS.131         	14.1           	8.456
MS.132         	14.072         	8.476
MS.133         	14.045         	8.507
MS.134         	14.015         	8.496
MS.135         	13.987         	8.559
MS.136         	13.96          	8.493
MS.137         	13.932         	8.491
MS.138         	13.905         	8.514
MS.139         	13.877         	8.522
MS.140         	13.85          	8.432
MS.141         	13.82          	8.503
MS.142         	13.792         	8.451
MS.143         	13.765         	8.534
MS.144         	13.737         	8.548
MS.145         	13.71          	8.572
MS.146         	13.682         	8.439
MS.147         	13.657         	8.515
MS.148         	13.63          	8.453
MS.149         	13.602         	8.483
MS.150         	13.575         	8.502
MS.151         	13.547         	8.453
MS.152         	13.52          	8.531
MS.153         	13.492         	8.532
MS.154         	13.467         	8.458
MS.155         	13.44          	8.498
MS.156         	13.412         	8.51
MS.157         	13.385         	8.454
MS.158         	13.36          	8.539
MS.159         	13.332         	8.465
MS.160         	13.305         	8.487
MS.161         	13.28          	8.584
MS.162         	13.252         	8.484
MS.163         	13.225         	8.488
MS.164         	13.2           	8.549
MS.165         	13.172         	8.503
MS.166         	13.148         	8.413
MS.167         	13.12          	8.436
MS.168         	13.095         	8.451
MS.169         	13.068         	8.474
MS.170         	13.042         	8.476
MS.171         	13.017         	8.423
MS.172         	12.99          	8.484
MS.173         	12.965         	8.444
MS.174         	12.938         	8.352
MS.175         	12.912         	8.534
MS.176         	12.887         	8.342
MS.177         	12.86          	8.486
MS.178         	12.835         	8.472
MS.179         	12.81          	8.222
MS.180         	12.785         	8.395
MS.181         	12.757         	8.512
MS.182         	12.733         	8.338
MS.183         	12.707         	8.317
MS.184         	12.682         	8.357
MS.185         	12.657         	8.455
MS.186         	12.632         	8.519
MS.187         	12.608         	8.453
MS.188         	12.58          	8.36
MS.189         	12.555         	8.262
MS.190         	12.53          	8.373
MS.191         	12.505         	8.372
MS.192         	12.48          	8.375
MS.193         	12.455         	8.348
MS.194         	12.43          	8.331
MS.195         	12.405         	8.311
MS.196         	12.382         	8.303
MS.197         	12.358         	8.165
MS.198         	12.332         	8.198
MS.199         	12.307         	8.277
MS.200         	12.282         	8.146
MS.201         	12.257         	8.149
MS.202         	12.235         	8.138
MS.203         	12.21          	8.128
MS.204         	12.185         	8.274
MS.205         	12.16          	8.261
MS.206         	12.137         	8.149
MS.207         	12.113         	8.199
MS.208         	12.087         	8.171
MS.209         	12.062         	8.114
MS.210         	12.04          	8.242
MS.211         	12.015         	8.106
MS.212         	11.992         	8.201
MS.213         	11.967         	8.127
MS.214         	11.943         	8.052
MS.215         	11.92          	7.897
MS.216         	11.895         	8.055
MS.217         	11.872         	8.107
MS.218         	11.847         	8.076
MS.219         	11.825         	8.046
MS.220         	11.8           	7.969
MS.221         	11.778         	8.049
MS.222         	11.755         	8.123
MS.223         	11.73          	8.135
MS.224         	11.707         	8.015
MS.225         	11.685         	8.155
MS.226         	11.66          	8.052
MS.227         	11.637         	8.083
MS.228         	11.615         	7.888
MS.229         	11.59          	7.998
MS.230         	11.568         	8.033
MS.231         	11.545         	8.058
MS.232         	11.523         	8.044
MS.233         	11.497         	7.911
MS.234         	11.475         	7.972
MS.235         	11.452         	8.051
MS.236         	11.43          	7.904
MS.237         	11.407         	7.961
MS.238         	11.385         	7.947
MS.239         	11.36          	8.011
MS.240         	11.337         	7.857
MS.241         	11.315         	7.94
MS.242         	11.292         	8.002
MS.243         	11.27          	7.957
MS.244         	11.247         	8.016
MS.245         	11.225         	7.773
MS.246         	11.202         	7.977
MS.247         	11.18          	7.994
MS.248         	11.157         	7.933
MS.249         	11.135         	7.916
MS.250         	11.115         	7.805
MS.251         	11.092         	7.864
MS.252         	11.07          	7.973
MS.253         	11.047         	7.903
MS.254         	11.025         	7.831
MS.255         	11.002         	7.787
MS.256         	10.983         	7.893
MS.257         	10.96          	7.585
MS.258         	10.938         	7.656
MS.259         	10.915         	7.765
MS.260         	10.895         	7.792
MS.261         	10.872         	7.777
MS.262         	10.85          	7.805
MS.263         	10.827         	7.695
MS.264         	10.807         	7.827
MS.265         	10.785         	7.675
MS.266         	10.765         	7.562
MS.267         	10.742         	7.554
MS.268         	10.72          	7.654
MS.269         	10.7           	7.774
MS.270         	10.677         	7.711
MS.271         	10.657         	7.421
MS.272         	10.635         	7.668
MS.273         	10.615         	7.646
MS.274         	10.592         	7.557
MS.275         	10.573         	7.38
MS.276         	10.55          	7.469
MS.277         	10.53          	7.515
MS.278         	10.507         	7.485
MS.279         	10.488         	7.241
MS.280         	10.467         	7.356
MS.281         	10.445         	7.379
MS.282         	10.425         	7.396
MS.283         	10.405         	7.43
MS.284         	10.382         	7.449
MS.285         	10.363         	7.327
MS.286         	10.342         	7.409
MS.287         	10.32          	7.35
MS.288         	10.3           	7.379
MS.289         	10.28          	7.125
MS.290         	10.26          	7.184
MS.291         	10.24          	7.109
MS.292         	10.217         	7.224
MS.293         	10.198         	7.163
MS.294         	10.177         	7.261
MS.295         	10.157         	7.088
MS.296         	10.137         	6.989
MS.297         	10.117         	7.303
MS.298         	10.097         	7.172
MS.299         	10.077         	7.066
MS.300         	10.057         	6.896
MS.301         	10.035         	6.959
MS.302         	10.015         	7.143
MS.303         	9.995          	7.062
MS.304         	9.975          	7.02
MS.305         	9.955          	6.829
MS.306         	9.938          	7.012
MS.307         	9.917          	7.099
MS.308         	9.898          	6.948
MS.309         	9.877          	6.985
MS.310         	9.858          	6.948
MS.311         	9.837          	6.52
MS.312         	9.818          	6.714
MS.313         	9.797          	6.817
MS.314         	9.778          	6.693
MS.315         	9.76           	6.442
MS.316         	9.74           	6.6
MS.317         	9.72           	6.476
MS.318         	9.7            	6.667
MS.319         	9.682          	6.409
MS.320         	9.662          	6.446
MS.321         	9.642          	6.545
MS.322         	9.622          	6.367
MS.323         	9.605          	6.211
MS.324         	9.585          	6.095
MS.325         	9.565          	6.203
MS.326         	9.547          	6.279
MS.327         	9.528          	6.088
MS.328         	9.507          	6.116
MS.329         	9.49           	6.088
MS.330         	9.47           	5.951
MS.331         	9.452          	5.847
MS.332         	9.432          	5.967
MS.333         	9.415          	5.821
MS.334         	9.395          	5.824
MS.335         	9.377          	5.81
MS.336         	9.358          	5.853
MS.337         	9.34           	5.728
MS.338         	9.32           	5.625
MS.339         	9.302          	5.715
MS.340         	9.283          	5.513
MS.341         	9.265          	5.792
MS.342         	9.245          	5.69
MS.343         	9.227          	5.46
MS.344         	9.21           	5.61
MS.345         	9.19           	5.573
MS.346         	9.172          	5.487
MS.347         	9.155          	5.676
MS.348         	9.135          	5.406
MS.349         	9.117          	5.357
MS.350         	9.1            	5.303
MS.351         	9.08           	5.583
MS.352         	9.062          	5.286
MS.353         	9.045          	5.305
MS.354         	9.028          	5.173
MS.355         	9.01           	5.184
MS.356         	8.99           	4.989
MS.357         	8.972          	5.106
MS.358         	8.955          	5.002
MS.359         	8.938          	5.107
MS.360         	8.92           	5.074
MS.361         	8.903          	4.996
MS.362         	8.882          	4.875
MS.363         	8.865          	4.872
MS.364         	8.847          	4.978
MS.365         	8.83           	4.799
MS.366         	8.812          	4.705
MS.367         	8.795          	4.734
MS.368         	8.778          	4.313
MS.369         	8.76           	4.565
MS.370         	8.742          	4.508
MS.371         	8.725          	4.565
MS.372         	8.707          	4.439
MS.373         	8.69           	4.474
MS.374         	8.672          	4.263
MS.375         	8.655          	4.42
MS.376         	8.637          	4.336
MS.377         	8.62           	4.119
MS.378         	8.605          	4.194
MS.379         	8.587          	4.05
MS.380         	8.57           	4.064
MS.381         	8.552          	4.099
MS.382         	8.535          	3.992
MS.383         	8.517          	3.863
MS.384         	8.5            	3.94
MS.385         	8.485          	4.098
MS.386         	8.467          	3.72
MS.387         	8.45           	3.644
MS.388         	8.432          	3.961
MS.389         	8.417          	3.687
MS.390         	8.4            	3.77
MS.391         	8.382          	3.55
MS.392         	8.365          	3.535
MS.393         	8.35           	3.677
MS.394         	8.332          	3.58
MS.395         	8.315          	3.548
MS.396         	8.3            	3.471
MS.397         	8.283          	3.473
MS.398         	8.267          	3.307
MS.399         	8.25           	3.245
MS.400         	8.233          	3.24
MS.401         	8.217          	3.314
MS.402         	8.2            	3.193
MS.403         	8.185          	3.321
MS.404         	8.167          	3.276
MS.405         	8.153          	3.028
MS.406         	8.135          	3.226
MS.407         	8.12           	2.921
MS.408         	8.102          	2.862
MS.409         	8.087          	2.883
MS.410         	8.07           	2.884
MS.411         	8.055          	2.851
MS.412         	8.037          	2.735
MS.413         	8.023          	2.759
MS.414         	8.005          	2.708
MS.415         	7.99           	2.782
MS.416         	7.975          	2.595
MS.417         	7.957          	2.443
MS.418         	7.942          	2.55
MS.419         	7.927          	2.546
MS.420         	7.91           	2.538
MS.421         	7.895          	2.446
MS.422         	7.88           	2.332
MS.423         	7.862          	2.25
MS.424         	7.847          	2.365
MS.425         	7.832          	2.283
MS.426         	7.815          	2.236
MS.427         	7.8            	2.181
MS.428         	7.785          	2.117
MS.429         	7.77           	2.108
MS.430         	7.755          	2.157
MS.431         	7.737          	2.18
MS.432         	7.722          	1.88
MS.433         	7.707          	1.833
MS.434         	7.692          	1.957
MS.435         	7.677          	1.843
MS.436         	7.662          	1.888
MS.437         	7.645          	1.578
MS.438         	7.63           	1.561
MS.439         	7.615          	1.728
MS.440         	7.6            	1.621
MS.441         	7.585          	1.518
MS.442         	7.57           	1.548
MS.443         	7.555          	1.723
MS.444         	7.54           	1.525
MS.445         	7.525          	1.393
MS.446         	7.51           	1.425
MS.447         	7.495          	1.335
MS.448         	7.48           	1.377
MS.449         	7.465          	1.263
MS.450         	7.45           	1.55
MS.451         	7.435          	1.183
MS.452         	7.42           	1.138
MS.453         	7.405          	1.171
MS.454         	7.39           	1.115
MS.455         	7.375          	1.039
MS.456         	7.36           	1.049
MS.457         	7.347          	1.028
MS.458         	7.332          	0.93
MS.459         	7.317          	0.938
MS.460         	7.302          	0.871
MS.461         	7.287          	0.864
MS.462         	7.273          	0.79
MS.463         	7.257          	0.734
MS.464         	7.245          	0.665
MS.465         	7.23           	0.605
MS.466         	7.215          	0.482
MS.467         	7.2            	0.61
MS.468         	7.188          	0.581
MS.469         	7.172          	0.403
MS.470         	7.157          	0.493
MS.471         	7.142          	0.506
MS.472         	7.13           	0.388
MS.473         	7.115          	0.377
MS.474         	7.1            	0.323
MS.475         	7.087          	0.345
MS.476         	7.072          	0.341
MS.477         	7.057          	0.261
MS.478         	7.045          	0.259
MS.479         	7.03           	0.262
MS.480         	7.015          	0.374
MS.481         	7.003          	0.267
MS.482         	6.987          	0.239
MS.483         	6.975          	0.264
MS.484         	6.96           	0.299
MS.485         	6.945          	0.247
MS.486         	6.932          	0.258
MS.487         	6.918          	0.278
MS.488         	6.905          	0.301
MS.489         	6.89           	0.159
MS.490         	6.878          	0.362
MS.491         	6.862          	0.168
MS.492         	6.85           	0.157
MS.493         	6.835          	0.129
MS.494         	6.822          	0.082
MS.495         	6.807          	-0.005
MS.496         	6.795          	-0.008
MS.497         	6.782          	0.053
MS.498         	6.767          	-0.013
MS.499         	6.755          	0.007
MS.500         	6.74           	-0.054
MS.501         	6.727          	-0.159
MS.502         	6.715          	-0.114
MS.503         	6.7            	-0.009
