File:              	C:\Qtrac\Data\ME2C30630D.QZD
Name:              	 ME25D
Protocol:          	MSCAN-MV
Date:              	30/6/23
Date of birth:     	25/8/01
Age:               	21
Sex:               	M
Temperature:       	33.1
S/R sites:         	Knee CF-TA
NC/disease:        	NC
Operator:          	BY
Comments:
M-SCAN DATA (Repeat 3/3, 31.8-23.3m)
Scanpts: 1, 19, 572, 593
Stim. (mA)     	Amp. (mV)
MS.1           	13.5           	2.795
MS.2           	13.5           	2.796
MS.3           	13.5           	2.811
MS.4           	13.5           	2.834
MS.5           	13.5           	2.806
MS.6           	13.5           	2.785
MS.7           	13.5           	2.809
MS.8           	13.5           	2.8
MS.9           	13.5           	2.784
MS.10          	13.5           	2.837
MS.11          	13.5           	2.811
MS.12          	13.5           	2.769
MS.13          	13.5           	2.786
MS.14          	13.5           	2.783
MS.15          	13.5           	2.777
MS.16          	13.5           	2.775
MS.17          	13.5           	2.838
MS.18          	13.5           	2.822
MS.19          	13.5           	2.803
MS.20          	13.5           	2.824
MS.21          	13.5           	2.835
MS.22          	13.5           	2.802
MS.23          	13.5           	2.766
MS.24          	13.472         	2.797
MS.25          	13.445         	2.792
MS.26          	13.42          	2.776
MS.27          	13.392         	2.772
MS.28          	13.365         	2.797
MS.29          	13.34          	2.744
MS.30          	13.312         	2.75
MS.31          	13.285         	2.736
MS.32          	13.26          	2.722
MS.33          	13.233         	2.748
MS.34          	13.205         	2.734
MS.35          	13.18          	2.726
MS.36          	13.153         	2.746
MS.37          	13.127         	2.731
MS.38          	13.1           	2.743
MS.39          	13.075         	2.751
MS.40          	13.047         	2.747
MS.41          	13.023         	2.744
MS.42          	12.997         	2.732
MS.43          	12.97          	2.76
MS.44          	12.945         	2.73
MS.45          	12.92          	2.723
MS.46          	12.892         	2.769
MS.47          	12.867         	2.775
MS.48          	12.842         	2.759
MS.49          	12.815         	2.769
MS.50          	12.79          	2.748
MS.51          	12.765         	2.724
MS.52          	12.74          	2.735
MS.53          	12.715         	2.749
MS.54          	12.688         	2.77
MS.55          	12.662         	2.742
MS.56          	12.637         	2.733
MS.57          	12.613         	2.75
MS.58          	12.587         	2.729
MS.59          	12.562         	2.729
MS.60          	12.537         	2.755
MS.61          	12.512         	2.738
MS.62          	12.488         	2.751
MS.63          	12.462         	2.751
MS.64          	12.438         	2.725
MS.65          	12.412         	2.688
MS.66          	12.387         	2.729
MS.67          	12.363         	2.731
MS.68          	12.337         	2.729
MS.69          	12.312         	2.726
MS.70          	12.29          	2.71
MS.71          	12.265         	2.684
MS.72          	12.24          	2.726
MS.73          	12.215         	2.693
MS.74          	12.19          	2.701
MS.75          	12.167         	2.664
MS.76          	12.142         	2.703
MS.77          	12.117         	2.668
MS.78          	12.095         	2.655
MS.79          	12.07          	2.694
MS.80          	12.045         	2.723
MS.81          	12.023         	2.731
MS.82          	11.997         	2.657
MS.83          	11.972         	2.694
MS.84          	11.95          	2.682
MS.85          	11.925         	2.677
MS.86          	11.903         	2.679
MS.87          	11.877         	2.663
MS.88          	11.855         	2.656
MS.89          	11.83          	2.682
MS.90          	11.807         	2.67
MS.91          	11.782         	2.66
MS.92          	11.76          	2.631
MS.93          	11.738         	2.681
MS.94          	11.712         	2.668
MS.95          	11.69          	2.641
MS.96          	11.665         	2.64
MS.97          	11.642         	2.654
MS.98          	11.62          	2.659
MS.99          	11.597         	2.646
MS.100         	11.572         	2.614
MS.101         	11.55          	2.638
MS.102         	11.528         	2.656
MS.103         	11.505         	2.648
MS.104         	11.48          	2.629
MS.105         	11.457         	2.629
MS.106         	11.435         	2.605
MS.107         	11.412         	2.645
MS.108         	11.39          	2.608
MS.109         	11.367         	2.584
MS.110         	11.345         	2.64
MS.111         	11.322         	2.601
MS.112         	11.297         	2.586
MS.113         	11.275         	2.635
MS.114         	11.252         	2.621
MS.115         	11.23          	2.611
MS.116         	11.207         	2.582
MS.117         	11.188         	2.566
MS.118         	11.165         	2.632
MS.119         	11.142         	2.586
MS.120         	11.12          	2.607
MS.121         	11.097         	2.595
MS.122         	11.075         	2.611
MS.123         	11.052         	2.587
MS.124         	11.03          	2.594
MS.125         	11.007         	2.592
MS.126         	10.988         	2.623
MS.127         	10.965         	2.601
MS.128         	10.943         	2.565
MS.129         	10.92          	2.591
MS.130         	10.9           	2.594
MS.131         	10.877         	2.575
MS.132         	10.855         	2.577
MS.133         	10.835         	2.586
MS.134         	10.812         	2.573
MS.135         	10.79          	2.583
MS.136         	10.77          	2.543
MS.137         	10.747         	2.597
MS.138         	10.725         	2.565
MS.139         	10.705         	2.562
MS.140         	10.682         	2.54
MS.141         	10.662         	2.564
MS.142         	10.64          	2.555
MS.143         	10.62          	2.578
MS.144         	10.597         	2.507
MS.145         	10.577         	2.518
MS.146         	10.555         	2.557
MS.147         	10.535         	2.557
MS.148         	10.515         	2.54
MS.149         	10.492         	2.56
MS.150         	10.472         	2.564
MS.151         	10.45          	2.552
MS.152         	10.43          	2.551
MS.153         	10.41          	2.553
MS.154         	10.387         	2.519
MS.155         	10.367         	2.515
MS.156         	10.347         	2.525
MS.157         	10.327         	2.56
MS.158         	10.305         	2.567
MS.159         	10.285         	2.549
MS.160         	10.265         	2.548
MS.161         	10.245         	2.538
MS.162         	10.222         	2.562
MS.163         	10.202         	2.545
MS.164         	10.182         	2.521
MS.165         	10.162         	2.584
MS.166         	10.142         	2.551
MS.167         	10.122         	2.548
MS.168         	10.102         	2.552
MS.169         	10.082         	2.564
MS.170         	10.06          	2.579
MS.171         	10.04          	2.55
MS.172         	10.02          	2.578
MS.173         	10             	2.577
MS.174         	9.98           	2.555
MS.175         	9.96           	2.603
MS.176         	9.94           	2.522
MS.177         	9.922          	2.568
MS.178         	9.903          	2.546
MS.179         	9.882          	2.557
MS.180         	9.863          	2.476
MS.181         	9.842          	2.573
MS.182         	9.823          	2.52
MS.183         	9.802          	2.481
MS.184         	9.782          	2.536
MS.185         	9.765          	2.556
MS.186         	9.745          	2.519
MS.187         	9.725          	2.44
MS.188         	9.705          	2.433
MS.189         	9.685          	2.459
MS.190         	9.667          	2.37
MS.191         	9.648          	2.502
MS.192         	9.627          	2.371
MS.193         	9.61           	2.407
MS.194         	9.59           	2.414
MS.195         	9.57           	2.303
MS.196         	9.552          	2.379
MS.197         	9.532          	2.279
MS.198         	9.512          	2.381
MS.199         	9.495          	2.404
MS.200         	9.475          	2.297
MS.201         	9.457          	2.338
MS.202         	9.438          	2.441
MS.203         	9.417          	2.383
MS.204         	9.4            	2.306
MS.205         	9.38           	2.37
MS.206         	9.363          	2.371
MS.207         	9.342          	2.465
MS.208         	9.325          	2.375
MS.209         	9.307          	2.327
MS.210         	9.287          	2.357
MS.211         	9.27           	2.321
MS.212         	9.25           	2.285
MS.213         	9.233          	2.257
MS.214         	9.212          	2.302
MS.215         	9.195          	2.3
MS.216         	9.177          	2.244
MS.217         	9.158          	2.222
MS.218         	9.14           	2.295
MS.219         	9.122          	2.267
MS.220         	9.105          	2.199
MS.221         	9.085          	2.181
MS.222         	9.068          	2.207
MS.223         	9.05           	2.162
MS.224         	9.03           	2.17
MS.225         	9.012          	2.231
MS.226         	8.995          	2.219
MS.227         	8.977          	2.198
MS.228         	8.96           	2.121
MS.229         	8.943          	2.234
MS.230         	8.922          	2.233
MS.231         	8.905          	2.191
MS.232         	8.887          	2.134
MS.233         	8.87           	2.136
MS.234         	8.852          	2.153
MS.235         	8.835          	2.167
MS.236         	8.818          	2.18
MS.237         	8.8            	2.184
MS.238         	8.783          	2.108
MS.239         	8.765          	2.213
MS.240         	8.747          	2.118
MS.241         	8.73           	2.153
MS.242         	8.712          	2.177
MS.243         	8.695          	2.205
MS.244         	8.677          	2.097
MS.245         	8.66           	2.103
MS.246         	8.642          	2.208
MS.247         	8.625          	2.203
MS.248         	8.608          	2.131
MS.249         	8.59           	2.125
MS.250         	8.573          	2.155
MS.251         	8.557          	2.103
MS.252         	8.54           	2.08
MS.253         	8.523          	2.123
MS.254         	8.505          	2.147
MS.255         	8.488          	2.13
MS.256         	8.472          	2.103
MS.257         	8.455          	2.059
MS.258         	8.438          	2.036
MS.259         	8.42           	2.081
MS.260         	8.405          	2.061
MS.261         	8.387          	2.02
MS.262         	8.37           	2.06
MS.263         	8.352          	2.011
MS.264         	8.337          	2.049
MS.265         	8.32           	1.949
MS.266         	8.302          	1.98
MS.267         	8.287          	1.944
MS.268         	8.27           	1.976
MS.269         	8.255          	1.93
MS.270         	8.238          	1.894
MS.271         	8.22           	1.931
MS.272         	8.205          	1.992
MS.273         	8.188          	1.924
MS.274         	8.172          	1.927
MS.275         	8.155          	1.919
MS.276         	8.14           	1.913
MS.277         	8.122          	1.937
MS.278         	8.108          	1.95
MS.279         	8.09           	1.863
MS.280         	8.075          	1.947
MS.281         	8.057          	1.954
MS.282         	8.042          	1.957
MS.283         	8.025          	1.893
MS.284         	8.01           	1.92
MS.285         	7.995          	1.96
MS.286         	7.977          	1.844
MS.287         	7.962          	1.835
MS.288         	7.945          	1.783
MS.289         	7.93           	1.841
MS.290         	7.915          	1.831
MS.291         	7.898          	1.765
MS.292         	7.882          	1.874
MS.293         	7.867          	1.763
MS.294         	7.852          	1.832
MS.295         	7.835          	1.8
MS.296         	7.82           	1.699
MS.297         	7.805          	1.703
MS.298         	7.79           	1.703
MS.299         	7.773          	1.736
MS.300         	7.757          	1.777
MS.301         	7.742          	1.708
MS.302         	7.727          	1.682
MS.303         	7.712          	1.659
MS.304         	7.695          	1.663
MS.305         	7.68           	1.653
MS.306         	7.665          	1.677
MS.307         	7.65           	1.669
MS.308         	7.635          	1.67
MS.309         	7.62           	1.678
MS.310         	7.605          	1.635
MS.311         	7.59           	1.611
MS.312         	7.575          	1.682
MS.313         	7.557          	1.747
MS.314         	7.543          	1.639
MS.315         	7.527          	1.713
MS.316         	7.512          	1.631
MS.317         	7.497          	1.614
MS.318         	7.482          	1.699
MS.319         	7.467          	1.653
MS.320         	7.452          	1.706
MS.321         	7.438          	1.589
MS.322         	7.425          	1.599
MS.323         	7.41           	1.682
MS.324         	7.395          	1.587
MS.325         	7.38           	1.53
MS.326         	7.365          	1.517
MS.327         	7.35           	1.505
MS.328         	7.335          	1.497
MS.329         	7.32           	1.429
MS.330         	7.305          	1.411
MS.331         	7.293          	1.422
MS.332         	7.277          	1.421
MS.333         	7.262          	1.423
MS.334         	7.247          	1.344
MS.335         	7.233          	1.431
MS.336         	7.22           	1.384
MS.337         	7.205          	1.429
MS.338         	7.19           	1.525
MS.339         	7.175          	1.463
MS.340         	7.162          	1.407
MS.341         	7.148          	1.353
MS.342         	7.132          	1.378
MS.343         	7.117          	1.488
MS.344         	7.105          	1.431
MS.345         	7.09           	1.484
MS.346         	7.075          	1.497
MS.347         	7.062          	1.447
MS.348         	7.047          	1.333
MS.349         	7.032          	1.425
MS.350         	7.02           	1.359
MS.351         	7.005          	1.38
MS.352         	6.992          	1.408
MS.353         	6.977          	1.375
MS.354         	6.962          	1.453
MS.355         	6.95           	1.359
MS.356         	6.935          	1.415
MS.357         	6.922          	1.306
MS.358         	6.907          	1.37
MS.359         	6.895          	1.309
MS.360         	6.88           	1.311
MS.361         	6.867          	1.325
MS.362         	6.852          	1.314
MS.363         	6.84           	1.327
MS.364         	6.825          	1.356
MS.365         	6.812          	1.325
MS.366         	6.797          	1.32
MS.367         	6.785          	1.293
MS.368         	6.773          	1.31
MS.369         	6.757          	1.262
MS.370         	6.745          	1.22
MS.371         	6.73           	1.251
MS.372         	6.717          	1.234
MS.373         	6.705          	1.307
MS.374         	6.69           	1.288
MS.375         	6.677          	1.24
MS.376         	6.665          	1.268
MS.377         	6.65           	1.241
MS.378         	6.637          	1.272
MS.379         	6.625          	1.27
MS.380         	6.61           	1.26
MS.381         	6.597          	1.211
MS.382         	6.585          	1.254
MS.383         	6.57           	1.27
MS.384         	6.557          	1.181
MS.385         	6.545          	1.165
MS.386         	6.532          	1.167
MS.387         	6.52           	1.174
MS.388         	6.505          	1.188
MS.389         	6.492          	1.172
MS.390         	6.48           	1.168
MS.391         	6.467          	1.138
MS.392         	6.455          	1.199
MS.393         	6.44           	1.141
MS.394         	6.427          	1.133
MS.395         	6.415          	1.119
MS.396         	6.402          	1.12
MS.397         	6.39           	1.183
MS.398         	6.378          	1.108
MS.399         	6.365          	1.099
MS.400         	6.352          	1.063
MS.401         	6.34           	1.072
MS.402         	6.325          	1.071
MS.403         	6.312          	1.061
MS.404         	6.3            	1.105
MS.405         	6.287          	1.08
MS.406         	6.275          	1.003
MS.407         	6.262          	0.998
MS.408         	6.25           	1.001
MS.409         	6.237          	1.052
MS.410         	6.225          	1.023
MS.411         	6.213          	1.017
MS.412         	6.2            	0.995
MS.413         	6.188          	0.98
MS.414         	6.175          	0.989
MS.415         	6.165          	0.98
MS.416         	6.152          	0.934
MS.417         	6.14           	0.995
MS.418         	6.128          	0.974
MS.419         	6.115          	0.977
MS.420         	6.102          	0.939
MS.421         	6.09           	0.942
MS.422         	6.077          	0.943
MS.423         	6.065          	0.895
MS.424         	6.055          	0.895
MS.425         	6.043          	0.894
MS.426         	6.03           	0.942
MS.427         	6.017          	0.881
MS.428         	6.005          	0.922
MS.429         	5.992          	0.919
MS.430         	5.983          	0.911
MS.431         	5.97           	0.858
MS.432         	5.957          	0.88
MS.433         	5.945          	0.898
MS.434         	5.935          	0.89
MS.435         	5.922          	0.85
MS.436         	5.91           	0.861
MS.437         	5.898          	0.812
MS.438         	5.887          	0.816
MS.439         	5.875          	0.811
MS.440         	5.862          	0.825
MS.441         	5.852          	0.85
MS.442         	5.84           	0.76
MS.443         	5.827          	0.746
MS.444         	5.817          	0.72
MS.445         	5.805          	0.774
MS.446         	5.793          	0.754
MS.447         	5.782          	0.687
MS.448         	5.77           	0.745
MS.449         	5.757          	0.696
MS.450         	5.747          	0.703
MS.451         	5.735          	0.679
MS.452         	5.725          	0.662
MS.453         	5.713          	0.711
MS.454         	5.702          	0.601
MS.455         	5.69           	0.639
MS.456         	5.677          	0.637
MS.457         	5.668          	0.624
MS.458         	5.655          	0.588
MS.459         	5.645          	0.639
MS.460         	5.632          	0.66
MS.461         	5.622          	0.599
MS.462         	5.61           	0.63
MS.463         	5.6            	0.667
MS.464         	5.588          	0.601
MS.465         	5.577          	0.545
MS.466         	5.565          	0.634
MS.467         	5.555          	0.643
MS.468         	5.545          	0.555
MS.469         	5.532          	0.486
MS.470         	5.523          	0.455
MS.471         	5.51           	0.557
MS.472         	5.5            	0.489
MS.473         	5.487          	0.49
MS.474         	5.477          	0.424
MS.475         	5.467          	0.46
MS.476         	5.455          	0.463
MS.477         	5.445          	0.395
MS.478         	5.435          	0.58
MS.479         	5.422          	0.471
MS.480         	5.412          	0.485
MS.481         	5.402          	0.408
MS.482         	5.39           	0.414
MS.483         	5.38           	0.438
MS.484         	5.37           	0.423
MS.485         	5.358          	0.333
MS.486         	5.347          	0.359
MS.487         	5.338          	0.501
MS.488         	5.327          	0.457
MS.489         	5.315          	0.506
MS.490         	5.305          	0.388
MS.491         	5.295          	0.369
MS.492         	5.285          	0.297
MS.493         	5.273          	0.333
MS.494         	5.262          	0.323
MS.495         	5.253          	0.402
MS.496         	5.242          	0.427
MS.497         	5.233          	0.519
MS.498         	5.22           	0.276
MS.499         	5.21           	0.409
MS.500         	5.2            	0.347
MS.501         	5.19           	0.357
MS.502         	5.18           	0.316
MS.503         	5.17           	0.254
