File:              	C:\Qtrac\Data\ME2C30705A.QZD
Name:              	 ME14L
Protocol:          	MSCAN-MV
Date:              	5/7/23
Date of birth:     	14/6/01
Age:               	22
Sex:               	M
Temperature:       	33.2
S/R sites:         	Knee CF-TA
NC/disease:        	NC
Operator:          	BY
Comments:
M-SCAN DATA (Repeat 3/3, 26.3-18.7m)
Scanpts: 2, 17, 540, 614
Stim. (mA)     	Amp. (mV)
MS.1           	18.5           	5.061
MS.2           	18.5           	5.051
MS.3           	18.5           	5.057
MS.4           	18.5           	5.046
MS.5           	18.5           	5.039
MS.6           	18.5           	5.035
MS.7           	18.5           	5.045
MS.8           	18.5           	5.046
MS.9           	18.5           	5.038
MS.10          	18.5           	5.049
MS.11          	18.5           	5.045
MS.12          	18.5           	5.048
MS.13          	18.5           	5.038
MS.14          	18.5           	5.038
MS.15          	18.5           	5.041
MS.16          	18.5           	5.054
MS.17          	18.5           	5.035
MS.18          	18.5           	5.05
MS.19          	18.5           	5.047
MS.20          	18.5           	5.042
MS.21          	18.5           	5.045
MS.22          	18.5           	5.043
MS.23          	18.5           	5.036
MS.24          	18.462         	5.045
MS.25          	18.425         	5.028
MS.26          	18.39          	5.031
MS.27          	18.352         	5.03
MS.28          	18.315         	5.037
MS.29          	18.28          	5.027
MS.30          	18.243         	5.026
MS.31          	18.208         	5.026
MS.32          	18.17          	5.042
MS.33          	18.132         	5.041
MS.34          	18.097         	5.029
MS.35          	18.062         	5.021
MS.36          	18.025         	5.033
MS.37          	17.99          	5.028
MS.38          	17.952         	5.034
MS.39          	17.917         	5.035
MS.40          	17.882         	5.02
MS.41          	17.845         	5.032
MS.42          	17.81          	5.03
MS.43          	17.775         	5.023
MS.44          	17.74          	5.031
MS.45          	17.702         	5.015
MS.46          	17.667         	5.031
MS.47          	17.632         	5.005
MS.48          	17.597         	5.022
MS.49          	17.562         	5.035
MS.50          	17.528         	4.993
MS.51          	17.493         	5.021
MS.52          	17.458         	5.023
MS.53          	17.422         	5.021
MS.54          	17.387         	5.018
MS.55          	17.352         	5.03
MS.56          	17.317         	5.032
MS.57          	17.285         	5.026
MS.58          	17.25          	5.016
MS.59          	17.215         	5.016
MS.60          	17.18          	5.002
MS.61          	17.145         	5.011
MS.62          	17.112         	5.015
MS.63          	17.077         	5.009
MS.64          	17.042         	4.986
MS.65          	17.01          	4.987
MS.66          	16.975         	5.013
MS.67          	16.942         	5.002
MS.68          	16.907         	5.013
MS.69          	16.875         	5.009
MS.70          	16.84          	4.976
MS.71          	16.807         	5.004
MS.72          	16.772         	4.997
MS.73          	16.74          	4.985
MS.74          	16.705         	4.995
MS.75          	16.672         	4.997
MS.76          	16.64          	5.004
MS.77          	16.605         	4.958
MS.78          	16.573         	4.955
MS.79          	16.54          	4.98
MS.80          	16.507         	4.976
MS.81          	16.475         	4.946
MS.82          	16.44          	4.955
MS.83          	16.407         	4.962
MS.84          	16.375         	4.958
MS.85          	16.342         	4.973
MS.86          	16.31          	4.968
MS.87          	16.278         	4.951
MS.88          	16.245         	4.986
MS.89          	16.212         	4.942
MS.90          	16.18          	4.949
MS.91          	16.147         	4.951
MS.92          	16.115         	4.951
MS.93          	16.083         	4.947
MS.94          	16.05          	4.942
MS.95          	16.02          	4.94
MS.96          	15.987         	4.955
MS.97          	15.955         	4.949
MS.98          	15.922         	4.945
MS.99          	15.892         	4.962
MS.100         	15.86          	4.944
MS.101         	15.827         	4.935
MS.102         	15.795         	4.926
MS.103         	15.765         	4.926
MS.104         	15.733         	4.944
MS.105         	15.702         	4.94
MS.106         	15.67          	4.927
MS.107         	15.64          	4.915
MS.108         	15.608         	4.953
MS.109         	15.577         	4.922
MS.110         	15.545         	4.929
MS.111         	15.515         	4.919
MS.112         	15.483         	4.929
MS.113         	15.452         	4.938
MS.114         	15.422         	4.913
MS.115         	15.39          	4.937
MS.116         	15.36          	4.93
MS.117         	15.33          	4.929
MS.118         	15.297         	4.913
MS.119         	15.267         	4.932
MS.120         	15.237         	4.937
MS.121         	15.207         	4.885
MS.122         	15.177         	4.919
MS.123         	15.148         	4.908
MS.124         	15.117         	4.9
MS.125         	15.085         	4.898
MS.126         	15.055         	4.924
MS.127         	15.025         	4.916
MS.128         	14.995         	4.911
MS.129         	14.965         	4.905
MS.130         	14.935         	4.919
MS.131         	14.905         	4.902
MS.132         	14.877         	4.883
MS.133         	14.847         	4.89
MS.134         	14.818         	4.865
MS.135         	14.787         	4.864
MS.136         	14.757         	4.88
MS.137         	14.727         	4.891
MS.138         	14.7           	4.855
MS.139         	14.67          	4.866
MS.140         	14.64          	4.85
MS.141         	14.61          	4.86
MS.142         	14.582         	4.846
MS.143         	14.552         	4.879
MS.144         	14.523         	4.852
MS.145         	14.495         	4.86
MS.146         	14.465         	4.857
MS.147         	14.438         	4.856
MS.148         	14.407         	4.85
MS.149         	14.38          	4.835
MS.150         	14.35          	4.814
MS.151         	14.322         	4.819
MS.152         	14.292         	4.834
MS.153         	14.265         	4.825
MS.154         	14.235         	4.845
MS.155         	14.207         	4.837
MS.156         	14.18          	4.808
MS.157         	14.15          	4.811
MS.158         	14.122         	4.813
MS.159         	14.095         	4.803
MS.160         	14.065         	4.775
MS.161         	14.037         	4.811
MS.162         	14.01          	4.808
MS.163         	13.983         	4.82
MS.164         	13.955         	4.819
MS.165         	13.925         	4.817
MS.166         	13.898         	4.798
MS.167         	13.87          	4.794
MS.168         	13.842         	4.821
MS.169         	13.815         	4.774
MS.170         	13.787         	4.769
MS.171         	13.76          	4.832
MS.172         	13.733         	4.8
MS.173         	13.705         	4.792
MS.174         	13.677         	4.803
MS.175         	13.65          	4.833
MS.176         	13.622         	4.812
MS.177         	13.595         	4.775
MS.178         	13.57          	4.78
MS.179         	13.542         	4.756
MS.180         	13.515         	4.725
MS.181         	13.487         	4.736
MS.182         	13.46          	4.707
MS.183         	13.435         	4.708
MS.184         	13.407         	4.694
MS.185         	13.38          	4.684
MS.186         	13.352         	4.759
MS.187         	13.327         	4.722
MS.188         	13.3           	4.706
MS.189         	13.273         	4.704
MS.190         	13.247         	4.727
MS.191         	13.22          	4.681
MS.192         	13.195         	4.702
MS.193         	13.167         	4.689
MS.194         	13.142         	4.681
MS.195         	13.115         	4.634
MS.196         	13.09          	4.689
MS.197         	13.062         	4.673
MS.198         	13.037         	4.673
MS.199         	13.01          	4.651
MS.200         	12.985         	4.641
MS.201         	12.957         	4.61
MS.202         	12.932         	4.662
MS.203         	12.907         	4.631
MS.204         	12.88          	4.631
MS.205         	12.855         	4.59
MS.206         	12.83          	4.601
MS.207         	12.805         	4.596
MS.208         	12.778         	4.582
MS.209         	12.752         	4.557
MS.210         	12.727         	4.561
MS.211         	12.702         	4.553
MS.212         	12.677         	4.509
MS.213         	12.653         	4.548
MS.214         	12.625         	4.57
MS.215         	12.6           	4.531
MS.216         	12.575         	4.507
MS.217         	12.55          	4.507
MS.218         	12.525         	4.504
MS.219         	12.5           	4.5
MS.220         	12.475         	4.54
MS.221         	12.45          	4.515
MS.222         	12.425         	4.461
MS.223         	12.4           	4.468
MS.224         	12.375         	4.461
MS.225         	12.352         	4.47
MS.226         	12.327         	4.395
MS.227         	12.302         	4.454
MS.228         	12.278         	4.453
MS.229         	12.252         	4.454
MS.230         	12.227         	4.399
MS.231         	12.205         	4.388
MS.232         	12.18          	4.426
MS.233         	12.155         	4.482
MS.234         	12.13          	4.349
MS.235         	12.108         	4.428
MS.236         	12.082         	4.437
MS.237         	12.057         	4.318
MS.238         	12.035         	4.322
MS.239         	12.01          	4.32
MS.240         	11.988         	4.323
MS.241         	11.962         	4.318
MS.242         	11.938         	4.362
MS.243         	11.915         	4.406
MS.244         	11.89          	4.242
MS.245         	11.867         	4.282
MS.246         	11.842         	4.321
MS.247         	11.82          	4.15
MS.248         	11.795         	4.243
MS.249         	11.773         	4.247
MS.250         	11.75          	4.345
MS.251         	11.725         	4.203
MS.252         	11.702         	4.009
MS.253         	11.677         	4.225
MS.254         	11.655         	4.246
MS.255         	11.632         	4.155
MS.256         	11.61          	4.189
MS.257         	11.585         	4.151
MS.258         	11.562         	4.141
MS.259         	11.54          	4.125
MS.260         	11.517         	4.12
MS.261         	11.492         	4.197
MS.262         	11.47          	4.222
MS.263         	11.447         	4.092
MS.264         	11.425         	4.111
MS.265         	11.403         	4.107
MS.266         	11.38          	4.117
MS.267         	11.358         	4.077
MS.268         	11.332         	4.074
MS.269         	11.31          	4.028
MS.270         	11.287         	4.094
MS.271         	11.265         	3.832
MS.272         	11.242         	3.857
MS.273         	11.22          	3.742
MS.274         	11.197         	3.978
MS.275         	11.175         	3.759
MS.276         	11.153         	3.747
MS.277         	11.132         	3.651
MS.278         	11.11          	3.751
MS.279         	11.087         	3.757
MS.280         	11.065         	3.671
MS.281         	11.042         	3.731
MS.282         	11.02          	3.561
MS.283         	10.997         	3.704
MS.284         	10.977         	3.619
MS.285         	10.955         	3.599
MS.286         	10.932         	3.688
MS.287         	10.91          	3.644
MS.288         	10.89          	3.64
MS.289         	10.867         	3.452
MS.290         	10.845         	3.657
MS.291         	10.825         	3.724
MS.292         	10.802         	3.45
MS.293         	10.78          	3.402
MS.294         	10.76          	3.483
MS.295         	10.738         	3.615
MS.296         	10.717         	3.536
MS.297         	10.695         	3.274
MS.298         	10.672         	3.325
MS.299         	10.653         	3.307
MS.300         	10.63          	3.344
MS.301         	10.61          	3.333
MS.302         	10.587         	3.373
MS.303         	10.568         	3.271
MS.304         	10.547         	3.188
MS.305         	10.525         	3.091
MS.306         	10.505         	3.251
MS.307         	10.483         	3.317
MS.308         	10.462         	3.054
MS.309         	10.443         	3.276
MS.310         	10.42          	3.318
MS.311         	10.4           	3.152
MS.312         	10.38          	3.052
MS.313         	10.358         	2.983
MS.314         	10.337         	2.977
MS.315         	10.318         	3.138
MS.316         	10.295         	2.96
MS.317         	10.275         	3.048
MS.318         	10.255         	3.041
MS.319         	10.235         	2.978
MS.320         	10.215         	2.892
MS.321         	10.193         	2.836
MS.322         	10.172         	3.004
MS.323         	10.153         	2.767
MS.324         	10.132         	2.708
MS.325         	10.113         	2.834
MS.326         	10.092         	2.783
MS.327         	10.073         	2.763
MS.328         	10.052         	2.702
MS.329         	10.032         	2.902
MS.330         	10.012         	2.682
MS.331         	9.992          	2.76
MS.332         	9.972          	2.676
MS.333         	9.952          	2.687
MS.334         	9.932          	2.668
MS.335         	9.912          	2.639
MS.336         	9.892          	2.808
MS.337         	9.872          	2.706
MS.338         	9.852          	2.577
MS.339         	9.832          	2.565
MS.340         	9.812          	2.511
MS.341         	9.795          	2.468
MS.342         	9.775          	2.445
MS.343         	9.755          	2.437
MS.344         	9.735          	2.527
MS.345         	9.715          	2.602
MS.346         	9.698          	2.501
MS.347         	9.677          	2.538
MS.348         	9.657          	2.534
MS.349         	9.637          	2.296
MS.350         	9.62           	2.31
MS.351         	9.6            	2.21
MS.352         	9.58           	2.612
MS.353         	9.562          	2.366
MS.354         	9.542          	2.155
MS.355         	9.523          	2.159
MS.356         	9.505          	2.311
MS.357         	9.485          	2.211
MS.358         	9.467          	2.189
MS.359         	9.448          	2.258
MS.360         	9.43           	2.215
MS.361         	9.41           	2.354
MS.362         	9.39           	2.191
MS.363         	9.372          	2.147
MS.364         	9.352          	2.075
MS.365         	9.335          	1.669
MS.366         	9.318          	2.126
MS.367         	9.297          	2.107
MS.368         	9.28           	2.111
MS.369         	9.26           	1.921
MS.370         	9.242          	1.938
MS.371         	9.222          	1.775
MS.372         	9.205          	1.595
MS.373         	9.188          	1.421
MS.374         	9.167          	1.589
MS.375         	9.15           	1.391
MS.376         	9.132          	1.387
MS.377         	9.113          	1.379
MS.378         	9.095          	1.303
MS.379         	9.077          	1.326
MS.380         	9.06           	1.37
MS.381         	9.04           	1.55
MS.382         	9.023          	1.387
MS.383         	9.005          	1.299
MS.384         	8.988          	1.628
MS.385         	8.97           	1.373
MS.386         	8.95           	1.251
MS.387         	8.932          	1.354
MS.388         	8.915          	1.416
MS.389         	8.898          	1.248
MS.390         	8.88           	1.494
MS.391         	8.863          	1.255
MS.392         	8.845          	1.462
MS.393         	8.827          	1.174
MS.394         	8.81           	1.059
MS.395         	8.792          	1.017
MS.396         	8.775          	1.062
MS.397         	8.757          	1.082
MS.398         	8.74           	1.028
MS.399         	8.722          	1.149
MS.400         	8.705          	1.028
MS.401         	8.688          	0.972
MS.402         	8.67           	0.926
MS.403         	8.653          	1.019
MS.404         	8.635          	0.891
MS.405         	8.617          	1.127
MS.406         	8.6            	0.853
MS.407         	8.582          	0.809
MS.408         	8.565          	0.898
MS.409         	8.547          	0.916
MS.410         	8.533          	0.956
MS.411         	8.515          	0.787
MS.412         	8.497          	0.818
MS.413         	8.48           	0.883
MS.414         	8.462          	0.717
MS.415         	8.448          	0.768
MS.416         	8.43           	0.851
MS.417         	8.412          	0.871
MS.418         	8.395          	0.688
MS.419         	8.38           	0.644
MS.420         	8.363          	0.693
MS.421         	8.345          	0.735
MS.422         	8.33           	0.691
MS.423         	8.312          	0.673
MS.424         	8.295          	0.718
MS.425         	8.28           	0.654
MS.426         	8.262          	0.661
MS.427         	8.247          	0.632
MS.428         	8.23           	0.632
MS.429         	8.212          	0.703
MS.430         	8.198          	0.562
MS.431         	8.18           	0.645
MS.432         	8.165          	0.565
MS.433         	8.148          	0.525
MS.434         	8.132          	0.571
MS.435         	8.115          	0.61
MS.436         	8.1            	0.573
MS.437         	8.082          	0.489
MS.438         	8.068          	0.459
MS.439         	8.05           	0.434
MS.440         	8.035          	0.485
MS.441         	8.017          	0.511
MS.442         	8.002          	0.497
MS.443         	7.987          	0.414
MS.444         	7.97           	0.37
MS.445         	7.955          	0.33
MS.446         	7.94           	0.399
MS.447         	7.922          	0.446
MS.448         	7.907          	0.413
MS.449         	7.892          	0.323
MS.450         	7.875          	0.315
MS.451         	7.86           	0.325
MS.452         	7.845          	0.237
MS.453         	7.827          	0.25
MS.454         	7.812          	0.422
MS.455         	7.797          	0.125
MS.456         	7.782          	0.126
MS.457         	7.765          	0.104
MS.458         	7.75           	0.118
MS.459         	7.735          	0.09
MS.460         	7.72           	0.19
MS.461         	7.705          	0.188
MS.462         	7.69           	0.161
MS.463         	7.672          	0.101
MS.464         	7.657          	0.079
MS.465         	7.642          	0.147
MS.466         	7.628          	0.084
MS.467         	7.612          	0.104
MS.468         	7.597          	0.096
MS.469         	7.582          	0.103
MS.470         	7.567          	0.089
MS.471         	7.552          	0.06
MS.472         	7.537          	0.171
MS.473         	7.523          	0.047
MS.474         	7.507          	0.046
MS.475         	7.492          	0.163
MS.476         	7.477          	0.129
MS.477         	7.462          	0.034
MS.478         	7.447          	0.137
MS.479         	7.432          	0.045
MS.480         	7.418          	0.049
MS.481         	7.402          	0.021
MS.482         	7.387          	0.093
MS.483         	7.372          	0.057
MS.484         	7.357          	0.046
MS.485         	7.342          	0.016
MS.486         	7.327          	-0.004
MS.487         	7.315          	-0.018
MS.488         	7.3            	0.055
MS.489         	7.285          	0.031
MS.490         	7.27           	0.016
MS.491         	7.255          	-0.009
MS.492         	7.24           	-0.002
MS.493         	7.227          	-0.018
MS.494         	7.212          	-0.028
MS.495         	7.197          	-0.013
MS.496         	7.182          	-0.028
MS.497         	7.17           	-0.009
MS.498         	7.155          	-0.031
MS.499         	7.14           	-0.012
MS.500         	7.125          	-0.007
MS.501         	7.112          	-0.007
MS.502         	7.097          	-0.024
