File:              	C:\Qtrac\Data\ME2C30719A.QZD
Name:              	 ST14R
Protocol:          	MSCAN-MV
Date:              	19/7/23
Date of birth:     	14/4/00
Age:               	23
Sex:               	M
Temperature:       	31.4
S/R sites:         	Knee CF-TA
NC/disease:        	NC
Operator:          	BY
Comments:
M-SCAN DATA (Repeat 3/3, 30.8-23.1m)
Scanpts: 2, 20, 591, 624
Stim. (mA)     	Amp. (mV)
MS.1           	15             	6.251
MS.2           	15             	6.274
MS.3           	15             	6.293
MS.4           	15             	6.276
MS.5           	15             	6.23
MS.6           	15             	6.273
MS.7           	15             	6.254
MS.8           	15             	6.249
MS.9           	15             	6.265
MS.10          	15             	6.287
MS.11          	15             	6.288
MS.12          	15             	6.298
MS.13          	15             	6.274
MS.14          	15             	6.245
MS.15          	15             	6.295
MS.16          	15             	6.271
MS.17          	15             	6.263
MS.18          	15             	6.288
MS.19          	15             	6.223
MS.20          	15             	6.261
MS.21          	15             	6.213
MS.22          	15             	6.241
MS.23          	15             	6.258
MS.24          	14.97          	6.277
MS.25          	14.94          	6.252
MS.26          	14.91          	6.241
MS.27          	14.88          	6.296
MS.28          	14.85          	6.285
MS.29          	14.82          	6.31
MS.30          	14.792         	6.208
MS.31          	14.762         	6.281
MS.32          	14.733         	6.281
MS.33          	14.702         	6.266
MS.34          	14.672         	6.263
MS.35          	14.645         	6.243
MS.36          	14.615         	6.225
MS.37          	14.585         	6.327
MS.38          	14.557         	6.354
MS.39          	14.527         	6.271
MS.40          	14.497         	6.206
MS.41          	14.47          	6.251
MS.42          	14.44          	6.251
MS.43          	14.412         	6.224
MS.44          	14.382         	6.154
MS.45          	14.355         	6.234
MS.46          	14.325         	6.23
MS.47          	14.297         	6.181
MS.48          	14.267         	6.171
MS.49          	14.24          	6.185
MS.50          	14.212         	6.204
MS.51          	14.182         	6.197
MS.52          	14.155         	6.182
MS.53          	14.127         	6.136
MS.54          	14.097         	6.228
MS.55          	14.07          	6.155
MS.56          	14.042         	6.094
MS.57          	14.015         	6.17
MS.58          	13.985         	6.185
MS.59          	13.957         	6.168
MS.60          	13.93          	6.135
MS.61          	13.903         	6.172
MS.62          	13.875         	6.16
MS.63          	13.847         	6.166
MS.64          	13.82          	6.16
MS.65          	13.792         	6.088
MS.66          	13.765         	6.13
MS.67          	13.737         	6.177
MS.68          	13.71          	6.064
MS.69          	13.682         	6.057
MS.70          	13.655         	6.061
MS.71          	13.627         	6.069
MS.72          	13.6           	6.057
MS.73          	13.572         	6.034
MS.74          	13.545         	5.995
MS.75          	13.517         	6.013
MS.76          	13.492         	6.016
MS.77          	13.465         	5.967
MS.78          	13.438         	6.011
MS.79          	13.41          	5.942
MS.80          	13.385         	6.031
MS.81          	13.358         	5.936
MS.82          	13.33          	5.953
MS.83          	13.305         	5.958
MS.84          	13.278         	5.92
MS.85          	13.25          	5.945
MS.86          	13.225         	5.936
MS.87          	13.197         	6
MS.88          	13.172         	5.813
MS.89          	13.145         	6.036
MS.90          	13.12          	5.862
MS.91          	13.092         	5.867
MS.92          	13.068         	5.917
MS.93          	13.04          	5.913
MS.94          	13.015         	5.951
MS.95          	12.987         	5.801
MS.96          	12.962         	5.904
MS.97          	12.938         	5.919
MS.98          	12.91          	5.87
MS.99          	12.885         	5.85
MS.100         	12.86          	5.917
MS.101         	12.832         	5.889
MS.102         	12.807         	5.765
MS.103         	12.782         	5.803
MS.104         	12.757         	5.738
MS.105         	12.73          	5.844
MS.106         	12.705         	5.782
MS.107         	12.68          	5.793
MS.108         	12.655         	5.818
MS.109         	12.63          	5.801
MS.110         	12.605         	5.828
MS.111         	12.58          	5.797
MS.112         	12.555         	5.764
MS.113         	12.53          	5.742
MS.114         	12.505         	5.678
MS.115         	12.48          	5.75
MS.116         	12.455         	5.732
MS.117         	12.43          	5.777
MS.118         	12.405         	5.735
MS.119         	12.38          	5.776
MS.120         	12.355         	5.707
MS.121         	12.33          	5.668
MS.122         	12.305         	5.707
MS.123         	12.28          	5.755
MS.124         	12.257         	5.717
MS.125         	12.233         	5.656
MS.126         	12.207         	5.674
MS.127         	12.182         	5.69
MS.128         	12.16          	5.602
MS.129         	12.135         	5.586
MS.130         	12.11          	5.647
MS.131         	12.085         	5.558
MS.132         	12.062         	5.665
MS.133         	12.037         	5.581
MS.134         	12.012         	5.547
MS.135         	11.99          	5.571
MS.136         	11.965         	5.627
MS.137         	11.943         	5.486
MS.138         	11.917         	5.484
MS.139         	11.895         	5.56
MS.140         	11.87          	5.499
MS.141         	11.847         	5.511
MS.142         	11.822         	5.447
MS.143         	11.8           	5.37
MS.144         	11.775         	5.372
MS.145         	11.752         	5.345
MS.146         	11.73          	5.375
MS.147         	11.705         	5.32
MS.148         	11.682         	5.36
MS.149         	11.657         	5.245
MS.150         	11.635         	5.351
MS.151         	11.613         	5.33
MS.152         	11.59          	5.188
MS.153         	11.565         	5.245
MS.154         	11.542         	5.209
MS.155         	11.52          	5.218
MS.156         	11.497         	5.176
MS.157         	11.472         	5.22
MS.158         	11.45          	5.166
MS.159         	11.427         	5.224
MS.160         	11.405         	5.236
MS.161         	11.382         	5.03
MS.162         	11.36          	5.147
MS.163         	11.337         	5.173
MS.164         	11.315         	5.042
MS.165         	11.292         	5.118
MS.166         	11.27          	5.071
MS.167         	11.247         	5.206
MS.168         	11.225         	4.936
MS.169         	11.202         	4.944
MS.170         	11.18          	5.017
MS.171         	11.157         	4.997
MS.172         	11.135         	5.107
MS.173         	11.113         	5.005
MS.174         	11.09          	4.966
MS.175         	11.068         	4.891
MS.176         	11.045         	4.827
MS.177         	11.023         	4.915
MS.178         	11.002         	4.949
MS.179         	10.98          	4.89
MS.180         	10.957         	5.007
MS.181         	10.935         	4.901
MS.182         	10.915         	4.946
MS.183         	10.892         	4.906
MS.184         	10.87          	4.858
MS.185         	10.85          	4.871
MS.186         	10.827         	4.836
MS.187         	10.805         	4.709
MS.188         	10.785         	4.817
MS.189         	10.762         	4.753
MS.190         	10.74          	4.771
MS.191         	10.72          	4.69
MS.192         	10.698         	4.722
MS.193         	10.677         	4.687
MS.194         	10.655         	4.663
MS.195         	10.635         	4.692
MS.196         	10.613         	4.601
MS.197         	10.592         	4.647
MS.198         	10.57          	4.705
MS.199         	10.55          	4.573
MS.200         	10.528         	4.612
MS.201         	10.507         	4.601
MS.202         	10.485         	4.564
MS.203         	10.465         	4.543
MS.204         	10.445         	4.521
MS.205         	10.422         	4.509
MS.206         	10.403         	4.518
MS.207         	10.382         	4.5
MS.208         	10.36          	4.483
MS.209         	10.34          	4.321
MS.210         	10.32          	4.337
MS.211         	10.3           	4.404
MS.212         	10.278         	4.114
MS.213         	10.257         	4.232
MS.214         	10.238         	4.194
MS.215         	10.217         	4.012
MS.216         	10.198         	4.093
MS.217         	10.175         	3.952
MS.218         	10.155         	3.949
MS.219         	10.135         	4.081
MS.220         	10.115         	3.986
MS.221         	10.095         	4.036
MS.222         	10.075         	3.965
MS.223         	10.055         	3.826
MS.224         	10.035         	3.852
MS.225         	10.015         	3.915
MS.226         	9.995          	3.913
MS.227         	9.975          	3.659
MS.228         	9.955          	3.798
MS.229         	9.935          	3.815
MS.230         	9.915          	3.688
MS.231         	9.895          	3.728
MS.232         	9.875          	3.787
MS.233         	9.855          	3.753
MS.234         	9.835          	3.74
MS.235         	9.818          	3.861
MS.236         	9.797          	3.722
MS.237         	9.778          	3.732
MS.238         	9.757          	3.635
MS.239         	9.738          	3.556
MS.240         	9.717          	3.608
MS.241         	9.7            	3.585
MS.242         	9.68           	3.662
MS.243         	9.66           	3.613
MS.244         	9.64           	3.557
MS.245         	9.622          	3.563
MS.246         	9.602          	3.475
MS.247         	9.582          	3.408
MS.248         	9.565          	3.443
MS.249         	9.545          	3.503
MS.250         	9.525          	3.552
MS.251         	9.507          	3.45
MS.252         	9.488          	3.433
MS.253         	9.47           	3.352
MS.254         	9.45           	3.37
MS.255         	9.432          	3.297
MS.256         	9.412          	3.208
MS.257         	9.395          	3.156
MS.258         	9.375          	3.177
MS.259         	9.358          	3.208
MS.260         	9.337          	3.125
MS.261         	9.32           	3.106
MS.262         	9.3            	3.082
MS.263         	9.283          	3.014
MS.264         	9.262          	3.17
MS.265         	9.245          	3.052
MS.266         	9.225          	2.911
MS.267         	9.207          	2.997
MS.268         	9.19           	2.947
MS.269         	9.17           	3.006
MS.270         	9.153          	2.891
MS.271         	9.135          	2.993
MS.272         	9.115          	2.935
MS.273         	9.097          	2.935
MS.274         	9.08           	2.863
MS.275         	9.062          	2.806
MS.276         	9.042          	2.902
MS.277         	9.025          	2.88
MS.278         	9.007          	2.745
MS.279         	8.99           	2.722
MS.280         	8.972          	2.769
MS.281         	8.952          	2.687
MS.282         	8.935          	2.704
MS.283         	8.917          	2.658
MS.284         	8.9            	2.661
MS.285         	8.882          	2.684
MS.286         	8.865          	2.579
MS.287         	8.847          	2.553
MS.288         	8.83           	2.553
MS.289         	8.812          	2.421
MS.290         	8.795          	2.558
MS.291         	8.778          	2.469
MS.292         	8.757          	2.51
MS.293         	8.74           	2.476
MS.294         	8.725          	2.41
MS.295         	8.707          	2.411
MS.296         	8.69           	2.435
MS.297         	8.672          	2.382
MS.298         	8.655          	2.338
MS.299         	8.637          	2.332
MS.300         	8.62           	2.374
MS.301         	8.602          	2.269
MS.302         	8.585          	2.307
MS.303         	8.568          	2.252
MS.304         	8.55           	2.203
MS.305         	8.535          	2.263
MS.306         	8.517          	2.244
MS.307         	8.5            	2.264
MS.308         	8.483          	2.211
MS.309         	8.465          	2.218
MS.310         	8.45           	2.252
MS.311         	8.432          	2.208
MS.312         	8.415          	2.188
MS.313         	8.398          	2.114
MS.314         	8.382          	2.213
MS.315         	8.365          	2.126
MS.316         	8.347          	2.149
MS.317         	8.332          	2.108
MS.318         	8.315          	2.089
MS.319         	8.297          	2.051
MS.320         	8.283          	2.075
MS.321         	8.265          	2.029
MS.322         	8.247          	1.92
MS.323         	8.233          	1.868
MS.324         	8.215          	1.934
MS.325         	8.2            	1.799
MS.326         	8.182          	1.802
MS.327         	8.167          	1.888
MS.328         	8.15           	1.895
MS.329         	8.135          	1.842
MS.330         	8.117          	1.801
MS.331         	8.102          	1.78
MS.332         	8.085          	1.842
MS.333         	8.07           	1.779
MS.334         	8.052          	1.726
MS.335         	8.037          	1.7
MS.336         	8.02           	1.677
MS.337         	8.005          	1.721
MS.338         	7.99           	1.617
MS.339         	7.972          	1.584
MS.340         	7.957          	1.573
MS.341         	7.94           	1.605
MS.342         	7.925          	1.556
MS.343         	7.91           	1.484
MS.344         	7.892          	1.513
MS.345         	7.878          	1.468
MS.346         	7.862          	1.498
MS.347         	7.847          	1.365
MS.348         	7.83           	1.439
MS.349         	7.815          	1.321
MS.350         	7.8            	1.417
MS.351         	7.785          	1.356
MS.352         	7.767          	1.274
MS.353         	7.753          	1.313
MS.354         	7.737          	1.318
MS.355         	7.722          	1.293
MS.356         	7.707          	1.196
MS.357         	7.69           	1.267
MS.358         	7.675          	1.191
MS.359         	7.66           	1.165
MS.360         	7.645          	1.152
MS.361         	7.63           	1.146
MS.362         	7.615          	1.098
MS.363         	7.6            	1.146
MS.364         	7.585          	1.147
MS.365         	7.57           	1.022
MS.366         	7.555          	1.033
MS.367         	7.537          	1.031
MS.368         	7.523          	0.982
MS.369         	7.507          	0.943
MS.370         	7.492          	0.894
MS.371         	7.477          	0.967
MS.372         	7.462          	0.945
MS.373         	7.45           	0.966
MS.374         	7.435          	0.922
MS.375         	7.42           	0.9
MS.376         	7.405          	0.936
MS.377         	7.39           	0.911
MS.378         	7.375          	0.803
MS.379         	7.36           	0.832
MS.380         	7.345          	0.87
MS.381         	7.33           	0.809
MS.382         	7.315          	0.833
MS.383         	7.302          	0.876
MS.384         	7.287          	0.789
MS.385         	7.273          	0.797
MS.386         	7.257          	0.803
MS.387         	7.242          	0.784
MS.388         	7.227          	0.79
MS.389         	7.215          	0.727
MS.390         	7.2            	0.736
MS.391         	7.185          	0.764
MS.392         	7.17           	0.739
MS.393         	7.157          	0.75
MS.394         	7.142          	0.685
MS.395         	7.128          	0.691
MS.396         	7.115          	0.682
MS.397         	7.1            	0.657
MS.398         	7.085          	0.696
MS.399         	7.072          	0.656
MS.400         	7.057          	0.66
MS.401         	7.043          	0.698
MS.402         	7.03           	0.669
MS.403         	7.015          	0.631
MS.404         	7              	0.616
MS.405         	6.987          	0.607
MS.406         	6.972          	0.618
MS.407         	6.96           	0.589
MS.408         	6.945          	0.596
MS.409         	6.932          	0.554
MS.410         	6.918          	0.572
MS.411         	6.902          	0.552
MS.412         	6.89           	0.558
MS.413         	6.875          	0.576
MS.414         	6.862          	0.605
MS.415         	6.847          	0.528
MS.416         	6.835          	0.494
MS.417         	6.822          	0.55
MS.418         	6.807          	0.496
MS.419         	6.795          	0.54
MS.420         	6.78           	0.447
MS.421         	6.767          	0.472
MS.422         	6.753          	0.518
MS.423         	6.74           	0.488
MS.424         	6.727          	0.506
MS.425         	6.712          	0.479
MS.426         	6.7            	0.421
MS.427         	6.685          	0.477
MS.428         	6.672          	0.482
MS.429         	6.66           	0.435
MS.430         	6.645          	0.399
MS.431         	6.632          	0.389
MS.432         	6.62           	0.372
MS.433         	6.608          	0.45
MS.434         	6.592          	0.358
MS.435         	6.58           	0.334
MS.436         	6.567          	0.311
MS.437         	6.555          	0.313
MS.438         	6.54           	0.309
MS.439         	6.527          	0.397
MS.440         	6.515          	0.321
MS.441         	6.503          	0.292
MS.442         	6.487          	0.308
MS.443         	6.475          	0.299
MS.444         	6.462          	0.284
MS.445         	6.45           	0.275
MS.446         	6.438          	0.302
MS.447         	6.425          	0.269
MS.448         	6.41           	0.268
MS.449         	6.398          	0.267
MS.450         	6.385          	0.278
MS.451         	6.372          	0.266
MS.452         	6.36           	0.265
MS.453         	6.347          	0.247
MS.454         	6.335          	0.265
MS.455         	6.322          	0.265
MS.456         	6.31           	0.247
MS.457         	6.297          	0.226
MS.458         	6.285          	0.236
MS.459         	6.273          	0.215
MS.460         	6.26           	0.252
MS.461         	6.247          	0.262
MS.462         	6.235          	0.212
MS.463         	6.222          	0.208
MS.464         	6.21           	0.23
MS.465         	6.197          	0.248
MS.466         	6.185          	0.224
MS.467         	6.172          	0.228
MS.468         	6.16           	0.219
MS.469         	6.148          	0.258
MS.470         	6.135          	0.2
MS.471         	6.122          	0.204
MS.472         	6.11           	0.185
MS.473         	6.097          	0.172
MS.474         	6.088          	0.197
MS.475         	6.075          	0.176
MS.476         	6.062          	0.168
MS.477         	6.05           	0.15
MS.478         	6.037          	0.161
MS.479         	6.025          	0.166
MS.480         	6.015          	0.161
MS.481         	6.003          	0.157
MS.482         	5.99           	0.159
MS.483         	5.977          	0.154
MS.484         	5.965          	0.186
MS.485         	5.955          	0.168
MS.486         	5.942          	0.156
MS.487         	5.93           	0.153
MS.488         	5.918          	0.128
MS.489         	5.907          	0.145
MS.490         	5.895          	0.154
MS.491         	5.882          	0.145
MS.492         	5.87           	0.147
MS.493         	5.86           	0.15
MS.494         	5.847          	0.156
MS.495         	5.835          	0.131
MS.496         	5.825          	0.148
MS.497         	5.812          	0.153
MS.498         	5.8            	0.149
MS.499         	5.79           	0.151
MS.500         	5.777          	0.151
MS.501         	5.767          	0.099
MS.502         	5.755          	0.148
MS.503         	5.742          	0.118
