File:              	C:\Qtrac\Data\ME2C30630B.QZD
Name:              	 ME27D
Protocol:          	MSCAN-MV
Date:              	30/6/23
Date of birth:     	27/11/02
Age:               	20
Sex:               	M
Temperature:       	30.5
S/R sites:         	Knee CF-TA
NC/disease:        	NC
Operator:          	BY
Comments:
M-SCAN DATA (Repeat 2/4, 27.7-16.9m)
Scanpts: 202, 224, 738, 755
Stim. (mA)     	Amp. (mV)
MS.1           	12             	10.179
MS.2           	12             	10.226
MS.3           	12             	10.192
MS.4           	12             	10.242
MS.5           	12             	10.226
MS.6           	12             	10.178
MS.7           	12             	10.2
MS.8           	12             	10.231
MS.9           	12             	10.225
MS.10          	12             	10.211
MS.11          	12             	10.191
MS.12          	12             	10.217
MS.13          	12             	10.194
MS.14          	12             	10.198
MS.15          	12             	10.194
MS.16          	12             	10.206
MS.17          	12             	10.184
MS.18          	12             	10.245
MS.19          	12             	10.203
MS.20          	12             	10.22
MS.21          	12             	10.156
MS.22          	12             	10.249
MS.23          	12             	10.234
MS.24          	11.975         	10.217
MS.25          	11.952         	10.188
MS.26          	11.927         	10.242
MS.27          	11.905         	10.196
MS.28          	11.88          	10.201
MS.29          	11.858         	10.225
MS.30          	11.832         	10.262
MS.31          	11.81          	10.229
MS.32          	11.785         	10.205
MS.33          	11.762         	10.244
MS.34          	11.74          	10.195
MS.35          	11.715         	10.219
MS.36          	11.693         	10.249
MS.37          	11.667         	10.236
MS.38          	11.645         	10.225
MS.39          	11.622         	10.203
MS.40          	11.6           	10.211
MS.41          	11.575         	10.235
MS.42          	11.552         	10.198
MS.43          	11.53          	10.188
MS.44          	11.507         	10.231
MS.45          	11.483         	10.248
MS.46          	11.46          	10.28
MS.47          	11.438         	10.198
MS.48          	11.415         	10.211
MS.49          	11.392         	10.244
MS.50          	11.37          	10.229
MS.51          	11.347         	10.232
MS.52          	11.325         	10.268
MS.53          	11.3           	10.191
MS.54          	11.278         	10.251
MS.55          	11.255         	10.197
MS.56          	11.233         	10.245
MS.57          	11.21          	10.195
MS.58          	11.188         	10.284
MS.59          	11.167         	10.23
MS.60          	11.145         	10.258
MS.61          	11.122         	10.257
MS.62          	11.1           	10.253
MS.63          	11.077         	10.254
MS.64          	11.055         	10.251
MS.65          	11.032         	10.168
MS.66          	11.01          	10.253
MS.67          	10.99          	10.221
MS.68          	10.967         	10.287
MS.69          	10.945         	10.226
MS.70          	10.922         	10.276
MS.71          	10.903         	10.194
MS.72          	10.88          	10.24
MS.73          	10.858         	10.315
MS.74          	10.837         	10.25
MS.75          	10.815         	10.259
MS.76          	10.792         	10.195
MS.77          	10.773         	10.241
MS.78          	10.75          	10.317
MS.79          	10.727         	10.261
MS.80          	10.707         	10.253
MS.81          	10.685         	10.215
MS.82          	10.665         	10.194
MS.83          	10.642         	10.262
MS.84          	10.622         	10.243
MS.85          	10.6           	10.257
MS.86          	10.58          	10.291
MS.87          	10.557         	10.247
MS.88          	10.537         	10.286
MS.89          	10.515         	10.246
MS.90          	10.495         	10.248
MS.91          	10.475         	10.223
MS.92          	10.452         	10.284
MS.93          	10.432         	10.271
MS.94          	10.412         	10.27
MS.95          	10.39          	10.274
MS.96          	10.37          	10.312
MS.97          	10.35          	10.242
MS.98          	10.327         	10.272
MS.99          	10.307         	10.274
MS.100         	10.287         	10.195
MS.101         	10.267         	10.239
MS.102         	10.245         	10.239
MS.103         	10.225         	10.216
MS.104         	10.205         	10.248
MS.105         	10.185         	10.233
MS.106         	10.165         	10.253
MS.107         	10.145         	10.286
MS.108         	10.125         	10.242
MS.109         	10.105         	10.236
MS.110         	10.082         	10.223
MS.111         	10.062         	10.234
MS.112         	10.042         	10.283
MS.113         	10.023         	10.233
MS.114         	10.002         	10.298
MS.115         	9.983          	10.305
MS.116         	9.962          	10.27
MS.117         	9.943          	10.242
MS.118         	9.922          	10.267
MS.119         	9.903          	10.226
MS.120         	9.885          	10.272
MS.121         	9.865          	10.299
MS.122         	9.845          	10.306
MS.123         	9.825          	10.231
MS.124         	9.805          	10.288
MS.125         	9.785          	10.3
MS.126         	9.765          	10.238
MS.127         	9.747          	10.257
MS.128         	9.727          	10.276
MS.129         	9.707          	10.269
MS.130         	9.688          	10.285
MS.131         	9.67           	10.258
MS.132         	9.65           	10.298
MS.133         	9.63           	10.262
MS.134         	9.61           	10.276
MS.135         	9.592          	10.255
MS.136         	9.573          	10.255
MS.137         	9.552          	10.269
MS.138         	9.535          	10.261
MS.139         	9.515          	10.257
MS.140         	9.497          	10.242
MS.141         	9.477          	10.259
MS.142         	9.457          	10.295
MS.143         	9.44           	10.276
MS.144         	9.42           	10.309
MS.145         	9.403          	10.216
MS.146         	9.382          	10.303
MS.147         	9.365          	10.311
MS.148         	9.345          	10.248
MS.149         	9.327          	10.242
MS.150         	9.307          	10.276
MS.151         	9.29           	10.269
MS.152         	9.27           	10.245
MS.153         	9.252          	10.248
MS.154         	9.235          	10.276
MS.155         	9.215          	10.272
MS.156         	9.198          	10.297
MS.157         	9.18           	10.323
MS.158         	9.16           	10.27
MS.159         	9.142          	10.224
MS.160         	9.125          	10.251
MS.161         	9.105          	10.294
MS.162         	9.087          	10.312
MS.163         	9.07           	10.269
MS.164         	9.052          	10.271
MS.165         	9.033          	10.301
MS.166         	9.015          	10.332
MS.167         	8.997          	10.281
MS.168         	8.98           	10.303
MS.169         	8.96           	10.287
MS.170         	8.943          	10.277
MS.171         	8.925          	10.276
MS.172         	8.908          	10.225
MS.173         	8.89           	10.296
MS.174         	8.872          	10.276
MS.175         	8.855          	10.211
MS.176         	8.837          	10.262
MS.177         	8.82           	10.259
MS.178         	8.802          	10.316
MS.179         	8.785          	10.302
MS.180         	8.765          	10.234
MS.181         	8.747          	10.296
MS.182         	8.73           	10.276
MS.183         	8.715          	10.283
MS.184         	8.698          	10.292
MS.185         	8.68           	10.333
MS.186         	8.662          	10.289
MS.187         	8.645          	10.282
MS.188         	8.627          	10.326
MS.189         	8.61           	10.262
MS.190         	8.592          	10.297
MS.191         	8.575          	10.283
MS.192         	8.557          	10.27
MS.193         	8.542          	10.255
MS.194         	8.525          	10.256
MS.195         	8.507          	10.281
MS.196         	8.49           	10.276
MS.197         	8.472          	10.288
MS.198         	8.457          	10.302
MS.199         	8.44           	10.27
MS.200         	8.422          	10.303
MS.201         	8.405          	10.29
MS.202         	8.39           	10.29
MS.203         	8.372          	10.3
MS.204         	8.355          	10.292
MS.205         	8.337          	10.262
MS.206         	8.323          	10.234
MS.207         	8.305          	10.278
MS.208         	8.29           	10.286
MS.209         	8.273          	10.206
MS.210         	8.255          	10.298
MS.211         	8.24           	10.301
MS.212         	8.222          	10.259
MS.213         	8.207          	10.247
MS.214         	8.19           	10.297
MS.215         	8.172          	10.231
MS.216         	8.158          	10.247
MS.217         	8.14           	10.248
MS.218         	8.125          	10.231
MS.219         	8.108          	10.253
MS.220         	8.092          	10.269
MS.221         	8.075          	10.285
MS.222         	8.06           	10.234
MS.223         	8.045          	10.264
MS.224         	8.028          	10.212
MS.225         	8.012          	10.258
MS.226         	7.995          	10.283
MS.227         	7.98           	10.183
MS.228         	7.965          	10.235
MS.229         	7.947          	10.221
MS.230         	7.932          	10.22
MS.231         	7.915          	10.24
MS.232         	7.9            	10.236
MS.233         	7.885          	10.263
MS.234         	7.87           	10.243
MS.235         	7.852          	10.22
MS.236         	7.837          	10.259
MS.237         	7.822          	10.208
MS.238         	7.805          	10.254
MS.239         	7.79           	10.256
MS.240         	7.775          	10.238
MS.241         	7.76           	10.215
MS.242         	7.745          	10.275
MS.243         	7.727          	10.252
MS.244         	7.712          	10.224
MS.245         	7.697          	10.213
MS.246         	7.682          	10.221
MS.247         	7.668          	10.182
MS.248         	7.652          	10.206
MS.249         	7.637          	10.15
MS.250         	7.62           	10.176
MS.251         	7.605          	10.242
MS.252         	7.59           	10.212
MS.253         	7.575          	10.178
MS.254         	7.56           	10.204
MS.255         	7.545          	10.172
MS.256         	7.53           	10.192
MS.257         	7.515          	10.184
MS.258         	7.5            	10.181
MS.259         	7.485          	10.172
MS.260         	7.47           	10.119
MS.261         	7.455          	10.223
MS.262         	7.44           	10.153
MS.263         	7.425          	10.08
MS.264         	7.41           	10.123
MS.265         	7.395          	10.117
MS.266         	7.38           	10.161
MS.267         	7.365          	10.135
MS.268         	7.352          	10.144
MS.269         	7.337          	10.052
MS.270         	7.322          	10.02
MS.271         	7.307          	10.12
MS.272         	7.293          	10.11
MS.273         	7.277          	10.106
MS.274         	7.265          	10.118
MS.275         	7.25           	10.097
MS.276         	7.235          	10.041
MS.277         	7.22           	10.11
MS.278         	7.205          	10.047
MS.279         	7.192          	10.061
MS.280         	7.177          	10.09
MS.281         	7.162          	10.002
MS.282         	7.148          	10.043
MS.283         	7.135          	10.138
MS.284         	7.12           	10.039
MS.285         	7.105          	10.01
MS.286         	7.092          	9.997
MS.287         	7.077          	10.002
MS.288         	7.062          	9.954
MS.289         	7.05           	10.038
MS.290         	7.035          	9.997
MS.291         	7.02           	10.06
MS.292         	7.007          	9.976
MS.293         	6.992          	9.943
MS.294         	6.98           	9.971
MS.295         	6.965          	9.862
MS.296         	6.95           	9.908
MS.297         	6.938          	9.924
MS.298         	6.922          	9.928
MS.299         	6.91           	9.843
MS.300         	6.895          	9.93
MS.301         	6.882          	9.97
MS.302         	6.867          	9.919
MS.303         	6.855          	9.956
MS.304         	6.84           	9.816
MS.305         	6.827          	9.757
MS.306         	6.812          	9.851
MS.307         	6.8            	9.81
MS.308         	6.787          	9.788
MS.309         	6.773          	9.747
MS.310         	6.76           	9.89
MS.311         	6.745          	9.703
MS.312         	6.733          	9.923
MS.313         	6.72           	9.637
MS.314         	6.705          	9.622
MS.315         	6.692          	9.653
MS.316         	6.677          	9.725
MS.317         	6.665          	9.726
MS.318         	6.652          	9.752
MS.319         	6.637          	9.512
MS.320         	6.625          	9.609
MS.321         	6.612          	9.829
MS.322         	6.6            	9.698
MS.323         	6.585          	9.538
MS.324         	6.572          	9.547
MS.325         	6.56           	9.5
MS.326         	6.547          	9.561
MS.327         	6.532          	9.575
MS.328         	6.52           	9.434
MS.329         	6.507          	9.468
MS.330         	6.495          	9.313
MS.331         	6.48           	9.448
MS.332         	6.467          	9.402
MS.333         	6.455          	9.409
MS.334         	6.442          	9.426
MS.335         	6.43           	9.421
MS.336         	6.418          	9.294
MS.337         	6.405          	9.35
MS.338         	6.39           	9.362
MS.339         	6.378          	9.438
MS.340         	6.365          	9.313
MS.341         	6.352          	9.376
MS.342         	6.34           	9.301
MS.343         	6.327          	9.199
MS.344         	6.315          	9.19
MS.345         	6.302          	9.324
MS.346         	6.29           	9.237
MS.347         	6.277          	9.15
MS.348         	6.265          	9.158
MS.349         	6.253          	9.24
MS.350         	6.24           	9.005
MS.351         	6.227          	9.164
MS.352         	6.215          	9.065
MS.353         	6.202          	8.919
MS.354         	6.19           	8.917
MS.355         	6.177          	9.038
MS.356         	6.165          	9.081
MS.357         	6.152          	9.005
MS.358         	6.14           	8.86
MS.359         	6.128          	8.992
MS.360         	6.115          	8.882
MS.361         	6.105          	8.939
MS.362         	6.092          	8.741
MS.363         	6.08           	8.878
MS.364         	6.067          	8.768
MS.365         	6.055          	8.801
MS.366         	6.043          	8.721
MS.367         	6.03           	8.643
MS.368         	6.02           	8.605
MS.369         	6.007          	8.497
MS.370         	5.995          	8.544
MS.371         	5.983          	8.529
MS.372         	5.97           	8.561
MS.373         	5.96           	8.411
MS.374         	5.947          	8.511
MS.375         	5.935          	8.422
MS.376         	5.922          	8.447
MS.377         	5.912          	8.356
MS.378         	5.9            	8.399
MS.379         	5.887          	8.285
MS.380         	5.875          	8.288
MS.381         	5.865          	8.286
MS.382         	5.852          	8.151
MS.383         	5.84           	8.248
MS.384         	5.83           	8.162
MS.385         	5.817          	8.224
MS.386         	5.805          	8.187
MS.387         	5.795          	8.17
MS.388         	5.782          	8.098
MS.389         	5.773          	8.078
MS.390         	5.76           	7.989
MS.391         	5.747          	8.105
MS.392         	5.737          	8.042
MS.393         	5.725          	8.154
MS.394         	5.715          	7.985
MS.395         	5.702          	7.854
MS.396         	5.69           	7.84
MS.397         	5.68           	7.996
MS.398         	5.668          	7.899
MS.399         	5.657          	7.764
MS.400         	5.645          	7.767
MS.401         	5.635          	7.872
MS.402         	5.622          	7.766
MS.403         	5.612          	7.82
MS.404         	5.6            	7.856
MS.405         	5.59           	7.813
MS.406         	5.577          	7.508
MS.407         	5.567          	7.561
MS.408         	5.555          	7.488
MS.409         	5.545          	7.54
MS.410         	5.535          	7.696
MS.411         	5.523          	7.411
MS.412         	5.512          	7.582
MS.413         	5.5            	7.532
MS.414         	5.49           	7.424
MS.415         	5.48           	7.471
MS.416         	5.467          	7.152
MS.417         	5.457          	7.368
MS.418         	5.445          	7.232
MS.419         	5.435          	7.216
MS.420         	5.425          	7.244
MS.421         	5.412          	7.323
MS.422         	5.402          	6.994
MS.423         	5.392          	7.124
MS.424         	5.38           	7.009
MS.425         	5.37           	7.1
MS.426         	5.36           	7.109
MS.427         	5.35           	6.904
MS.428         	5.338          	6.948
MS.429         	5.327          	6.787
MS.430         	5.318          	6.755
MS.431         	5.307          	6.862
MS.432         	5.295          	6.806
MS.433         	5.285          	6.672
MS.434         	5.275          	6.652
MS.435         	5.265          	6.613
MS.436         	5.253          	6.671
MS.437         	5.242          	6.749
MS.438         	5.233          	6.654
MS.439         	5.222          	6.541
MS.440         	5.213          	6.481
MS.441         	5.202          	6.37
MS.442         	5.19           	6.259
MS.443         	5.18           	6.506
MS.444         	5.17           	6.377
MS.445         	5.16           	6.262
MS.446         	5.15           	6.319
MS.447         	5.14           	6.273
MS.448         	5.13           	6.281
MS.449         	5.117          	6.261
MS.450         	5.108          	6.078
MS.451         	5.097          	6.254
MS.452         	5.088          	6.192
MS.453         	5.077          	6.191
MS.454         	5.068          	6.044
MS.455         	5.057          	5.931
MS.456         	5.047          	6.082
MS.457         	5.037          	5.723
MS.458         	5.027          	5.916
MS.459         	5.017          	5.804
MS.460         	5.007          	5.818
MS.461         	4.997          	5.736
MS.462         	4.987          	5.711
MS.463         	4.977          	5.721
MS.464         	4.967          	5.587
MS.465         	4.957          	5.689
MS.466         	4.947          	5.6
MS.467         	4.938          	5.595
MS.468         	4.927          	5.535
MS.469         	4.918          	5.425
MS.470         	4.907          	5.44
MS.471         	4.898          	5.438
MS.472         	4.887          	5.225
MS.473         	4.88           	5.177
MS.474         	4.87           	5.201
MS.475         	4.86           	5.061
MS.476         	4.85           	5.096
MS.477         	4.84           	4.846
MS.478         	4.83           	4.884
MS.479         	4.82           	4.913
MS.480         	4.81           	4.789
MS.481         	4.802          	5.032
MS.482         	4.793          	4.613
MS.483         	4.782          	4.623
MS.484         	4.773          	4.756
MS.485         	4.762          	4.781
MS.486         	4.753          	4.711
MS.487         	4.745          	4.43
MS.488         	4.735          	4.555
MS.489         	4.725          	4.46
MS.490         	4.715          	4.351
MS.491         	4.707          	4.286
MS.492         	4.697          	4.283
MS.493         	4.688          	4.35
MS.494         	4.677          	4.257
MS.495         	4.67           	4.246
