File:              	C:\Qtrac\Data\ME2C30629B.QZD
Name:              	 RO11A
Protocol:          	MSCAN-MV
Date:              	29/6/23
Date of birth:     	11/8/01
Age:               	21
Sex:               	F
Temperature:       	33.3
S/R sites:         	Knee CF-TA
NC/disease:        	NC
Operator:          	BY
Comments:
M-SCAN DATA (Repeat 2/3, 18.2-13m)
Scanpts: 8, 24, 404, 439
Stim. (mA)     	Amp. (mV)
MS.1           	19.5           	5.195
MS.2           	19.5           	5.253
MS.3           	19.5           	5.274
MS.4           	19.5           	5.188
MS.5           	19.5           	5.262
MS.6           	19.5           	5.298
MS.7           	19.5           	5.291
MS.8           	19.5           	5.219
MS.9           	19.5           	5.23
MS.10          	19.5           	5.248
MS.11          	19.5           	5.224
MS.12          	19.5           	5.242
MS.13          	19.5           	5.245
MS.14          	19.5           	5.192
MS.15          	19.5           	5.226
MS.16          	19.5           	5.156
MS.17          	19.5           	5.203
MS.18          	19.5           	5.17
MS.19          	19.5           	5.195
MS.20          	19.5           	5.23
MS.21          	19.5           	5.2
MS.22          	19.5           	5.214
MS.23          	19.5           	5.193
MS.24          	19.46          	5.193
MS.25          	19.422         	5.125
MS.26          	19.382         	5.131
MS.27          	19.345         	5.118
MS.28          	19.305         	5.156
MS.29          	19.267         	5.215
MS.30          	19.23          	5.096
MS.31          	19.19          	5.144
MS.32          	19.153         	5.098
MS.33          	19.115         	5.182
MS.34          	19.075         	5.183
MS.35          	19.038         	5.162
MS.36          	19             	5.101
MS.37          	18.962         	5.167
MS.38          	18.922         	5.04
MS.39          	18.885         	5.119
MS.40          	18.847         	5.027
MS.41          	18.81          	5.079
MS.42          	18.772         	5.031
MS.43          	18.735         	5.037
MS.44          	18.698         	5.027
MS.45          	18.66          	5.028
MS.46          	18.622         	4.902
MS.47          	18.585         	4.847
MS.48          	18.55          	4.98
MS.49          	18.512         	4.788
MS.50          	18.475         	4.965
MS.51          	18.438         	4.912
MS.52          	18.4           	4.952
MS.53          	18.365         	4.89
MS.54          	18.327         	4.915
MS.55          	18.29          	4.804
MS.56          	18.255         	4.758
MS.57          	18.217         	4.76
MS.58          	18.182         	4.846
MS.59          	18.145         	4.708
MS.60          	18.11          	4.6
MS.61          	18.073         	4.764
MS.62          	18.038         	4.764
MS.63          	18             	4.673
MS.64          	17.965         	4.727
MS.65          	17.93          	4.654
MS.66          	17.892         	4.677
MS.67          	17.858         	4.705
MS.68          	17.823         	4.619
MS.69          	17.785         	4.593
MS.70          	17.75          	4.643
MS.71          	17.715         	4.709
MS.72          	17.68          	4.568
MS.73          	17.645         	4.579
MS.74          	17.61          	4.543
MS.75          	17.575         	4.584
MS.76          	17.54          	4.418
MS.77          	17.503         	4.513
MS.78          	17.47          	4.438
MS.79          	17.435         	4.471
MS.80          	17.4           	4.475
MS.81          	17.365         	4.384
MS.82          	17.33          	4.494
MS.83          	17.295         	4.466
MS.84          	17.26          	4.363
MS.85          	17.225         	4.408
MS.86          	17.192         	4.395
MS.87          	17.157         	4.428
MS.88          	17.122         	4.349
MS.89          	17.087         	4.228
MS.90          	17.055         	4.335
MS.91          	17.02          	4.412
MS.92          	16.987         	4.258
MS.93          	16.952         	4.214
MS.94          	16.917         	4.203
MS.95          	16.885         	4.319
MS.96          	16.85          	4.274
MS.97          	16.817         	4.169
MS.98          	16.785         	4.214
MS.99          	16.75          	4.172
MS.100         	16.717         	4.197
MS.101         	16.682         	4.114
MS.102         	16.65          	4.086
MS.103         	16.618         	4.185
MS.104         	16.583         	4.121
MS.105         	16.55          	4.064
MS.106         	16.517         	4.122
MS.107         	16.485         	3.983
MS.108         	16.452         	3.984
MS.109         	16.417         	4.105
MS.110         	16.385         	3.972
MS.111         	16.352         	4.028
MS.112         	16.32          	4.15
MS.113         	16.288         	4.045
MS.114         	16.255         	4.003
MS.115         	16.222         	3.938
MS.116         	16.19          	4.081
MS.117         	16.157         	4.081
MS.118         	16.125         	4.116
MS.119         	16.092         	4.133
MS.120         	16.062         	3.898
MS.121         	16.03          	4.031
MS.122         	15.997         	3.965
MS.123         	15.965         	4.025
MS.124         	15.932         	3.978
MS.125         	15.902         	3.962
MS.126         	15.87          	3.97
MS.127         	15.837         	3.919
MS.128         	15.807         	3.93
MS.129         	15.775         	3.979
MS.130         	15.742         	3.938
MS.131         	15.712         	3.939
MS.132         	15.68          	3.898
MS.133         	15.65          	3.98
MS.134         	15.617         	3.873
MS.135         	15.587         	3.764
MS.136         	15.555         	3.771
MS.137         	15.525         	3.751
MS.138         	15.492         	3.693
MS.139         	15.462         	3.643
MS.140         	15.432         	3.665
MS.141         	15.4           	3.578
MS.142         	15.37          	3.768
MS.143         	15.34          	3.462
MS.144         	15.307         	3.599
MS.145         	15.277         	3.618
MS.146         	15.247         	3.442
MS.147         	15.217         	3.614
MS.148         	15.188         	3.364
MS.149         	15.157         	3.396
MS.150         	15.125         	3.262
MS.151         	15.095         	3.588
MS.152         	15.065         	3.356
MS.153         	15.035         	3.218
MS.154         	15.005         	3.342
MS.155         	14.975         	3.233
MS.156         	14.945         	3.359
MS.157         	14.915         	3.218
MS.158         	14.885         	3.185
MS.159         	14.855         	3.167
MS.160         	14.827         	2.889
MS.161         	14.797         	3.035
MS.162         	14.767         	3.018
MS.163         	14.737         	3.007
MS.164         	14.707         	2.949
MS.165         	14.68          	2.944
MS.166         	14.65          	2.949
MS.167         	14.62          	2.851
MS.168         	14.59          	2.715
MS.169         	14.562         	2.828
MS.170         	14.532         	2.741
MS.171         	14.505         	2.729
MS.172         	14.475         	2.554
MS.173         	14.445         	2.607
MS.174         	14.417         	2.582
MS.175         	14.387         	2.574
MS.176         	14.36          	2.567
MS.177         	14.33          	2.557
MS.178         	14.302         	2.584
MS.179         	14.273         	2.443
MS.180         	14.245         	2.452
MS.181         	14.217         	2.466
MS.182         	14.188         	2.501
MS.183         	14.16          	2.475
MS.184         	14.132         	2.337
MS.185         	14.102         	2.412
MS.186         	14.075         	2.339
MS.187         	14.047         	2.326
MS.188         	14.02          	2.302
MS.189         	13.99          	2.281
MS.190         	13.962         	2.274
MS.191         	13.935         	2.175
MS.192         	13.907         	2.2
MS.193         	13.88          	2.155
MS.194         	13.852         	2.194
MS.195         	13.825         	2.15
MS.196         	13.797         	2.146
MS.197         	13.77          	2.142
MS.198         	13.742         	2.09
MS.199         	13.715         	2.02
MS.200         	13.688         	2.048
MS.201         	13.66          	2.085
MS.202         	13.632         	1.92
MS.203         	13.605         	1.935
MS.204         	13.577         	1.927
MS.205         	13.55          	1.897
MS.206         	13.523         	1.994
MS.207         	13.497         	1.849
MS.208         	13.47          	1.777
MS.209         	13.443         	1.83
MS.210         	13.415         	1.788
MS.211         	13.387         	1.691
MS.212         	13.362         	1.697
MS.213         	13.335         	1.591
MS.214         	13.307         	1.677
MS.215         	13.282         	1.624
MS.216         	13.255         	1.6
MS.217         	13.23          	1.661
MS.218         	13.202         	1.55
MS.219         	13.175         	1.563
MS.220         	13.15          	1.475
MS.221         	13.122         	1.559
MS.222         	13.097         	1.424
MS.223         	13.07          	1.368
MS.224         	13.045         	1.46
MS.225         	13.02          	1.378
MS.226         	12.992         	1.351
MS.227         	12.967         	1.377
MS.228         	12.94          	1.357
MS.229         	12.915         	1.323
MS.230         	12.89          	1.211
MS.231         	12.865         	1.157
MS.232         	12.837         	1.148
MS.233         	12.812         	1.124
MS.234         	12.787         	1.113
MS.235         	12.762         	1.213
MS.236         	12.735         	1.142
MS.237         	12.71          	1.163
MS.238         	12.685         	1.135
MS.239         	12.66          	1.047
MS.240         	12.635         	1.055
MS.241         	12.61          	1.061
MS.242         	12.585         	1.031
MS.243         	12.557         	1.003
MS.244         	12.532         	0.935
MS.245         	12.507         	1.003
MS.246         	12.483         	0.956
MS.247         	12.457         	0.95
MS.248         	12.432         	0.965
MS.249         	12.41          	0.934
MS.250         	12.385         	1.022
MS.251         	12.36          	0.88
MS.252         	12.335         	0.798
MS.253         	12.31          	0.886
MS.254         	12.285         	0.812
MS.255         	12.26          	0.771
MS.256         	12.238         	0.814
MS.257         	12.212         	0.784
MS.258         	12.188         	0.816
MS.259         	12.162         	0.732
MS.260         	12.14          	0.842
MS.261         	12.115         	0.711
MS.262         	12.09          	0.768
MS.263         	12.068         	0.776
MS.264         	12.042         	0.684
MS.265         	12.017         	0.71
MS.266         	11.995         	0.692
MS.267         	11.97          	0.677
MS.268         	11.945         	0.623
MS.269         	11.922         	0.682
MS.270         	11.898         	0.642
MS.271         	11.875         	0.571
MS.272         	11.85          	0.596
MS.273         	11.827         	0.504
MS.274         	11.802         	0.621
MS.275         	11.78          	0.585
MS.276         	11.757         	0.499
MS.277         	11.733         	0.471
MS.278         	11.71          	0.523
MS.279         	11.688         	0.414
MS.280         	11.662         	0.519
MS.281         	11.64          	0.412
MS.282         	11.617         	0.464
MS.283         	11.592         	0.353
MS.284         	11.57          	0.391
MS.285         	11.547         	0.374
MS.286         	11.525         	0.332
MS.287         	11.5           	0.344
MS.288         	11.477         	0.402
MS.289         	11.455         	0.306
MS.290         	11.432         	0.226
MS.291         	11.41          	0.22
MS.292         	11.387         	0.308
MS.293         	11.363         	0.308
MS.294         	11.34          	0.222
MS.295         	11.318         	0.242
MS.296         	11.295         	0.219
MS.297         	11.273         	0.203
MS.298         	11.25          	0.25
MS.299         	11.227         	0.202
MS.300         	11.205         	0.167
MS.301         	11.182         	0.193
MS.302         	11.16          	0.217
MS.303         	11.137         	0.092
MS.304         	11.117         	0.15
MS.305         	11.095         	0.117
MS.306         	11.073         	0.182
MS.307         	11.05          	0.091
MS.308         	11.028         	0.082
MS.309         	11.005         	0.135
MS.310         	10.983         	0.107
MS.311         	10.962         	0.078
MS.312         	10.94          	0.064
MS.313         	10.917         	0.067
MS.314         	10.895         	0.083
MS.315         	10.875         	0.08
MS.316         	10.852         	0.056
MS.317         	10.83          	0.029
MS.318         	10.81          	0.031
MS.319         	10.787         	-0.005
MS.320         	10.765         	0.073
MS.321         	10.745         	0.032
MS.322         	10.722         	-0.013
MS.323         	10.702         	0.024
MS.324         	10.68          	0.037
MS.325         	10.66          	0.029
MS.326         	10.637         	0.015
MS.327         	10.617         	-0.024
MS.328         	10.595         	-0.031
MS.329         	10.575         	-0.037
MS.330         	10.552         	0.011
MS.331         	10.532         	-0.018
MS.332         	10.51          	-0.001
MS.333         	10.49          	0.004
MS.334         	10.47          	-0.042
MS.335         	10.448         	-0.062
MS.336         	10.427         	-0.053
MS.337         	10.407         	-0.081
MS.338         	10.385         	-0.062
MS.339         	10.365         	-0.079
MS.340         	10.345         	-0.053
MS.341         	10.323         	-0.043
MS.342         	10.302         	-0.079
MS.343         	10.282         	-0.075
MS.344         	10.262         	-0.094
MS.345         	10.24          	-0.078
MS.346         	10.22          	-0.082
MS.347         	10.2           	-0.078
MS.348         	10.18          	-0.11
MS.349         	10.16          	-0.054
MS.350         	10.14          	-0.104
MS.351         	10.12          	-0.071
MS.352         	10.1           	-0.082
MS.353         	10.077         	-0.109
MS.354         	10.057         	-0.084
MS.355         	10.037         	-0.093
MS.356         	10.017         	-0.113
MS.357         	9.997          	-0.12
MS.358         	9.977          	-0.098
MS.359         	9.957          	-0.113
MS.360         	9.938          	-0.072
MS.361         	9.917          	-0.125
MS.362         	9.9            	-0.07
MS.363         	9.88           	-0.057
MS.364         	9.86           	-0.112
MS.365         	9.84           	-0.106
MS.366         	9.82           	-0.112
MS.367         	9.8            	-0.11
MS.368         	9.78           	-0.1
MS.369         	9.76           	-0.11
MS.370         	9.742          	-0.099
MS.371         	9.722          	-0.074
MS.372         	9.702          	-0.109
MS.373         	9.682          	-0.106
MS.374         	9.665          	-0.134
MS.375         	9.645          	-0.11
MS.376         	9.625          	-0.109
MS.377         	9.608          	-0.056
MS.378         	9.587          	-0.108
MS.379         	9.568          	-0.1
MS.380         	9.55           	-0.101
MS.381         	9.53           	-0.108
MS.382         	9.51           	-0.108
MS.383         	9.492          	-0.145
MS.384         	9.472          	-0.101
MS.385         	9.455          	-0.134
MS.386         	9.435          	-0.134
MS.387         	9.415          	-0.135
MS.388         	9.398          	-0.136
MS.389         	9.377          	-0.14
MS.390         	9.36           	-0.142
MS.391         	9.34           	-0.133
MS.392         	9.323          	-0.139
MS.393         	9.302          	-0.14
MS.394         	9.285          	-0.132
MS.395         	9.267          	-0.139
MS.396         	9.247          	-0.132
MS.397         	9.23           	-0.137
MS.398         	9.21           	-0.102
MS.399         	9.193          	-0.137
MS.400         	9.175          	-0.137
MS.401         	9.155          	-0.136
MS.402         	9.137          	-0.136
MS.403         	9.12           	-0.135
MS.404         	9.102          	-0.136
MS.405         	9.082          	-0.132
MS.406         	9.065          	-0.132
MS.407         	9.047          	-0.136
MS.408         	9.03           	-0.137
MS.409         	9.01           	-0.131
MS.410         	8.992          	-0.132
MS.411         	8.975          	-0.133
MS.412         	8.957          	-0.134
MS.413         	8.94           	-0.135
MS.414         	8.92           	-0.13
MS.415         	8.903          	-0.128
MS.416         	8.885          	-0.131
MS.417         	8.867          	-0.131
MS.418         	8.85           	-0.127
MS.419         	8.832          	-0.132
MS.420         	8.815          	-0.127
MS.421         	8.797          	-0.128
MS.422         	8.78           	-0.125
MS.423         	8.762          	-0.127
MS.424         	8.745          	-0.123
MS.425         	8.727          	-0.125
MS.426         	8.71           	-0.125
MS.427         	8.693          	-0.126
MS.428         	8.675          	-0.123
MS.429         	8.658          	-0.125
MS.430         	8.64           	-0.123
MS.431         	8.622          	-0.122
MS.432         	8.605          	-0.123
MS.433         	8.587          	-0.125
MS.434         	8.573          	-0.118
MS.435         	8.555          	-0.124
MS.436         	8.537          	-0.121
MS.437         	8.52           	-0.121
MS.438         	8.502          	-0.12
MS.439         	8.485          	-0.119
DERIVED EXCITABILITY VARIABLES
Program = QTracP 27/06/2023
Threshold method = 6 (optimised for CAP, using data for present condition only)
SR method = 1 (using actual data values)
6.                 	0.000               	Peak response\(mV)
9.                 	33.3                	Temperature ( C)
17.                	21                  	Age (years)
18.                	2                   	Sex (M=1, F=2)

EXTRA VARIABLES

MScPeak(mV) = 5.35
MScS5(mA) = 11.4
MScS50(mA) = 14.5
MScS95(mA) = 18.9
MScNSteps = 4
MScSteps(%) = 8.7
MScStepMax(%) = 2.5
MScD50 = 52
MScSlope = 4.42
MScDuration(min) = 5.9
MSFTraces = 432
MSFPeakAmp(mV) = 5.34
MSFNUnits = 162
MSFMeanUnitAmp(uV) = 33
MSFHuntTime(m) = 1.5
MSFError(%) = 1.57
MSFNLarge = 54
MSFMedianAmp(%) = 0.548
MSFMedianAmp(mV) = 0.0293
MSFHalfAmpAmp(%) = 0.613
MSFHalfAmpAmp(mV) = 0.0327
MSFLargestAmp(%) = 1.92
MSFLargestAmp(mV) = 0.102
MSFMeanRS(%) = 2
MSFSizeLimit(uV) = 17.8
MSFLimitType = 1
MSFSmallestAmp(uV) = 18.1
MSFOpts = 10104222032
MSFSDMax = 26
MSFSDMin = 5.21

EXTRA WAVEFORMS


!MScan Model
!162
	1	9.76	0.45	2
	2	10.2	0.44	2
	3	10.4	0.53	2
	4	10.57	0.76	2
	5	10.76	0.81	2
	6	10.84	0.39	2
	7	10.92	0.41	2
	8	11	0.73	2
	9	11.15	0.84	2
	10	11.2	0.48	2
	11	11.29	0.77	2
	12	11.34	0.51	2
	13	11.39	0.54	2
	14	11.44	0.51	2
	15	11.49	0.6	2
	16	11.54	0.52	2
	17	11.57	0.48	2
	18	11.6	0.51	2
	19	11.63	0.44	2
	20	11.67	0.44	2
	21	11.7	0.55	2
	22	11.76	0.58	2
	23	11.79	0.39	2
	24	11.81	0.36	2
	25	11.87	0.67	2
	26	11.9	0.35	2
	27	11.93	0.35	2
	28	11.98	0.66	2
	29	12.03	0.59	2
	30	12.09	0.58	2
	31	12.16	0.61	2
	32	12.24	1.03	2
	33	12.28	0.43	2
	34	12.33	0.46	2
	35	12.38	0.59	2
	36	12.43	0.69	2
	37	12.48	0.58	2
	38	12.53	0.69	2
	39	12.6	0.75	2
	40	12.64	0.52	2
	41	12.69	0.58	2
	42	12.74	0.52	2
	43	12.77	0.4	2
	44	12.8	0.57	2
	45	12.83	0.75	2
	46	12.9	1.08	2
	47	12.94	0.55	2
	48	12.97	0.5	2
	49	12.99	0.41	2
	50	13.01	0.4	2
	51	13.03	0.42	2
	52	13.05	0.44	2
	53	13.07	0.44	2
	54	13.08	0.35	2
	55	13.12	0.65	2
	56	13.14	0.34	2
	57	13.16	0.34	2
	58	13.2	0.59	2
	59	13.24	0.56	2
	60	13.26	0.36	2
	61	13.28	0.34	2
	62	13.3	0.37	2
	63	13.31	0.37	2
	64	13.33	0.34	2
	65	13.35	0.36	2
	66	13.37	0.36	2
	67	13.39	0.36	2
	68	13.41	0.37	2
	69	13.43	0.37	2
	70	13.45	0.36	2
	71	13.48	0.7	2
	72	13.52	0.55	2
	73	13.54	0.39	2
