File:              	.QZD
Name:              	 ME25D
Protocol:          	MSCAN-MV
Date:              	23/6/23
Date of birth:     	25/8/01
Age:               	21
Sex:               	M
Temperature:       	32.1
S/R sites:         	Knee CF-TA
NC/disease:        	NC
Operator:          	BY
Comments:
M-SCAN DATA (10.9-4m)
Scanpts: 24, 45, 526, 561
Stim. (mA)     	Amp. (mV)
MS.1           	12             	1.577
MS.2           	12             	1.582
MS.3           	12             	1.57
MS.4           	12             	1.577
MS.5           	12             	1.591
MS.6           	12             	1.583
MS.7           	12             	1.587
MS.8           	12             	1.584
MS.9           	12             	1.588
MS.10          	12             	1.581
MS.11          	12             	1.593
MS.12          	12             	1.577
MS.13          	12             	1.586
MS.14          	12             	1.584
MS.15          	12             	1.575
MS.16          	12             	1.567
MS.17          	12             	1.587
MS.18          	12             	1.575
MS.19          	12             	1.57
MS.20          	12             	1.584
MS.21          	12             	1.59
MS.22          	12             	1.581
MS.23          	12             	1.573
MS.24          	11.952         	1.571
MS.25          	11.927         	1.57
MS.26          	11.905         	1.578
MS.27          	11.88          	1.576
MS.28          	11.858         	1.575
MS.29          	11.832         	1.573
MS.30          	11.81          	1.578
MS.31          	11.785         	1.58
MS.32          	11.762         	1.582
MS.33          	11.74          	1.572
MS.34          	11.715         	1.574
MS.35          	11.693         	1.569
MS.36          	11.667         	1.58
MS.37          	11.645         	1.575
MS.38          	11.622         	1.575
MS.39          	11.6           	1.579
MS.40          	11.575         	1.573
MS.41          	11.552         	1.575
MS.42          	11.53          	1.577
MS.43          	11.507         	1.584
MS.44          	11.483         	1.578
MS.45          	11.46          	1.579
MS.46          	11.438         	1.574
MS.47          	11.415         	1.578
MS.48          	11.392         	1.578
MS.49          	11.37          	1.569
MS.50          	11.347         	1.584
MS.51          	11.325         	1.587
MS.52          	11.3           	1.569
MS.53          	11.278         	1.575
MS.54          	11.255         	1.57
MS.55          	11.233         	1.585
MS.56          	11.21          	1.583
MS.57          	11.188         	1.566
MS.58          	11.167         	1.573
MS.59          	11.145         	1.572
MS.60          	11.122         	1.564
MS.61          	11.1           	1.566
MS.62          	11.077         	1.574
MS.63          	11.055         	1.579
MS.64          	11.032         	1.559
MS.65          	11.01          	1.569
MS.66          	10.99          	1.573
MS.67          	10.967         	1.565
MS.68          	10.945         	1.567
MS.69          	10.922         	1.566
MS.70          	10.903         	1.562
MS.71          	10.88          	1.572
MS.72          	10.858         	1.564
MS.73          	10.837         	1.573
MS.74          	10.815         	1.568
MS.75          	10.792         	1.549
MS.76          	10.773         	1.562
MS.77          	10.75          	1.564
MS.78          	10.727         	1.585
MS.79          	10.707         	1.533
MS.80          	10.685         	1.563
MS.81          	10.665         	1.526
MS.82          	10.642         	1.542
MS.83          	10.622         	1.549
MS.84          	10.6           	1.533
MS.85          	10.58          	1.554
MS.86          	10.557         	1.537
MS.87          	10.537         	1.538
MS.88          	10.515         	1.544
MS.89          	10.495         	1.541
MS.90          	10.475         	1.523
MS.91          	10.452         	1.562
MS.92          	10.432         	1.525
MS.93          	10.412         	1.536
MS.94          	10.39          	1.535
MS.95          	10.37          	1.522
MS.96          	10.35          	1.544
MS.97          	10.327         	1.527
MS.98          	10.307         	1.523
MS.99          	10.287         	1.537
MS.100         	10.267         	1.537
MS.101         	10.245         	1.517
MS.102         	10.225         	1.525
MS.103         	10.205         	1.531
MS.104         	10.185         	1.532
MS.105         	10.165         	1.531
MS.106         	10.145         	1.518
MS.107         	10.125         	1.519
MS.108         	10.102         	1.531
MS.109         	10.082         	1.526
MS.110         	10.062         	1.521
MS.111         	10.042         	1.531
MS.112         	10.023         	1.51
MS.113         	10.002         	1.492
MS.114         	9.983          	1.516
MS.115         	9.962          	1.496
MS.116         	9.943          	1.509
MS.117         	9.922          	1.5
MS.118         	9.903          	1.509
MS.119         	9.885          	1.541
MS.120         	9.865          	1.525
MS.121         	9.845          	1.517
MS.122         	9.825          	1.494
MS.123         	9.805          	1.483
MS.124         	9.785          	1.484
MS.125         	9.765          	1.499
MS.126         	9.747          	1.503
MS.127         	9.727          	1.502
MS.128         	9.707          	1.494
MS.129         	9.688          	1.502
MS.130         	9.67           	1.487
MS.131         	9.65           	1.496
MS.132         	9.63           	1.481
MS.133         	9.61           	1.474
MS.134         	9.592          	1.491
MS.135         	9.573          	1.479
MS.136         	9.552          	1.486
MS.137         	9.535          	1.478
MS.138         	9.515          	1.473
MS.139         	9.497          	1.484
MS.140         	9.477          	1.476
MS.141         	9.457          	1.472
MS.142         	9.44           	1.478
MS.143         	9.42           	1.474
MS.144         	9.403          	1.469
MS.145         	9.382          	1.477
MS.146         	9.365          	1.475
MS.147         	9.345          	1.476
MS.148         	9.327          	1.451
MS.149         	9.307          	1.453
MS.150         	9.29           	1.463
MS.151         	9.27           	1.47
MS.152         	9.252          	1.475
MS.153         	9.235          	1.472
MS.154         	9.215          	1.47
MS.155         	9.198          	1.472
MS.156         	9.18           	1.454
MS.157         	9.16           	1.453
MS.158         	9.142          	1.458
MS.159         	9.125          	1.461
MS.160         	9.105          	1.459
MS.161         	9.087          	1.447
MS.162         	9.07           	1.477
MS.163         	9.052          	1.464
MS.164         	9.033          	1.477
MS.165         	9.015          	1.452
MS.166         	8.997          	1.456
MS.167         	8.98           	1.448
MS.168         	8.96           	1.458
MS.169         	8.943          	1.458
MS.170         	8.925          	1.454
MS.171         	8.908          	1.456
MS.172         	8.89           	1.451
MS.173         	8.872          	1.455
MS.174         	8.855          	1.453
MS.175         	8.837          	1.45
MS.176         	8.82           	1.45
MS.177         	8.802          	1.452
MS.178         	8.783          	1.446
MS.179         	8.765          	1.447
MS.180         	8.747          	1.45
MS.181         	8.73           	1.454
MS.182         	8.715          	1.459
MS.183         	8.698          	1.461
MS.184         	8.68           	1.461
MS.185         	8.662          	1.443
MS.186         	8.645          	1.459
MS.187         	8.627          	1.461
MS.188         	8.61           	1.458
MS.189         	8.592          	1.42
MS.190         	8.575          	1.442
MS.191         	8.557          	1.42
MS.192         	8.54           	1.443
MS.193         	8.525          	1.425
MS.194         	8.507          	1.421
MS.195         	8.49           	1.438
MS.196         	8.472          	1.45
MS.197         	8.455          	1.427
MS.198         	8.44           	1.445
MS.199         	8.422          	1.442
MS.200         	8.405          	1.423
MS.201         	8.39           	1.423
MS.202         	8.372          	1.434
MS.203         	8.355          	1.423
MS.204         	8.337          	1.437
MS.205         	8.323          	1.437
MS.206         	8.305          	1.447
MS.207         	8.29           	1.442
MS.208         	8.273          	1.437
MS.209         	8.255          	1.437
MS.210         	8.24           	1.416
MS.211         	8.222          	1.415
MS.212         	8.207          	1.403
MS.213         	8.19           	1.398
MS.214         	8.172          	1.417
MS.215         	8.158          	1.41
MS.216         	8.14           	1.406
MS.217         	8.125          	1.402
MS.218         	8.108          	1.44
MS.219         	8.092          	1.414
MS.220         	8.075          	1.401
MS.221         	8.06           	1.418
MS.222         	8.045          	1.409
MS.223         	8.028          	1.394
MS.224         	8.012          	1.396
MS.225         	7.995          	1.381
MS.226         	7.98           	1.4
MS.227         	7.965          	1.376
MS.228         	7.947          	1.41
MS.229         	7.932          	1.395
MS.230         	7.915          	1.404
MS.231         	7.9            	1.4
MS.232         	7.885          	1.382
MS.233         	7.87           	1.359
MS.234         	7.852          	1.392
MS.235         	7.837          	1.367
MS.236         	7.822          	1.381
MS.237         	7.805          	1.364
MS.238         	7.79           	1.332
MS.239         	7.775          	1.321
MS.240         	7.76           	1.332
MS.241         	7.745          	1.352
MS.242         	7.727          	1.321
MS.243         	7.712          	1.36
MS.244         	7.697          	1.325
MS.245         	7.682          	1.359
MS.246         	7.668          	1.355
MS.247         	7.652          	1.319
MS.248         	7.635          	1.323
MS.249         	7.62           	1.326
MS.250         	7.605          	1.318
MS.251         	7.59           	1.312
MS.252         	7.575          	1.326
MS.253         	7.56           	1.319
MS.254         	7.545          	1.302
MS.255         	7.53           	1.3
MS.256         	7.515          	1.312
MS.257         	7.5            	1.284
MS.258         	7.485          	1.284
MS.259         	7.47           	1.279
MS.260         	7.455          	1.309
MS.261         	7.44           	1.306
MS.262         	7.425          	1.28
MS.263         	7.41           	1.269
MS.264         	7.395          	1.267
MS.265         	7.38           	1.296
MS.266         	7.365          	1.249
MS.267         	7.352          	1.263
MS.268         	7.337          	1.255
MS.269         	7.322          	1.246
MS.270         	7.307          	1.245
MS.271         	7.293          	1.209
MS.272         	7.277          	1.227
MS.273         	7.265          	1.176
MS.274         	7.25           	1.124
MS.275         	7.235          	1.183
MS.276         	7.22           	1.16
MS.277         	7.205          	1.106
MS.278         	7.192          	1.105
MS.279         	7.177          	1.097
MS.280         	7.162          	1.13
MS.281         	7.148          	1.113
MS.282         	7.135          	1.105
MS.283         	7.12           	1.14
MS.284         	7.105          	1.138
MS.285         	7.092          	1.088
MS.286         	7.077          	1.132
MS.287         	7.062          	1.061
MS.288         	7.05           	1.006
MS.289         	7.035          	1.077
MS.290         	7.02           	1.075
MS.291         	7.007          	1.058
MS.292         	6.992          	1.072
MS.293         	6.98           	1.083
MS.294         	6.965          	0.991
MS.295         	6.95           	0.982
MS.296         	6.938          	0.995
MS.297         	6.922          	0.989
MS.298         	6.91           	1.026
MS.299         	6.895          	0.953
MS.300         	6.882          	0.961
MS.301         	6.867          	0.961
MS.302         	6.855          	0.934
MS.303         	6.84           	0.955
MS.304         	6.827          	0.977
MS.305         	6.812          	0.904
MS.306         	6.8            	0.933
MS.307         	6.787          	0.909
MS.308         	6.773          	0.914
MS.309         	6.76           	0.914
MS.310         	6.745          	0.883
MS.311         	6.733          	0.898
MS.312         	6.72           	0.925
MS.313         	6.705          	0.88
MS.314         	6.692          	0.894
MS.315         	6.677          	0.886
MS.316         	6.665          	0.842
MS.317         	6.652          	0.847
MS.318         	6.637          	0.798
MS.319         	6.625          	0.804
MS.320         	6.612          	0.787
MS.321         	6.6            	0.719
MS.322         	6.585          	0.793
MS.323         	6.572          	0.726
MS.324         	6.56           	0.751
MS.325         	6.547          	0.742
MS.326         	6.532          	0.76
MS.327         	6.52           	0.721
MS.328         	6.507          	0.659
MS.329         	6.495          	0.692
MS.330         	6.48           	0.702
MS.331         	6.467          	0.721
MS.332         	6.455          	0.694
MS.333         	6.442          	0.658
MS.334         	6.43           	0.649
MS.335         	6.418          	0.668
MS.336         	6.405          	0.594
MS.337         	6.39           	0.622
MS.338         	6.378          	0.635
MS.339         	6.365          	0.59
MS.340         	6.352          	0.63
MS.341         	6.34           	0.57
MS.342         	6.327          	0.604
MS.343         	6.315          	0.576
MS.344         	6.302          	0.579
MS.345         	6.29           	0.599
MS.346         	6.277          	0.558
MS.347         	6.265          	0.576
MS.348         	6.253          	0.575
MS.349         	6.24           	0.54
MS.350         	6.227          	0.577
MS.351         	6.215          	0.524
MS.352         	6.202          	0.496
MS.353         	6.19           	0.518
MS.354         	6.177          	0.497
MS.355         	6.165          	0.526
MS.356         	6.152          	0.547
MS.357         	6.14           	0.431
MS.358         	6.128          	0.598
MS.359         	6.115          	0.449
MS.360         	6.102          	0.457
MS.361         	6.092          	0.444
MS.362         	6.08           	0.452
MS.363         	6.067          	0.485
MS.364         	6.055          	0.384
MS.365         	6.043          	0.41
MS.366         	6.03           	0.434
MS.367         	6.02           	0.478
MS.368         	6.007          	0.461
MS.369         	5.995          	0.472
MS.370         	5.983          	0.486
MS.371         	5.97           	0.526
MS.372         	5.96           	0.45
MS.373         	5.947          	0.341
MS.374         	5.935          	0.422
MS.375         	5.922          	0.464
MS.376         	5.912          	0.378
MS.377         	5.9            	0.487
MS.378         	5.887          	0.46
MS.379         	5.875          	0.408
MS.380         	5.865          	0.391
MS.381         	5.852          	0.412
MS.382         	5.84           	0.429
MS.383         	5.83           	0.464
MS.384         	5.817          	0.447
MS.385         	5.805          	0.471
MS.386         	5.795          	0.416
MS.387         	5.782          	0.467
MS.388         	5.773          	0.389
MS.389         	5.76           	0.416
MS.390         	5.747          	0.469
MS.391         	5.737          	0.441
MS.392         	5.725          	0.423
MS.393         	5.715          	0.414
MS.394         	5.702          	0.529
MS.395         	5.69           	0.381
MS.396         	5.68           	0.372
MS.397         	5.668          	0.356
MS.398         	5.657          	0.421
MS.399         	5.645          	0.382
MS.400         	5.635          	0.374
MS.401         	5.622          	0.348
MS.402         	5.612          	0.344
MS.403         	5.6            	0.37
MS.404         	5.59           	0.336
MS.405         	5.577          	0.24
MS.406         	5.567          	0.352
MS.407         	5.555          	0.234
MS.408         	5.545          	0.247
MS.409         	5.535          	0.278
MS.410         	5.523          	0.3
MS.411         	5.512          	0.308
MS.412         	5.5            	0.281
MS.413         	5.49           	0.334
MS.414         	5.48           	0.314
MS.415         	5.467          	0.315
MS.416         	5.457          	0.286
MS.417         	5.445          	0.292
MS.418         	5.435          	0.252
MS.419         	5.425          	0.289
MS.420         	5.412          	0.244
MS.421         	5.402          	0.261
MS.422         	5.392          	0.332
MS.423         	5.38           	0.276
MS.424         	5.37           	0.248
MS.425         	5.36           	0.245
MS.426         	5.35           	0.241
MS.427         	5.338          	0.167
MS.428         	5.327          	0.195
MS.429         	5.318          	0.19
MS.430         	5.307          	0.315
MS.431         	5.295          	0.261
MS.432         	5.285          	0.236
MS.433         	5.275          	0.175
MS.434         	5.265          	0.266
MS.435         	5.253          	0.154
MS.436         	5.242          	0.18
MS.437         	5.233          	0.193
MS.438         	5.222          	0.168
MS.439         	5.213          	0.2
MS.440         	5.202          	0.165
MS.441         	5.19           	0.172
MS.442         	5.18           	0.193
MS.443         	5.17           	0.193
MS.444         	5.16           	0.139
MS.445         	5.15           	0.171
MS.446         	5.14           	0.166
MS.447         	5.13           	0.132
MS.448         	5.117          	0.159
MS.449         	5.108          	0.192
MS.450         	5.097          	0.144
MS.451         	5.088          	0.153
MS.452         	5.077          	0.151
MS.453         	5.068          	0.108
MS.454         	5.057          	0.155
MS.455         	5.047          	0.159
MS.456         	5.037          	0.156
MS.457         	5.027          	0.1
MS.458         	5.017          	0.082
MS.459         	5.007          	0.109
MS.460         	4.997          	0.042
MS.461         	4.987          	0.145
MS.462         	4.977          	0.115
MS.463         	4.967          	0.06
MS.464         	4.957          	0.066
MS.465         	4.947          	0.074
MS.466         	4.938          	0.114
MS.467         	4.927          	0.062
MS.468         	4.918          	0.115
MS.469         	4.907          	0.081
MS.470         	4.898          	0.041
MS.471         	4.887          	0.042
MS.472         	4.88           	0.072
MS.473         	4.87           	0.059
MS.474         	4.86           	0.045
MS.475         	4.85           	0.044
MS.476         	4.84           	0.036
MS.477         	4.83           	0.015
MS.478         	4.82           	0.034
MS.479         	4.81           	0.082
MS.480         	4.802          	0.033
MS.481         	4.793          	0.026
MS.482         	4.782          	-0.009
MS.483         	4.773          	0.005
MS.484         	4.762          	0.054
MS.485         	4.753          	0.012
MS.486         	4.745          	0.023
MS.487         	4.735          	0.001
MS.488         	4.725          	0.016
MS.489         	4.715          	0.006
MS.490         	4.707          	0.014
MS.491         	4.697          	0.014
MS.492         	4.688          	0.015
MS.493         	4.677          	0.009
MS.494         	4.67           	0.013
MS.495         	4.66           	-0.012
MS.496         	4.65           	0.009
MS.497         	4.64           	0.016
MS.498         	4.632          	0.009
MS.499         	4.622          	-0.002
MS.500         	4.612          	-0.013
MS.501         	4.605          	-0.013
MS.502         	4.595          	-0.007
MS.503         	4.585          	0.001
MS.504         	4.577          	0.005
