File:              	C:\Qtrac\Data\ME2C30717A.QZD
Name:              	 ST14N
Protocol:          	MSCAN-MV
Date:              	17/7/23
Date of birth:     	14/4/00
Age:               	23
Sex:               	M
Temperature:       	33.5
S/R sites:         	Knee CF-TA
NC/disease:        	NC
Operator:          	BY
Comments:
M-SCAN DATA (Repeat 1/3, 9.1-2.7m)
Scanpts: 30, 40, 497, 529
Stim. (mA)     	Amp. (mV)
MS.1           	16             	3.641
MS.2           	16             	3.641
MS.3           	16             	3.636
MS.4           	16             	3.598
MS.5           	16             	3.615
MS.6           	16             	3.588
MS.7           	16             	3.61
MS.8           	16             	3.602
MS.9           	16             	3.624
MS.10          	16             	3.589
MS.11          	16             	3.609
MS.12          	16             	3.599
MS.13          	16             	3.622
MS.14          	16             	3.608
MS.15          	16             	3.651
MS.16          	16             	3.585
MS.17          	16             	3.582
MS.18          	16             	3.552
MS.19          	16             	3.596
MS.20          	16             	3.61
MS.21          	16             	3.605
MS.22          	16             	3.573
MS.23          	16             	3.599
MS.24          	15.935         	3.594
MS.25          	15.905         	3.55
MS.26          	15.872         	3.597
MS.27          	15.84          	3.594
MS.28          	15.81          	3.587
MS.29          	15.777         	3.593
MS.30          	15.745         	3.578
MS.31          	15.715         	3.582
MS.32          	15.682         	3.585
MS.33          	15.652         	3.592
MS.34          	15.62          	3.588
MS.35          	15.59          	3.575
MS.36          	15.557         	3.585
MS.37          	15.527         	3.555
MS.38          	15.495         	3.584
MS.39          	15.465         	3.571
MS.40          	15.435         	3.57
MS.41          	15.402         	3.561
MS.42          	15.372         	3.596
MS.43          	15.342         	3.58
MS.44          	15.31          	3.535
MS.45          	15.28          	3.577
MS.46          	15.25          	3.568
MS.47          	15.22          	3.575
MS.48          	15.19          	3.579
MS.49          	15.16          	3.589
MS.50          	15.127         	3.559
MS.51          	15.097         	3.571
MS.52          	15.068         	3.588
MS.53          	15.037         	3.577
MS.54          	15.007         	3.557
MS.55          	14.977         	3.625
MS.56          	14.947         	3.545
MS.57          	14.917         	3.593
MS.58          	14.887         	3.619
MS.59          	14.858         	3.63
MS.60          	14.83          	3.57
MS.61          	14.8           	3.591
MS.62          	14.77          	3.622
MS.63          	14.74          	3.592
MS.64          	14.71          	3.557
MS.65          	14.682         	3.601
MS.66          	14.652         	3.569
MS.67          	14.622         	3.585
MS.68          	14.592         	3.571
MS.69          	14.565         	3.563
MS.70          	14.535         	3.566
MS.71          	14.507         	3.564
MS.72          	14.477         	3.584
MS.73          	14.447         	3.578
MS.74          	14.42          	3.564
MS.75          	14.39          	3.557
MS.76          	14.362         	3.572
MS.77          	14.332         	3.588
MS.78          	14.305         	3.58
MS.79          	14.275         	3.602
MS.80          	14.247         	3.497
MS.81          	14.22          	3.541
MS.82          	14.19          	3.578
MS.83          	14.162         	3.578
MS.84          	14.135         	3.566
MS.85          	14.105         	3.542
MS.86          	14.077         	3.492
MS.87          	14.05          	3.495
MS.88          	14.023         	3.517
MS.89          	13.992         	3.476
MS.90          	13.965         	3.491
MS.91          	13.938         	3.542
MS.92          	13.91          	3.518
MS.93          	13.882         	3.473
MS.94          	13.855         	3.499
MS.95          	13.827         	3.558
MS.96          	13.8           	3.506
MS.97          	13.773         	3.527
MS.98          	13.745         	3.475
MS.99          	13.717         	3.511
MS.100         	13.69          	3.486
MS.101         	13.662         	3.492
MS.102         	13.635         	3.562
MS.103         	13.608         	3.494
MS.104         	13.58          	3.535
MS.105         	13.552         	3.443
MS.106         	13.525         	3.486
MS.107         	13.497         	3.438
MS.108         	13.472         	3.581
MS.109         	13.445         	3.506
MS.110         	13.417         	3.502
MS.111         	13.39          	3.536
MS.112         	13.365         	3.512
MS.113         	13.337         	3.484
MS.114         	13.31          	3.568
MS.115         	13.285         	3.519
MS.116         	13.257         	3.5
MS.117         	13.233         	3.49
MS.118         	13.205         	3.492
MS.119         	13.177         	3.476
MS.120         	13.153         	3.443
MS.121         	13.125         	3.513
MS.122         	13.1           	3.549
MS.123         	13.072         	3.477
MS.124         	13.047         	3.411
MS.125         	13.023         	3.424
MS.126         	12.995         	3.479
MS.127         	12.97          	3.485
MS.128         	12.943         	3.443
MS.129         	12.917         	3.434
MS.130         	12.892         	3.453
MS.131         	12.865         	3.47
MS.132         	12.84          	3.49
MS.133         	12.815         	3.438
MS.134         	12.79          	3.497
MS.135         	12.762         	3.483
MS.136         	12.738         	3.448
MS.137         	12.712         	3.373
MS.138         	12.688         	3.445
MS.139         	12.662         	3.414
MS.140         	12.637         	3.399
MS.141         	12.61          	3.409
MS.142         	12.585         	3.327
MS.143         	12.56          	3.37
MS.144         	12.535         	3.392
MS.145         	12.51          	3.347
MS.146         	12.485         	3.313
MS.147         	12.46          	3.335
MS.148         	12.435         	3.296
MS.149         	12.41          	3.307
MS.150         	12.385         	3.284
MS.151         	12.363         	3.292
MS.152         	12.337         	3.217
MS.153         	12.312         	3.264
MS.154         	12.287         	3.269
MS.155         	12.262         	3.25
MS.156         	12.238         	3.245
MS.157         	12.215         	3.217
MS.158         	12.19          	3.244
MS.159         	12.165         	3.167
MS.160         	12.14          	3.125
MS.161         	12.117         	3.188
MS.162         	12.092         	3.135
MS.163         	12.068         	3.195
MS.164         	12.045         	3.183
MS.165         	12.02          	3.134
MS.166         	11.995         	3.125
MS.167         	11.972         	3.061
MS.168         	11.947         	3.134
MS.169         	11.925         	3.112
MS.170         	11.9           	3.022
MS.171         	11.877         	3.101
MS.172         	11.852         	3.082
MS.173         	11.83          	2.982
MS.174         	11.805         	3.017
MS.175         	11.782         	2.972
MS.176         	11.757         	3.001
MS.177         	11.735         	3.083
MS.178         	11.712         	2.98
MS.179         	11.688         	2.984
MS.180         	11.665         	2.992
MS.181         	11.642         	2.939
MS.182         	11.617         	2.962
MS.183         	11.595         	2.868
MS.184         	11.572         	2.962
MS.185         	11.55          	2.912
MS.186         	11.525         	2.908
MS.187         	11.502         	2.933
MS.188         	11.48          	2.897
MS.189         	11.457         	2.837
MS.190         	11.435         	2.84
MS.191         	11.41          	2.863
MS.192         	11.387         	2.871
MS.193         	11.365         	2.875
MS.194         	11.342         	2.83
MS.195         	11.32          	2.849
MS.196         	11.297         	2.838
MS.197         	11.275         	2.848
MS.198         	11.252         	2.849
MS.199         	11.23          	2.841
MS.200         	11.207         	2.744
MS.201         	11.185         	2.747
MS.202         	11.162         	2.677
MS.203         	11.14          	2.772
MS.204         	11.117         	2.69
MS.205         	11.095         	2.733
MS.206         	11.075         	2.698
MS.207         	11.052         	2.695
MS.208         	11.03          	2.668
MS.209         	11.007         	2.72
MS.210         	10.985         	2.686
MS.211         	10.962         	2.675
MS.212         	10.943         	2.576
MS.213         	10.92          	2.613
MS.214         	10.898         	2.654
MS.215         	10.877         	2.556
MS.216         	10.855         	2.566
MS.217         	10.832         	2.519
MS.218         	10.81          	2.593
MS.219         	10.79          	2.616
MS.220         	10.767         	2.559
MS.221         	10.747         	2.578
MS.222         	10.725         	2.53
MS.223         	10.702         	2.516
MS.224         	10.682         	2.504
MS.225         	10.66          	2.474
MS.226         	10.64          	2.413
MS.227         	10.617         	2.343
MS.228         	10.597         	2.391
MS.229         	10.575         	2.449
MS.230         	10.555         	2.289
MS.231         	10.535         	2.25
MS.232         	10.512         	2.26
MS.233         	10.492         	2.266
MS.234         	10.47          	2.198
MS.235         	10.45          	2.278
MS.236         	10.43          	2.3
MS.237         	10.407         	2.25
MS.238         	10.387         	2.217
MS.239         	10.367         	2.097
MS.240         	10.345         	2.214
MS.241         	10.325         	2.134
MS.242         	10.305         	2.117
MS.243         	10.285         	2.076
MS.244         	10.262         	2.136
MS.245         	10.242         	2.068
MS.246         	10.222         	2.001
MS.247         	10.202         	1.992
MS.248         	10.182         	1.924
MS.249         	10.162         	2.067
MS.250         	10.14          	1.893
MS.251         	10.12          	1.832
MS.252         	10.1           	1.907
MS.253         	10.08          	1.838
MS.254         	10.06          	1.837
MS.255         	10.04          	1.791
MS.256         	10.02          	1.838
MS.257         	10             	1.708
MS.258         	9.98           	1.658
MS.259         	9.96           	1.739
MS.260         	9.94           	1.686
MS.261         	9.92           	1.663
MS.262         	9.9            	1.637
MS.263         	9.88           	1.614
MS.264         	9.86           	1.566
MS.265         	9.842          	1.6
MS.266         	9.823          	1.559
MS.267         	9.802          	1.595
MS.268         	9.782          	1.497
MS.269         	9.762          	1.531
MS.270         	9.742          	1.505
MS.271         	9.725          	1.537
MS.272         	9.705          	1.503
MS.273         	9.685          	1.492
MS.274         	9.665          	1.49
MS.275         	9.648          	1.505
MS.276         	9.627          	1.438
MS.277         	9.608          	1.451
MS.278         	9.587          	1.463
MS.279         	9.57           	1.398
MS.280         	9.55           	1.421
MS.281         	9.532          	1.383
MS.282         	9.512          	1.335
MS.283         	9.492          	1.311
MS.284         	9.475          	1.315
MS.285         	9.455          	1.274
MS.286         	9.438          	1.364
MS.287         	9.417          	1.283
MS.288         	9.4            	1.314
MS.289         	9.38           	1.248
MS.290         	9.363          	1.228
MS.291         	9.342          	1.168
MS.292         	9.325          	1.16
MS.293         	9.305          	1.156
MS.294         	9.287          	1.16
MS.295         	9.267          	1.235
MS.296         	9.25           	1.08
MS.297         	9.23           	1.151
MS.298         	9.212          	1.141
MS.299         	9.195          	1.089
MS.300         	9.175          	1.047
MS.301         	9.158          	1.016
MS.302         	9.14           	1.043
MS.303         	9.12           	0.964
MS.304         	9.102          	1.043
MS.305         	9.085          	0.906
MS.306         	9.068          	0.889
MS.307         	9.047          	0.864
MS.308         	9.03           	0.853
MS.309         	9.012          	0.854
MS.310         	8.995          	0.863
MS.311         	8.977          	0.863
MS.312         	8.957          	0.82
MS.313         	8.94           	0.75
MS.314         	8.922          	0.849
MS.315         	8.905          	0.772
MS.316         	8.887          	0.704
MS.317         	8.87           	0.689
MS.318         	8.852          	0.697
MS.319         	8.835          	0.701
MS.320         	8.815          	0.665
MS.321         	8.797          	0.662
MS.322         	8.78           	0.668
MS.323         	8.762          	0.62
MS.324         	8.745          	0.598
MS.325         	8.727          	0.634
MS.326         	8.71           	0.563
MS.327         	8.693          	0.596
MS.328         	8.675          	0.608
MS.329         	8.66           	0.598
MS.330         	8.642          	0.537
MS.331         	8.625          	0.551
MS.332         	8.608          	0.547
MS.333         	8.59           	0.52
MS.334         	8.573          	0.495
MS.335         	8.555          	0.526
MS.336         	8.537          	0.53
MS.337         	8.523          	0.48
MS.338         	8.505          	0.518
MS.339         	8.488          	0.529
MS.340         	8.47           	0.466
MS.341         	8.452          	0.483
MS.342         	8.438          	0.459
MS.343         	8.42           	0.413
MS.344         	8.403          	0.432
MS.345         	8.385          	0.401
MS.346         	8.37           	0.435
MS.347         	8.352          	0.359
MS.348         	8.335          	0.403
MS.349         	8.32           	0.351
MS.350         	8.302          	0.319
MS.351         	8.285          	0.333
MS.352         	8.27           	0.352
MS.353         	8.252          	0.356
MS.354         	8.238          	0.363
MS.355         	8.22           	0.323
MS.356         	8.202          	0.284
MS.357         	8.188          	0.317
MS.358         	8.17           	0.344
MS.359         	8.155          	0.269
MS.360         	8.137          	0.273
MS.361         	8.122          	0.268
MS.362         	8.105          	0.256
MS.363         	8.09           	0.267
MS.364         	8.073          	0.255
MS.365         	8.057          	0.258
MS.366         	8.042          	0.216
MS.367         	8.025          	0.252
MS.368         	8.01           	0.309
MS.369         	7.992          	0.247
MS.370         	7.977          	0.197
MS.371         	7.96           	0.222
MS.372         	7.945          	0.211
MS.373         	7.93           	0.228
MS.374         	7.912          	0.198
MS.375         	7.898          	0.146
MS.376         	7.882          	0.206
MS.377         	7.867          	0.154
MS.378         	7.85           	0.204
MS.379         	7.835          	0.187
MS.380         	7.82           	0.2
MS.381         	7.802          	0.156
MS.382         	7.787          	0.143
MS.383         	7.773          	0.201
MS.384         	7.757          	0.137
MS.385         	7.742          	0.172
MS.386         	7.725          	0.169
MS.387         	7.71           	0.16
MS.388         	7.695          	0.123
MS.389         	7.68           	0.09
MS.390         	7.665          	0.109
MS.391         	7.65           	0.092
MS.392         	7.635          	0.063
MS.393         	7.617          	0.062
MS.394         	7.602          	0.139
MS.395         	7.587          	0.065
MS.396         	7.572          	0.111
MS.397         	7.557          	0.134
MS.398         	7.543          	0.094
MS.399         	7.527          	0.081
MS.400         	7.512          	0.092
MS.401         	7.497          	0.112
MS.402         	7.482          	0.064
MS.403         	7.467          	0.078
MS.404         	7.452          	0.06
MS.405         	7.438          	0.074
MS.406         	7.422          	0.068
MS.407         	7.407          	0.06
MS.408         	7.392          	0.063
MS.409         	7.378          	0.068
MS.410         	7.365          	0.053
MS.411         	7.35           	0.055
MS.412         	7.335          	0.076
MS.413         	7.32           	0.048
MS.414         	7.305          	0.038
MS.415         	7.29           	0.038
MS.416         	7.275          	0.048
MS.417         	7.262          	0.032
MS.418         	7.247          	0.04
MS.419         	7.233          	0.044
MS.420         	7.217          	0.039
MS.421         	7.202          	0.025
MS.422         	7.19           	0.037
MS.423         	7.175          	0.026
MS.424         	7.16           	0.031
MS.425         	7.145          	0.033
MS.426         	7.132          	0.024
MS.427         	7.117          	0.037
MS.428         	7.102          	0.033
MS.429         	7.09           	0.024
MS.430         	7.075          	0.04
MS.431         	7.06           	0.03
MS.432         	7.047          	0.031
MS.433         	7.032          	0.029
MS.434         	7.017          	0.009
MS.435         	7.005          	0.027
MS.436         	6.99           	0.028
MS.437         	6.977          	0.01
MS.438         	6.962          	0.031
MS.439         	6.95           	0.007
MS.440         	6.935          	0.012
MS.441         	6.92           	0.011
MS.442         	6.907          	0.007
MS.443         	6.892          	0.002
MS.444         	6.88           	0.009
MS.445         	6.865          	0.007
MS.446         	6.852          	-0.01
MS.447         	6.837          	0.004
MS.448         	6.825          	0.013
MS.449         	6.812          	0.001
MS.450         	6.797          	0.003
MS.451         	6.785          	0.001
MS.452         	6.77           	-0.006
MS.453         	6.757          	0.007
MS.454         	6.742          	0.016
MS.455         	6.73           	-0.001
MS.456         	6.717          	-0.01
MS.457         	6.702          	-0.011
MS.458         	6.69           	-0.015
MS.459         	6.677          	0.000
MS.460         	6.662          	0.003
MS.461         	6.65           	0.000
MS.462         	6.637          	-0.001
MS.463         	6.622          	-0.001
MS.464         	6.61           	-0.002
MS.465         	6.597          	-0.018
MS.466         	6.582          	-0.001
MS.467         	6.57           	-0.008
MS.468         	6.557          	-0.012
MS.469         	6.545          	-0.017
MS.470         	6.53           	-0.016
MS.471         	6.517          	0.003
MS.472         	6.505          	-0.02
MS.473         	6.492          	-0.015
MS.474         	6.48           	-0.011
MS.475         	6.465          	-0.013
MS.476         	6.452          	-0.016
MS.477         	6.44           	-0.001
MS.478         	6.427          	-0.021
MS.479         	6.415          	-0.01
MS.480         	6.402          	-0.015
MS.481         	6.39           	-0.013
MS.482         	6.378          	-0.02
MS.483         	6.362          	-0.015
MS.484         	6.35           	-0.016
MS.485         	6.338          	-0.018
MS.486         	6.325          	-0.019
MS.487         	6.312          	-0.02
MS.488         	6.3            	-0.017
MS.489         	6.287          	-0.019
MS.490         	6.275          	-0.018
MS.491         	6.262          	-0.021
MS.492         	6.25           	-0.018
MS.493         	6.237          	-0.017
MS.494         	6.225          	-0.013
MS.495         	6.213          	-0.02
MS.496         	6.2            	-0.018
MS.497         	6.188          	-0.02
MS.498         	6.175          	-0.02
MS.499         	6.162          	-0.02
MS.500         	6.15           	-0.02
MS.501         	6.137          	-0.019
MS.502         	6.128          	-0.017
