File:              	C:\Qtrac\Data\ME2C30630D.QZD
Name:              	 ME25D
Protocol:          	MSCAN-MV
Date:              	30/6/23
Date of birth:     	25/8/01
Age:               	21
Sex:               	M
Temperature:       	33.1
S/R sites:         	Knee CF-TA
NC/disease:        	NC
Operator:          	BY
Comments:
M-SCAN DATA (Repeat 2/3, 21.4-13.6m)
Scanpts: 4, 29, 542, 582
Stim. (mA)     	Amp. (mV)
MS.1           	13.5           	3.788
MS.2           	13.5           	3.767
MS.3           	13.5           	3.766
MS.4           	13.5           	3.775
MS.5           	13.5           	3.813
MS.6           	13.5           	3.782
MS.7           	13.5           	3.865
MS.8           	13.5           	3.83
MS.9           	13.5           	3.82
MS.10          	13.5           	3.83
MS.11          	13.5           	3.831
MS.12          	13.5           	3.853
MS.13          	13.5           	3.795
MS.14          	13.5           	3.79
MS.15          	13.5           	3.813
MS.16          	13.5           	3.766
MS.17          	13.5           	3.828
MS.18          	13.5           	3.801
MS.19          	13.5           	3.842
MS.20          	13.5           	3.843
MS.21          	13.5           	3.802
MS.22          	13.5           	3.835
MS.23          	13.5           	3.779
MS.24          	13.472         	3.791
MS.25          	13.445         	3.845
MS.26          	13.42          	3.801
MS.27          	13.392         	3.781
MS.28          	13.365         	3.806
MS.29          	13.34          	3.779
MS.30          	13.312         	3.788
MS.31          	13.285         	3.763
MS.32          	13.26          	3.796
MS.33          	13.233         	3.809
MS.34          	13.205         	3.828
MS.35          	13.18          	3.779
MS.36          	13.153         	3.817
MS.37          	13.127         	3.812
MS.38          	13.1           	3.757
MS.39          	13.075         	3.763
MS.40          	13.047         	3.749
MS.41          	13.023         	3.782
MS.42          	12.997         	3.778
MS.43          	12.97          	3.81
MS.44          	12.945         	3.765
MS.45          	12.92          	3.803
MS.46          	12.892         	3.793
MS.47          	12.867         	3.761
MS.48          	12.842         	3.804
MS.49          	12.815         	3.763
MS.50          	12.79          	3.818
MS.51          	12.765         	3.765
MS.52          	12.74          	3.772
MS.53          	12.715         	3.775
MS.54          	12.688         	3.784
MS.55          	12.662         	3.76
MS.56          	12.637         	3.758
MS.57          	12.613         	3.784
MS.58          	12.587         	3.746
MS.59          	12.562         	3.784
MS.60          	12.537         	3.787
MS.61          	12.512         	3.74
MS.62          	12.488         	3.774
MS.63          	12.462         	3.817
MS.64          	12.438         	3.776
MS.65          	12.412         	3.769
MS.66          	12.387         	3.729
MS.67          	12.363         	3.751
MS.68          	12.337         	3.789
MS.69          	12.312         	3.787
MS.70          	12.29          	3.801
MS.71          	12.265         	3.794
MS.72          	12.24          	3.782
MS.73          	12.215         	3.786
MS.74          	12.19          	3.737
MS.75          	12.167         	3.775
MS.76          	12.142         	3.807
MS.77          	12.117         	3.804
MS.78          	12.095         	3.817
MS.79          	12.07          	3.782
MS.80          	12.045         	3.741
MS.81          	12.023         	3.758
MS.82          	11.997         	3.758
MS.83          	11.972         	3.706
MS.84          	11.95          	3.757
MS.85          	11.925         	3.737
MS.86          	11.903         	3.724
MS.87          	11.877         	3.726
MS.88          	11.855         	3.738
MS.89          	11.83          	3.767
MS.90          	11.807         	3.712
MS.91          	11.782         	3.756
MS.92          	11.76          	3.749
MS.93          	11.738         	3.77
MS.94          	11.712         	3.731
MS.95          	11.69          	3.743
MS.96          	11.665         	3.702
MS.97          	11.642         	3.702
MS.98          	11.62          	3.726
MS.99          	11.597         	3.738
MS.100         	11.572         	3.768
MS.101         	11.55          	3.771
MS.102         	11.528         	3.759
MS.103         	11.505         	3.769
MS.104         	11.48          	3.729
MS.105         	11.457         	3.746
MS.106         	11.435         	3.731
MS.107         	11.412         	3.731
MS.108         	11.39          	3.779
MS.109         	11.367         	3.76
MS.110         	11.345         	3.723
MS.111         	11.322         	3.754
MS.112         	11.297         	3.743
MS.113         	11.275         	3.736
MS.114         	11.252         	3.722
MS.115         	11.23          	3.741
MS.116         	11.207         	3.726
MS.117         	11.188         	3.76
MS.118         	11.165         	3.723
MS.119         	11.142         	3.751
MS.120         	11.12          	3.707
MS.121         	11.097         	3.733
MS.122         	11.075         	3.713
MS.123         	11.052         	3.73
MS.124         	11.03          	3.743
MS.125         	11.007         	3.722
MS.126         	10.988         	3.735
MS.127         	10.965         	3.727
MS.128         	10.943         	3.694
MS.129         	10.92          	3.698
MS.130         	10.9           	3.727
MS.131         	10.877         	3.687
MS.132         	10.855         	3.73
MS.133         	10.835         	3.668
MS.134         	10.812         	3.677
MS.135         	10.79          	3.688
MS.136         	10.77          	3.67
MS.137         	10.747         	3.69
MS.138         	10.725         	3.688
MS.139         	10.705         	3.685
MS.140         	10.682         	3.655
MS.141         	10.662         	3.634
MS.142         	10.64          	3.676
MS.143         	10.62          	3.67
MS.144         	10.597         	3.654
MS.145         	10.577         	3.67
MS.146         	10.555         	3.683
MS.147         	10.535         	3.705
MS.148         	10.515         	3.686
MS.149         	10.492         	3.678
MS.150         	10.472         	3.629
MS.151         	10.45          	3.653
MS.152         	10.43          	3.666
MS.153         	10.41          	3.66
MS.154         	10.387         	3.651
MS.155         	10.367         	3.663
MS.156         	10.347         	3.691
MS.157         	10.327         	3.691
MS.158         	10.305         	3.659
MS.159         	10.285         	3.662
MS.160         	10.265         	3.695
MS.161         	10.245         	3.641
MS.162         	10.222         	3.69
MS.163         	10.202         	3.718
MS.164         	10.182         	3.625
MS.165         	10.162         	3.701
MS.166         	10.142         	3.649
MS.167         	10.122         	3.721
MS.168         	10.102         	3.651
MS.169         	10.082         	3.664
MS.170         	10.06          	3.688
MS.171         	10.04          	3.651
MS.172         	10.02          	3.688
MS.173         	10             	3.682
MS.174         	9.98           	3.667
MS.175         	9.96           	3.683
MS.176         	9.94           	3.668
MS.177         	9.922          	3.666
MS.178         	9.903          	3.672
MS.179         	9.882          	3.616
MS.180         	9.863          	3.694
MS.181         	9.842          	3.651
MS.182         	9.823          	3.671
MS.183         	9.802          	3.653
MS.184         	9.782          	3.641
MS.185         	9.765          	3.667
MS.186         	9.745          	3.619
MS.187         	9.725          	3.66
MS.188         	9.705          	3.642
MS.189         	9.685          	3.65
MS.190         	9.667          	3.674
MS.191         	9.648          	3.64
MS.192         	9.627          	3.667
MS.193         	9.61           	3.623
MS.194         	9.59           	3.648
MS.195         	9.57           	3.649
MS.196         	9.552          	3.627
MS.197         	9.532          	3.649
MS.198         	9.512          	3.658
MS.199         	9.495          	3.625
MS.200         	9.475          	3.665
MS.201         	9.457          	3.647
MS.202         	9.438          	3.672
MS.203         	9.417          	3.64
MS.204         	9.4            	3.661
MS.205         	9.38           	3.642
MS.206         	9.363          	3.616
MS.207         	9.342          	3.665
MS.208         	9.325          	3.638
MS.209         	9.307          	3.622
MS.210         	9.287          	3.684
MS.211         	9.27           	3.632
MS.212         	9.25           	3.641
MS.213         	9.233          	3.669
MS.214         	9.212          	3.607
MS.215         	9.195          	3.602
MS.216         	9.177          	3.622
MS.217         	9.158          	3.668
MS.218         	9.14           	3.6
MS.219         	9.122          	3.555
MS.220         	9.105          	3.618
MS.221         	9.085          	3.593
MS.222         	9.068          	3.601
MS.223         	9.05           	3.607
MS.224         	9.03           	3.613
MS.225         	9.012          	3.583
MS.226         	8.995          	3.644
MS.227         	8.977          	3.622
MS.228         	8.96           	3.608
MS.229         	8.943          	3.635
MS.230         	8.922          	3.602
MS.231         	8.905          	3.59
MS.232         	8.887          	3.585
MS.233         	8.87           	3.56
MS.234         	8.852          	3.603
MS.235         	8.835          	3.609
MS.236         	8.818          	3.627
MS.237         	8.8            	3.616
MS.238         	8.783          	3.658
MS.239         	8.765          	3.585
MS.240         	8.747          	3.627
MS.241         	8.73           	3.608
MS.242         	8.712          	3.666
MS.243         	8.695          	3.627
MS.244         	8.677          	3.633
MS.245         	8.66           	3.577
MS.246         	8.642          	3.618
MS.247         	8.625          	3.613
MS.248         	8.608          	3.574
MS.249         	8.59           	3.605
MS.250         	8.573          	3.583
MS.251         	8.557          	3.61
MS.252         	8.54           	3.563
MS.253         	8.523          	3.571
MS.254         	8.505          	3.626
MS.255         	8.488          	3.571
MS.256         	8.472          	3.605
MS.257         	8.455          	3.616
MS.258         	8.438          	3.589
MS.259         	8.42           	3.584
MS.260         	8.405          	3.589
MS.261         	8.387          	3.565
MS.262         	8.37           	3.586
MS.263         	8.352          	3.608
MS.264         	8.337          	3.637
MS.265         	8.32           	3.612
MS.266         	8.302          	3.593
MS.267         	8.287          	3.591
MS.268         	8.27           	3.574
MS.269         	8.255          	3.585
MS.270         	8.238          	3.573
MS.271         	8.22           	3.594
MS.272         	8.205          	3.546
MS.273         	8.188          	3.577
MS.274         	8.172          	3.542
MS.275         	8.155          	3.585
MS.276         	8.14           	3.558
MS.277         	8.122          	3.597
MS.278         	8.108          	3.565
MS.279         	8.09           	3.578
MS.280         	8.075          	3.546
MS.281         	8.057          	3.58
MS.282         	8.042          	3.565
MS.283         	8.025          	3.574
MS.284         	8.01           	3.549
MS.285         	7.995          	3.578
MS.286         	7.977          	3.593
MS.287         	7.962          	3.605
MS.288         	7.945          	3.578
MS.289         	7.93           	3.561
MS.290         	7.915          	3.588
MS.291         	7.898          	3.513
MS.292         	7.882          	3.508
MS.293         	7.867          	3.561
MS.294         	7.852          	3.558
MS.295         	7.835          	3.536
MS.296         	7.82           	3.546
MS.297         	7.805          	3.569
MS.298         	7.79           	3.53
MS.299         	7.773          	3.55
MS.300         	7.757          	3.542
MS.301         	7.742          	3.552
MS.302         	7.727          	3.527
MS.303         	7.712          	3.558
MS.304         	7.695          	3.484
MS.305         	7.68           	3.515
MS.306         	7.665          	3.564
MS.307         	7.65           	3.502
MS.308         	7.635          	3.489
MS.309         	7.62           	3.504
MS.310         	7.605          	3.535
MS.311         	7.59           	3.486
MS.312         	7.575          	3.538
MS.313         	7.557          	3.411
MS.314         	7.543          	3.485
MS.315         	7.527          	3.508
MS.316         	7.512          	3.537
MS.317         	7.497          	3.532
MS.318         	7.482          	3.473
MS.319         	7.467          	3.487
MS.320         	7.452          	3.557
MS.321         	7.438          	3.546
MS.322         	7.425          	3.479
MS.323         	7.41           	3.489
MS.324         	7.395          	3.517
MS.325         	7.38           	3.525
MS.326         	7.365          	3.48
MS.327         	7.35           	3.486
MS.328         	7.335          	3.421
MS.329         	7.32           	3.404
MS.330         	7.305          	3.317
MS.331         	7.293          	3.498
MS.332         	7.277          	3.386
MS.333         	7.262          	3.434
MS.334         	7.247          	3.351
MS.335         	7.233          	3.381
MS.336         	7.22           	3.416
MS.337         	7.205          	3.34
MS.338         	7.19           	3.327
MS.339         	7.175          	3.262
MS.340         	7.162          	3.273
MS.341         	7.148          	3.268
MS.342         	7.132          	3.341
MS.343         	7.117          	3.271
MS.344         	7.105          	3.297
MS.345         	7.09           	3.298
MS.346         	7.075          	3.281
MS.347         	7.062          	3.194
MS.348         	7.047          	3.266
MS.349         	7.032          	3.141
MS.350         	7.02           	3.214
MS.351         	7.005          	3.235
MS.352         	6.992          	3.267
MS.353         	6.977          	3.207
MS.354         	6.962          	3.192
MS.355         	6.95           	3.145
MS.356         	6.935          	3.083
MS.357         	6.922          	3.239
MS.358         	6.907          	3.195
MS.359         	6.895          	3.157
MS.360         	6.88           	3.138
MS.361         	6.867          	3.168
MS.362         	6.852          	3.073
MS.363         	6.84           	3.141
MS.364         	6.825          	3.11
MS.365         	6.812          	3.118
MS.366         	6.797          	3.125
MS.367         	6.785          	3.014
MS.368         	6.773          	3.11
MS.369         	6.757          	3.069
MS.370         	6.745          	3.102
MS.371         	6.73           	3.056
MS.372         	6.717          	3.049
MS.373         	6.705          	3.005
MS.374         	6.69           	3.091
MS.375         	6.677          	3.013
MS.376         	6.665          	3.054
MS.377         	6.65           	2.911
MS.378         	6.637          	2.949
MS.379         	6.625          	2.901
MS.380         	6.61           	3.049
MS.381         	6.597          	3.069
MS.382         	6.585          	2.926
MS.383         	6.57           	3.043
MS.384         	6.557          	2.958
MS.385         	6.545          	2.762
MS.386         	6.532          	2.836
MS.387         	6.52           	2.802
MS.388         	6.505          	2.808
MS.389         	6.492          	2.799
MS.390         	6.48           	2.791
MS.391         	6.467          	2.659
MS.392         	6.455          	2.661
MS.393         	6.44           	2.579
MS.394         	6.427          	2.569
MS.395         	6.415          	2.755
MS.396         	6.402          	2.557
MS.397         	6.39           	2.518
MS.398         	6.378          	2.449
MS.399         	6.365          	2.475
MS.400         	6.352          	2.276
MS.401         	6.34           	2.403
MS.402         	6.325          	2.41
MS.403         	6.312          	2.315
MS.404         	6.3            	2.288
MS.405         	6.287          	2.175
MS.406         	6.275          	2.249
MS.407         	6.262          	2.244
MS.408         	6.25           	2.25
MS.409         	6.237          	2.136
MS.410         	6.225          	2.155
MS.411         	6.213          	2.037
MS.412         	6.2            	2.19
MS.413         	6.188          	2.059
MS.414         	6.175          	2.196
MS.415         	6.165          	2.128
MS.416         	6.152          	2.004
MS.417         	6.14           	1.956
MS.418         	6.128          	2.121
MS.419         	6.115          	1.976
MS.420         	6.102          	2.015
MS.421         	6.09           	1.903
MS.422         	6.077          	1.865
MS.423         	6.065          	1.848
MS.424         	6.055          	1.804
MS.425         	6.043          	1.958
MS.426         	6.03           	1.821
MS.427         	6.017          	1.888
MS.428         	6.005          	1.733
MS.429         	5.992          	1.819
MS.430         	5.983          	1.689
MS.431         	5.97           	1.669
MS.432         	5.957          	1.828
MS.433         	5.945          	1.697
MS.434         	5.935          	1.702
MS.435         	5.922          	1.666
MS.436         	5.91           	1.592
MS.437         	5.898          	1.585
MS.438         	5.887          	1.602
MS.439         	5.875          	1.607
MS.440         	5.862          	1.612
MS.441         	5.852          	1.529
MS.442         	5.84           	1.603
MS.443         	5.827          	1.495
MS.444         	5.817          	1.461
MS.445         	5.805          	1.495
MS.446         	5.793          	1.473
MS.447         	5.782          	1.486
MS.448         	5.77           	1.404
MS.449         	5.757          	1.295
MS.450         	5.747          	1.312
MS.451         	5.735          	1.173
MS.452         	5.725          	1.203
MS.453         	5.713          	1.245
MS.454         	5.702          	1.156
MS.455         	5.69           	1.262
MS.456         	5.677          	0.994
MS.457         	5.668          	1.094
MS.458         	5.655          	1.057
MS.459         	5.645          	1.128
MS.460         	5.632          	1.036
MS.461         	5.622          	1.044
MS.462         	5.61           	1.052
MS.463         	5.6            	0.924
MS.464         	5.588          	0.912
MS.465         	5.577          	0.668
MS.466         	5.565          	0.895
MS.467         	5.555          	0.813
MS.468         	5.545          	0.734
MS.469         	5.532          	0.683
MS.470         	5.523          	0.614
MS.471         	5.51           	0.559
MS.472         	5.5            	0.625
MS.473         	5.487          	0.429
MS.474         	5.477          	0.368
MS.475         	5.467          	0.481
MS.476         	5.455          	0.565
MS.477         	5.445          	0.453
MS.478         	5.435          	0.314
MS.479         	5.422          	0.486
MS.480         	5.412          	0.265
MS.481         	5.402          	0.327
MS.482         	5.39           	0.22
MS.483         	5.38           	0.31
MS.484         	5.37           	0.226
MS.485         	5.358          	0.226
MS.486         	5.347          	0.225
MS.487         	5.338          	0.12
MS.488         	5.327          	0.132
MS.489         	5.315          	0.088
MS.490         	5.305          	0.113
MS.491         	5.295          	0.063
MS.492         	5.285          	-0.002
MS.493         	5.273          	-0.095
MS.494         	5.262          	-0.037
MS.495         	5.253          	-0.092
MS.496         	5.242          	-0.048
MS.497         	5.233          	-0.213
MS.498         	5.22           	-0.264
MS.499         	5.21           	-0.133
MS.500         	5.2            	-0.289
MS.501         	5.19           	-0.231
MS.502         	5.18           	-0.176
