File:              	C:\Qtrac\Data\ME2C30620B.QZD
Name:              	 CD18O
Protocol:          	MSCAN-MV
Date:              	20/6/23
Date of birth:     	18/5/84
Age:               	39
Sex:               	M
Temperature:       	32.3
S/R sites:         	Knee CF-TA
NC/disease:        	NC
Operator:          	BY
Comments:
M-SCAN DATA (Repeat 1/3, 15.4-5.1m)
Scanpts: 209, 226, 783, 798
Stim. (mA)     	Amp. (mV)
MS.1           	12.5           	8.118
MS.2           	12.5           	8.124
MS.3           	12.5           	8.138
MS.4           	12.5           	8.082
MS.5           	12.5           	8.13
MS.6           	12.5           	8.171
MS.7           	12.5           	8.13
MS.8           	12.5           	8.103
MS.9           	12.5           	8.16
MS.10          	12.5           	8.167
MS.11          	12.5           	8.159
MS.12          	12.5           	8.143
MS.13          	12.5           	8.138
MS.14          	12.5           	8.141
MS.15          	12.5           	8.148
MS.16          	12.5           	8.184
MS.17          	12.5           	8.111
MS.18          	12.5           	8.174
MS.19          	12.5           	8.159
MS.20          	12.5           	8.206
MS.21          	12.5           	8.203
MS.22          	12.5           	8.126
MS.23          	12.5           	8.154
MS.24          	12.45          	8.204
MS.25          	12.425         	8.16
MS.26          	12.4           	8.171
MS.27          	12.375         	8.197
MS.28          	12.35          	8.177
MS.29          	12.325         	8.201
MS.30          	12.302         	8.156
MS.31          	12.278         	8.179
MS.32          	12.252         	8.156
MS.33          	12.227         	8.146
MS.34          	12.202         	8.166
MS.35          	12.18          	8.235
MS.36          	12.155         	8.125
MS.37          	12.13          	8.184
MS.38          	12.108         	8.165
MS.39          	12.082         	8.126
MS.40          	12.057         	8.195
MS.41          	12.035         	8.156
MS.42          	12.01          	8.118
MS.43          	11.985         	8.14
MS.44          	11.962         	8.201
MS.45          	11.938         	8.22
MS.46          	11.915         	8.159
MS.47          	11.89          	8.112
MS.48          	11.867         	8.182
MS.49          	11.842         	8.19
MS.50          	11.82          	8.168
MS.51          	11.795         	8.159
MS.52          	11.773         	8.17
MS.53          	11.747         	8.159
MS.54          	11.725         	8.229
MS.55          	11.702         	8.167
MS.56          	11.677         	8.201
MS.57          	11.655         	8.198
MS.58          	11.632         	8.193
MS.59          	11.608         	8.154
MS.60          	11.585         	8.218
MS.61          	11.562         	8.152
MS.62          	11.54          	8.173
MS.63          	11.515         	8.233
MS.64          	11.492         	8.224
MS.65          	11.47          	8.231
MS.66          	11.447         	8.211
MS.67          	11.425         	8.177
MS.68          	11.403         	8.187
MS.69          	11.377         	8.163
MS.70          	11.355         	8.211
MS.71          	11.332         	8.167
MS.72          	11.31          	8.222
MS.73          	11.287         	8.158
MS.74          	11.265         	8.19
MS.75          	11.242         	8.224
MS.76          	11.22          	8.195
MS.77          	11.197         	8.194
MS.78          	11.175         	8.242
MS.79          	11.153         	8.187
MS.80          	11.13          	8.237
MS.81          	11.108         	8.235
MS.82          	11.087         	8.163
MS.83          	11.065         	8.192
MS.84          	11.042         	8.124
MS.85          	11.02          	8.15
MS.86          	10.997         	8.167
MS.87          	10.975         	8.193
MS.88          	10.955         	8.109
MS.89          	10.932         	8.166
MS.90          	10.91          	8.116
MS.91          	10.887         	8.237
MS.92          	10.867         	8.201
MS.93          	10.845         	8.226
MS.94          	10.823         	8.249
MS.95          	10.802         	8.189
MS.96          	10.78          	8.222
MS.97          	10.76          	8.201
MS.98          	10.738         	8.202
MS.99          	10.715         	8.179
MS.100         	10.695         	8.182
MS.101         	10.672         	8.182
MS.102         	10.653         	8.215
MS.103         	10.63          	8.15
MS.104         	10.61          	8.191
MS.105         	10.587         	8.184
MS.106         	10.568         	8.163
MS.107         	10.545         	8.178
MS.108         	10.525         	8.197
MS.109         	10.502         	8.163
MS.110         	10.483         	8.165
MS.111         	10.462         	8.175
MS.112         	10.44          	8.16
MS.113         	10.42          	8.113
MS.114         	10.4           	8.167
MS.115         	10.377         	8.154
MS.116         	10.358         	8.226
MS.117         	10.337         	8.21
MS.118         	10.318         	8.192
MS.119         	10.295         	8.217
MS.120         	10.275         	8.213
MS.121         	10.255         	8.227
MS.122         	10.235         	8.167
MS.123         	10.212         	8.236
MS.124         	10.193         	8.207
MS.125         	10.172         	8.14
MS.126         	10.153         	8.201
MS.127         	10.132         	8.165
MS.128         	10.113         	8.194
MS.129         	10.092         	8.179
MS.130         	10.073         	8.138
MS.131         	10.052         	8.184
MS.132         	10.032         	8.212
MS.133         	10.012         	8.213
MS.134         	9.992          	8.203
MS.135         	9.972          	8.154
MS.136         	9.952          	8.167
MS.137         	9.932          	8.089
MS.138         	9.912          	8.139
MS.139         	9.892          	8.128
MS.140         	9.872          	8.149
MS.141         	9.852          	8.115
MS.142         	9.832          	8.225
MS.143         	9.812          	8.168
MS.144         	9.792          	8.156
MS.145         	9.775          	8.15
MS.146         	9.755          	8.168
MS.147         	9.735          	8.086
MS.148         	9.715          	8.16
MS.149         	9.695          	8.124
MS.150         	9.677          	8.093
MS.151         	9.657          	8.083
MS.152         	9.637          	8.158
MS.153         	9.62           	8.101
MS.154         	9.6            	8.133
MS.155         	9.58           	8.115
MS.156         	9.562          	8.185
MS.157         	9.542          	8.104
MS.158         	9.523          	8.093
MS.159         	9.505          	8.09
MS.160         	9.485          	8.081
MS.161         	9.465          	8.065
MS.162         	9.448          	8.084
MS.163         	9.427          	8.116
MS.164         	9.41           	8.074
MS.165         	9.39           	8.092
MS.166         	9.372          	8.141
MS.167         	9.352          	8.081
MS.168         	9.335          	8.11
MS.169         	9.315          	8.077
MS.170         	9.297          	8.094
MS.171         	9.278          	8.121
MS.172         	9.26           	8.105
MS.173         	9.242          	8.151
MS.174         	9.222          	8.113
MS.175         	9.205          	8.087
MS.176         	9.188          	8.102
MS.177         	9.167          	8.165
MS.178         	9.15           	8.077
MS.179         	9.132          	8.149
MS.180         	9.113          	8.072
MS.181         	9.095          	8.096
MS.182         	9.077          	8.112
MS.183         	9.057          	8.097
MS.184         	9.04           	8.088
MS.185         	9.023          	8.103
MS.186         	9.005          	8.159
MS.187         	8.988          	8.151
MS.188         	8.967          	8.127
MS.189         	8.95           	8.091
MS.190         	8.932          	8.197
MS.191         	8.915          	8.093
MS.192         	8.898          	8.123
MS.193         	8.88           	8.193
MS.194         	8.863          	8.156
MS.195         	8.845          	8.143
MS.196         	8.825          	8.187
MS.197         	8.807          	8.135
MS.198         	8.79           	8.116
MS.199         	8.773          	8.093
MS.200         	8.755          	8.089
MS.201         	8.738          	8.042
MS.202         	8.72           	8.152
MS.203         	8.702          	8.23
MS.204         	8.685          	8.116
MS.205         	8.67           	8.094
MS.206         	8.653          	8.365
MS.207         	8.635          	7.921
MS.208         	8.617          	8.129
MS.209         	8.6            	8.146
MS.210         	8.582          	8.187
MS.211         	8.565          	8.182
MS.212         	8.547          	8.138
MS.213         	8.53           	8.118
MS.214         	8.515          	8.185
MS.215         	8.497          	8.158
MS.216         	8.48           	8.185
MS.217         	8.462          	8.198
MS.218         	8.448          	8.13
MS.219         	8.43           	8.107
MS.220         	8.412          	8.158
MS.221         	8.395          	8.116
MS.222         	8.38           	8.125
MS.223         	8.363          	8.116
MS.224         	8.345          	8.148
MS.225         	8.33           	8.118
MS.226         	8.312          	8.123
MS.227         	8.295          	8.239
MS.228         	8.28           	8.118
MS.229         	8.262          	8.006
MS.230         	8.245          	8.148
MS.231         	8.23           	8.083
MS.232         	8.212          	7.974
MS.233         	8.198          	8.029
MS.234         	8.18           	8.075
MS.235         	8.165          	8.031
MS.236         	8.148          	8.027
MS.237         	8.132          	7.95
MS.238         	8.115          	7.991
MS.239         	8.1            	8.056
MS.240         	8.082          	7.933
MS.241         	8.068          	8.005
MS.242         	8.05           	7.974
MS.243         	8.035          	7.923
MS.244         	8.017          	7.952
MS.245         	8.002          	7.971
MS.246         	7.987          	7.9
MS.247         	7.97           	7.953
MS.248         	7.955          	8.013
MS.249         	7.938          	7.703
MS.250         	7.922          	7.621
MS.251         	7.907          	7.682
MS.252         	7.89           	7.744
MS.253         	7.875          	7.66
MS.254         	7.86           	7.618
MS.255         	7.845          	7.874
MS.256         	7.827          	7.983
MS.257         	7.812          	7.624
MS.258         	7.797          	7.615
MS.259         	7.782          	7.59
MS.260         	7.765          	7.704
MS.261         	7.75           	7.48
MS.262         	7.735          	7.608
MS.263         	7.72           	7.498
MS.264         	7.705          	7.546
MS.265         	7.688          	7.556
MS.266         	7.672          	7.277
MS.267         	7.657          	7.187
MS.268         	7.642          	7.481
MS.269         	7.628          	7.463
MS.270         	7.612          	7.399
MS.271         	7.597          	7.504
MS.272         	7.582          	7.006
MS.273         	7.567          	7.006
MS.274         	7.552          	6.82
MS.275         	7.535          	7.163
MS.276         	7.52           	6.893
MS.277         	7.505          	6.979
MS.278         	7.49           	6.93
MS.279         	7.475          	6.976
MS.280         	7.462          	6.947
MS.281         	7.447          	6.902
MS.282         	7.432          	7.046
MS.283         	7.418          	6.979
MS.284         	7.402          	6.92
MS.285         	7.387          	7.052
MS.286         	7.372          	6.923
MS.287         	7.357          	6.818
MS.288         	7.342          	6.896
MS.289         	7.327          	6.717
MS.290         	7.312          	6.814
MS.291         	7.3            	6.819
MS.292         	7.285          	6.848
MS.293         	7.27           	6.932
MS.294         	7.255          	6.66
MS.295         	7.24           	6.79
MS.296         	7.227          	6.951
MS.297         	7.212          	7.013
MS.298         	7.197          	6.691
MS.299         	7.182          	6.776
MS.300         	7.168          	6.922
MS.301         	7.155          	6.856
MS.302         	7.14           	6.591
MS.303         	7.125          	6.699
MS.304         	7.112          	6.921
MS.305         	7.097          	6.453
MS.306         	7.082          	6.776
MS.307         	7.07           	6.835
MS.308         	7.055          	6.858
MS.309         	7.04           	6.579
MS.310         	7.027          	6.796
MS.311         	7.012          	6.686
MS.312         	6.997          	6.689
MS.313         	6.985          	6.697
MS.314         	6.97           	6.724
MS.315         	6.957          	6.602
MS.316         	6.942          	6.738
MS.317         	6.93           	6.859
MS.318         	6.915          	6.635
MS.319         	6.902          	6.273
MS.320         	6.887          	6.577
MS.321         	6.875          	6.218
MS.322         	6.86           	6.794
MS.323         	6.847          	6.591
MS.324         	6.832          	6.105
MS.325         	6.82           	6.591
MS.326         	6.805          	6.508
MS.327         	6.793          	6.288
MS.328         	6.777          	6.178
MS.329         	6.765          	6.312
MS.330         	6.75           	6.679
MS.331         	6.737          	6.364
MS.332         	6.725          	6.349
MS.333         	6.71           	6.216
MS.334         	6.697          	6.171
MS.335         	6.685          	6.32
MS.336         	6.67           	6.266
MS.337         	6.657          	5.933
MS.338         	6.645          	5.601
MS.339         	6.63           	5.371
MS.340         	6.617          	5.352
MS.341         	6.605          	5.207
MS.342         	6.59           	5.166
MS.343         	6.577          	5.242
MS.344         	6.565          	5.148
MS.345         	6.552          	5.203
MS.346         	6.537          	4.754
MS.347         	6.525          	4.962
MS.348         	6.512          	5.17
MS.349         	6.5            	4.906
MS.350         	6.487          	4.86
MS.351         	6.472          	4.994
MS.352         	6.46           	4.404
MS.353         	6.447          	4.866
MS.354         	6.435          	5.093
MS.355         	6.422          	4.531
MS.356         	6.41           	4.465
MS.357         	6.398          	4.949
MS.358         	6.382          	4.538
MS.359         	6.37           	4.653
MS.360         	6.358          	4.818
MS.361         	6.345          	4.477
MS.362         	6.332          	4.995
MS.363         	6.32           	5.219
MS.364         	6.307          	4.971
MS.365         	6.295          	4.396
MS.366         	6.282          	4.211
MS.367         	6.27           	4.31
MS.368         	6.257          	4.507
MS.369         	6.245          	4.42
MS.370         	6.233          	4.177
MS.371         	6.22           	4.367
MS.372         	6.207          	4.201
MS.373         	6.195          	4.066
MS.374         	6.182          	4.238
MS.375         	6.17           	4.232
MS.376         	6.157          	4.09
MS.377         	6.145          	4.2
MS.378         	6.132          	4.015
MS.379         	6.12           	4.122
MS.380         	6.11           	4.121
MS.381         	6.097          	3.79
MS.382         	6.085          	3.831
MS.383         	6.072          	3.871
MS.384         	6.06           	3.662
MS.385         	6.047          	3.525
MS.386         	6.035          	3.488
MS.387         	6.025          	3.298
MS.388         	6.012          	3.644
MS.389         	6              	3.71
MS.390         	5.987          	3.277
MS.391         	5.975          	3.549
MS.392         	5.965          	3.613
MS.393         	5.952          	3.379
MS.394         	5.94           	3.682
MS.395         	5.927          	3.384
MS.396         	5.918          	3.482
MS.397         	5.905          	3.508
MS.398         	5.892          	3.323
MS.399         	5.88           	3.27
MS.400         	5.87           	3.369
MS.401         	5.858          	3.24
MS.402         	5.845          	3.033
MS.403         	5.835          	3.219
MS.404         	5.822          	3.202
MS.405         	5.81           	3.323
MS.406         	5.8            	3.223
MS.407         	5.787          	3.222
MS.408         	5.775          	3.148
MS.409         	5.765          	3.246
MS.410         	5.753          	3.235
MS.411         	5.742          	3.108
MS.412         	5.73           	3.29
MS.413         	5.717          	2.836
MS.414         	5.707          	2.974
MS.415         	5.695          	2.919
MS.416         	5.685          	2.973
MS.417         	5.672          	3.149
MS.418         	5.662          	2.851
MS.419         	5.65           	2.709
MS.420         	5.64           	2.677
MS.421         	5.628          	3.043
MS.422         	5.617          	2.913
MS.423         	5.605          	2.701
MS.424         	5.595          	2.794
MS.425         	5.582          	2.668
MS.426         	5.572          	2.531
MS.427         	5.56           	2.626
MS.428         	5.55           	2.534
MS.429         	5.537          	2.429
MS.430         	5.527          	2.518
MS.431         	5.517          	2.421
MS.432         	5.505          	2.399
MS.433         	5.495          	2.315
MS.434         	5.483          	2.526
MS.435         	5.472          	2.396
MS.436         	5.463          	2.468
MS.437         	5.45           	2.27
MS.438         	5.44           	2.348
MS.439         	5.43           	2.22
MS.440         	5.418          	2.228
MS.441         	5.407          	2.524
MS.442         	5.398          	2.376
MS.443         	5.385          	2.174
MS.444         	5.375          	2.117
MS.445         	5.365          	2.189
MS.446         	5.352          	2.202
MS.447         	5.342          	2.231
MS.448         	5.332          	2.202
MS.449         	5.322          	2.159
MS.450         	5.31           	2.232
MS.451         	5.3            	2.173
MS.452         	5.29           	2.119
MS.453         	5.28           	2.198
MS.454         	5.267          	2.09
MS.455         	5.257          	2.128
MS.456         	5.247          	2.084
MS.457         	5.237          	2
MS.458         	5.227          	2.011
MS.459         	5.215          	1.99
MS.460         	5.205          	2.046
MS.461         	5.195          	1.932
MS.462         	5.185          	1.934
MS.463         	5.175          	1.958
MS.464         	5.165          	1.97
MS.465         	5.155          	1.805
MS.466         	5.142          	2.01
MS.467         	5.132          	1.92
MS.468         	5.122          	1.922
MS.469         	5.112          	1.888
MS.470         	5.102          	1.725
MS.471         	5.092          	1.866
MS.472         	5.082          	1.884
MS.473         	5.072          	1.731
MS.474         	5.062          	1.747
MS.475         	5.052          	1.765
MS.476         	5.043          	1.762
MS.477         	5.032          	1.761
MS.478         	5.023          	1.614
MS.479         	5.012          	1.768
MS.480         	5.003          	1.663
MS.481         	4.992          	1.577
MS.482         	4.983          	1.58
MS.483         	4.972          	1.639
MS.484         	4.963          	1.604
MS.485         	4.952          	1.602
MS.486         	4.943          	1.515
MS.487         	4.932          	1.564
MS.488         	4.922          	1.531
MS.489         	4.912          	1.491
MS.490         	4.902          	1.527
MS.491         	4.892          	1.358
MS.492         	4.882          	1.461
MS.493         	4.872          	1.413
MS.494         	4.862          	1.531
MS.495         	4.852          	1.432
MS.496         	4.845          	1.35
MS.497         	4.835          	1.316
MS.498         	4.825          	1.426
MS.499         	4.815          	1.426
MS.500         	4.805          	1.426
MS.501         	4.795          	1.385
MS.502         	4.785          	1.359
MS.503         	4.777          	1.367
