File:              	C:\Qtrac\Data\ME2C30608A.QZD
Name:              	 ME18D
Protocol:          	MSCAN-R2
Date:              	8/6/23
Date of birth:     	18/11/01
Age:               	21
Sex:               	M
Temperature:       	33.6
S/R sites:         	KNEE CF-TA
NC/disease:        	NC
Operator:          	BY
Comments:
M-SCAN DATA (Repeat 2/3, 33.6-23.4m)
Scanpts: 1, 40, 780, 815
Stim. (mA)     	Amp. (mV)
MS.1           	14             	3.974
MS.2           	14             	3.962
MS.3           	14             	3.949
MS.4           	14             	3.959
MS.5           	14             	3.957
MS.6           	14             	3.954
MS.7           	14             	3.962
MS.8           	14             	3.952
MS.9           	14             	3.952
MS.10          	14             	3.957
MS.11          	14             	3.958
MS.12          	14             	3.962
MS.13          	14             	3.954
MS.14          	14             	3.959
MS.15          	14             	3.963
MS.16          	14             	3.961
MS.17          	14             	3.961
MS.18          	14             	3.956
MS.19          	14             	3.958
MS.20          	14             	3.958
MS.21          	14             	3.958
MS.22          	14             	3.948
MS.23          	14             	3.961
MS.24          	13.972         	3.957
MS.25          	13.945         	3.96
MS.26          	13.917         	3.959
MS.27          	13.887         	3.949
MS.28          	13.86          	3.949
MS.29          	13.832         	3.953
MS.30          	13.805         	3.962
MS.31          	13.778         	3.956
MS.32          	13.75          	3.95
MS.33          	13.722         	3.953
MS.34          	13.695         	3.948
MS.35          	13.667         	3.957
MS.36          	13.64          	3.95
MS.37          	13.612         	3.948
MS.38          	13.585         	3.955
MS.39          	13.56          	3.956
MS.40          	13.532         	3.954
MS.41          	13.505         	3.958
MS.42          	13.477         	3.955
MS.43          	13.45          	3.943
MS.44          	13.425         	3.947
MS.45          	13.398         	3.953
MS.46          	13.37          	3.938
MS.47          	13.345         	3.945
MS.48          	13.318         	3.94
MS.49          	13.29          	3.94
MS.50          	13.265         	3.936
MS.51          	13.237         	3.937
MS.52          	13.21          	3.94
MS.53          	13.185         	3.937
MS.54          	13.157         	3.929
MS.55          	13.132         	3.932
MS.56          	13.105         	3.929
MS.57          	13.08          	3.935
MS.58          	13.052         	3.928
MS.59          	13.028         	3.929
MS.60          	13.002         	3.932
MS.61          	12.975         	3.923
MS.62          	12.95          	3.925
MS.63          	12.922         	3.929
MS.64          	12.898         	3.93
MS.65          	12.872         	3.928
MS.66          	12.847         	3.914
MS.67          	12.82          	3.92
MS.68          	12.795         	3.918
MS.69          	12.77          	3.924
MS.70          	12.745         	3.915
MS.71          	12.717         	3.921
MS.72          	12.693         	3.926
MS.73          	12.667         	3.914
MS.74          	12.642         	3.915
MS.75          	12.617         	3.918
MS.76          	12.592         	3.922
MS.77          	12.568         	3.917
MS.78          	12.542         	3.911
MS.79          	12.517         	3.907
MS.80          	12.492         	3.914
MS.81          	12.467         	3.909
MS.82          	12.443         	3.907
MS.83          	12.417         	3.909
MS.84          	12.392         	3.9
MS.85          	12.367         	3.902
MS.86          	12.342         	3.905
MS.87          	12.318         	3.906
MS.88          	12.292         	3.896
MS.89          	12.27          	3.899
MS.90          	12.245         	3.907
MS.91          	12.22          	3.914
MS.92          	12.195         	3.919
MS.93          	12.17          	3.896
MS.94          	12.148         	3.909
MS.95          	12.122         	3.901
MS.96          	12.097         	3.911
MS.97          	12.075         	3.898
MS.98          	12.05          	3.908
MS.99          	12.025         	3.9
MS.100         	12.002         	3.898
MS.101         	11.977         	3.885
MS.102         	11.955         	3.896
MS.103         	11.93          	3.894
MS.104         	11.905         	3.903
MS.105         	11.882         	3.886
MS.106         	11.858         	3.891
MS.107         	11.835         	3.895
MS.108         	11.812         	3.885
MS.109         	11.787         	3.89
MS.110         	11.765         	3.89
MS.111         	11.74          	3.892
MS.112         	11.717         	3.892
MS.113         	11.695         	3.885
MS.114         	11.67          	3.889
MS.115         	11.648         	3.89
MS.116         	11.625         	3.882
MS.117         	11.6           	3.892
MS.118         	11.577         	3.892
MS.119         	11.555         	3.892
MS.120         	11.53          	3.877
MS.121         	11.507         	3.882
MS.122         	11.485         	3.889
MS.123         	11.462         	3.885
MS.124         	11.44          	3.878
MS.125         	11.417         	3.879
MS.126         	11.392         	3.876
MS.127         	11.37          	3.879
MS.128         	11.347         	3.878
MS.129         	11.325         	3.87
MS.130         	11.302         	3.876
MS.131         	11.28          	3.876
MS.132         	11.257         	3.87
MS.133         	11.235         	3.87
MS.134         	11.212         	3.872
MS.135         	11.19          	3.87
MS.136         	11.167         	3.864
MS.137         	11.145         	3.876
MS.138         	11.122         	3.865
MS.139         	11.1           	3.867
MS.140         	11.08          	3.867
MS.141         	11.057         	3.861
MS.142         	11.035         	3.866
MS.143         	11.012         	3.859
MS.144         	10.99          	3.866
MS.145         	10.97          	3.854
MS.146         	10.948         	3.865
MS.147         	10.925         	3.859
MS.148         	10.903         	3.862
MS.149         	10.882         	3.866
MS.150         	10.86          	3.868
MS.151         	10.837         	3.856
MS.152         	10.818         	3.853
MS.153         	10.795         	3.864
MS.154         	10.773         	3.86
MS.155         	10.752         	3.852
MS.156         	10.73          	3.856
MS.157         	10.707         	3.851
MS.158         	10.688         	3.849
MS.159         	10.665         	3.855
MS.160         	10.645         	3.854
MS.161         	10.622         	3.855
MS.162         	10.602         	3.851
MS.163         	10.58          	3.848
MS.164         	10.56          	3.84
MS.165         	10.537         	3.851
MS.166         	10.517         	3.849
MS.167         	10.497         	3.852
MS.168         	10.475         	3.851
MS.169         	10.455         	3.854
MS.170         	10.435         	3.839
MS.171         	10.412         	3.845
MS.172         	10.392         	3.852
MS.173         	10.372         	3.849
MS.174         	10.35          	3.84
MS.175         	10.33          	3.84
MS.176         	10.31          	3.845
MS.177         	10.29          	3.849
MS.178         	10.267         	3.836
MS.179         	10.247         	3.837
MS.180         	10.227         	3.842
MS.181         	10.207         	3.837
MS.182         	10.188         	3.835
MS.183         	10.165         	3.836
MS.184         	10.145         	3.831
MS.185         	10.125         	3.801
MS.186         	10.105         	3.817
MS.187         	10.085         	3.832
MS.188         	10.065         	3.822
MS.189         	10.045         	3.829
MS.190         	10.025         	3.831
MS.191         	10.005         	3.825
MS.192         	9.985          	3.832
MS.193         	9.965          	3.828
MS.194         	9.945          	3.824
MS.195         	9.925          	3.83
MS.196         	9.905          	3.823
MS.197         	9.885          	3.818
MS.198         	9.865          	3.813
MS.199         	9.845          	3.824
MS.200         	9.825          	3.82
MS.201         	9.807          	3.818
MS.202         	9.787          	3.812
MS.203         	9.767          	3.806
MS.204         	9.747          	3.807
MS.205         	9.727          	3.811
MS.206         	9.71           	3.814
MS.207         	9.69           	3.807
MS.208         	9.67           	3.817
MS.209         	9.65           	3.812
MS.210         	9.632          	3.812
MS.211         	9.613          	3.817
MS.212         	9.592          	3.82
MS.213         	9.575          	3.815
MS.214         	9.555          	3.813
MS.215         	9.535          	3.801
MS.216         	9.517          	3.804
MS.217         	9.497          	3.808
MS.218         	9.48           	3.807
MS.219         	9.46           	3.808
MS.220         	9.44           	3.796
MS.221         	9.422          	3.796
MS.222         	9.403          	3.806
MS.223         	9.385          	3.8
MS.224         	9.365          	3.802
MS.225         	9.347          	3.802
MS.226         	9.327          	3.802
MS.227         	9.31           	3.804
MS.228         	9.29           	3.799
MS.229         	9.273          	3.795
MS.230         	9.255          	3.799
MS.231         	9.235          	3.803
MS.232         	9.217          	3.793
MS.233         	9.198          	3.795
MS.234         	9.18           	3.795
MS.235         	9.162          	3.789
MS.236         	9.142          	3.799
MS.237         	9.125          	3.796
MS.238         	9.108          	3.8
MS.239         	9.09           	3.782
MS.240         	9.07           	3.79
MS.241         	9.052          	3.796
MS.242         	9.035          	3.782
MS.243         	9.017          	3.788
MS.244         	8.997          	3.782
MS.245         	8.98           	3.791
MS.246         	8.962          	3.784
MS.247         	8.945          	3.793
MS.248         	8.927          	3.778
MS.249         	8.91           	3.785
MS.250         	8.89           	3.792
MS.251         	8.872          	3.771
MS.252         	8.855          	3.765
MS.253         	8.837          	3.785
MS.254         	8.82           	3.767
MS.255         	8.802          	3.766
MS.256         	8.785          	3.774
MS.257         	8.767          	3.771
MS.258         	8.75           	3.778
MS.259         	8.733          	3.776
MS.260         	8.715          	3.779
MS.261         	8.698          	3.77
MS.262         	8.68           	3.77
MS.263         	8.662          	3.774
MS.264         	8.645          	3.776
MS.265         	8.627          	3.773
MS.266         	8.61           	3.763
MS.267         	8.595          	3.767
MS.268         	8.577          	3.77
MS.269         	8.56           	3.763
MS.270         	8.542          	3.763
MS.271         	8.525          	3.763
MS.272         	8.507          	3.76
MS.273         	8.492          	3.763
MS.274         	8.475          	3.759
MS.275         	8.457          	3.766
MS.276         	8.44           	3.755
MS.277         	8.425          	3.757
MS.278         	8.408          	3.765
MS.279         	8.39           	3.757
MS.280         	8.372          	3.76
MS.281         	8.358          	3.76
MS.282         	8.34           	3.757
MS.283         	8.323          	3.765
MS.284         	8.307          	3.761
MS.285         	8.29           	3.753
MS.286         	8.273          	3.755
MS.287         	8.257          	3.759
MS.288         	8.24           	3.751
MS.289         	8.225          	3.749
MS.290         	8.207          	3.757
MS.291         	8.19           	3.751
MS.292         	8.175          	3.754
MS.293         	8.158          	3.757
MS.294         	8.142          	3.749
MS.295         	8.125          	3.753
MS.296         	8.11           	3.749
MS.297         	8.092          	3.752
MS.298         	8.077          	3.755
MS.299         	8.06           	3.754
MS.300         	8.045          	3.741
MS.301         	8.03           	3.739
MS.302         	8.012          	3.752
MS.303         	7.997          	3.747
MS.304         	7.98           	3.74
MS.305         	7.965          	3.749
MS.306         	7.95           	3.745
MS.307         	7.932          	3.748
MS.308         	7.918          	3.728
MS.309         	7.902          	3.747
MS.310         	7.885          	3.739
MS.311         	7.87           	3.741
MS.312         	7.855          	3.74
MS.313         	7.837          	3.76
MS.314         	7.822          	3.745
MS.315         	7.807          	3.743
MS.316         	7.793          	3.744
MS.317         	7.775          	3.748
MS.318         	7.76           	3.741
MS.319         	7.745          	3.755
MS.320         	7.73           	3.758
MS.321         	7.715          	3.738
MS.322         	7.697          	3.745
MS.323         	7.682          	3.749
MS.324         	7.668          	3.724
MS.325         	7.652          	3.739
MS.326         	7.637          	3.717
MS.327         	7.622          	3.755
MS.328         	7.607          	3.749
MS.329         	7.592          	3.752
MS.330         	7.577          	3.716
MS.331         	7.562          	3.728
MS.332         	7.547          	3.727
MS.333         	7.53           	3.699
MS.334         	7.515          	3.733
MS.335         	7.5            	3.712
MS.336         	7.485          	3.707
MS.337         	7.47           	3.716
MS.338         	7.457          	3.696
MS.339         	7.442          	3.729
MS.340         	7.427          	3.712
MS.341         	7.412          	3.728
MS.342         	7.398          	3.707
MS.343         	7.382          	3.69
MS.344         	7.367          	3.696
MS.345         	7.352          	3.712
MS.346         	7.337          	3.693
MS.347         	7.322          	3.702
MS.348         	7.307          	3.691
MS.349         	7.295          	3.704
MS.350         	7.28           	3.685
MS.351         	7.265          	3.694
MS.352         	7.25           	3.679
MS.353         	7.235          	3.701
MS.354         	7.222          	3.694
MS.355         	7.207          	3.687
MS.356         	7.192          	3.673
MS.357         	7.177          	3.672
MS.358         	7.165          	3.669
MS.359         	7.15           	3.685
MS.360         	7.135          	3.665
MS.361         	7.12           	3.696
MS.362         	7.108          	3.665
MS.363         	7.092          	3.655
MS.364         	7.077          	3.663
MS.365         	7.065          	3.677
MS.366         	7.05           	3.651
MS.367         	7.035          	3.661
MS.368         	7.023          	3.673
MS.369         	7.007          	3.652
MS.370         	6.995          	3.645
MS.371         	6.98           	3.646
MS.372         	6.965          	3.659
MS.373         	6.952          	3.649
MS.374         	6.938          	3.655
MS.375         	6.925          	3.649
MS.376         	6.91           	3.642
MS.377         	6.898          	3.644
MS.378         	6.882          	3.637
MS.379         	6.87           	3.641
MS.380         	6.855          	3.633
MS.381         	6.842          	3.632
MS.382         	6.827          	3.619
MS.383         	6.815          	3.625
MS.384         	6.8            	3.633
MS.385         	6.787          	3.638
MS.386         	6.775          	3.637
MS.387         	6.76           	3.631
MS.388         	6.747          	3.6
MS.389         	6.733          	3.624
MS.390         	6.72           	3.616
MS.391         	6.707          	3.588
MS.392         	6.692          	3.624
MS.393         	6.68           	3.606
MS.394         	6.665          	3.601
MS.395         	6.652          	3.618
MS.396         	6.64           	3.589
MS.397         	6.628          	3.565
MS.398         	6.612          	3.594
MS.399         	6.6            	3.585
MS.400         	6.587          	3.579
MS.401         	6.572          	3.564
MS.402         	6.56           	3.571
MS.403         	6.547          	3.561
MS.404         	6.535          	3.569
MS.405         	6.52           	3.578
MS.406         	6.507          	3.564
MS.407         	6.495          	3.558
MS.408         	6.483          	3.525
MS.409         	6.47           	3.571
MS.410         	6.457          	3.58
MS.411         	6.442          	3.546
MS.412         	6.43           	3.541
MS.413         	6.418          	3.558
MS.414         	6.405          	3.523
MS.415         	6.392          	3.553
MS.416         	6.38           	3.489
MS.417         	6.367          	3.551
MS.418         	6.355          	3.525
MS.419         	6.34           	3.506
MS.420         	6.327          	3.494
MS.421         	6.315          	3.472
MS.422         	6.302          	3.502
MS.423         	6.29           	3.492
MS.424         	6.277          	3.498
MS.425         	6.265          	3.471
MS.426         	6.253          	3.503
MS.427         	6.24           	3.493
MS.428         	6.227          	3.502
MS.429         	6.215          	3.444
MS.430         	6.202          	3.473
MS.431         	6.19           	3.406
MS.432         	6.177          	3.407
MS.433         	6.165          	3.46
MS.434         	6.152          	3.39
MS.435         	6.142          	3.394
MS.436         	6.13           	3.428
MS.437         	6.117          	3.4
MS.438         	6.105          	3.423
MS.439         	6.092          	3.286
MS.440         	6.08           	3.371
MS.441         	6.067          	3.297
MS.442         	6.055          	3.304
MS.443         	6.045          	3.343
MS.444         	6.032          	3.295
MS.445         	6.02           	3.282
MS.446         	6.007          	3.251
MS.447         	5.995          	3.185
MS.448         	5.985          	3.298
MS.449         	5.972          	3.223
MS.450         	5.96           	3.175
MS.451         	5.947          	3.106
MS.452         	5.935          	3.055
MS.453         	5.925          	3.195
MS.454         	5.912          	3.169
MS.455         	5.9            	3.176
MS.456         	5.89           	3.054
MS.457         	5.878          	3.116
MS.458         	5.865          	3.091
MS.459         	5.852          	3.13
MS.460         	5.842          	3.096
MS.461         	5.83           	2.988
MS.462         	5.817          	3.058
MS.463         	5.807          	2.966
MS.464         	5.795          	3.1
MS.465         	5.785          	2.952
MS.466         	5.773          	3.052
MS.467         	5.76           	3.069
MS.468         	5.75           	2.999
MS.469         	5.737          	2.98
MS.470         	5.725          	2.932
MS.471         	5.715          	3.015
MS.472         	5.702          	2.897
MS.473         	5.692          	2.944
MS.474         	5.68           	2.884
MS.475         	5.67           	2.903
MS.476         	5.657          	2.927
MS.477         	5.648          	2.916
MS.478         	5.635          	2.906
MS.479         	5.625          	2.903
MS.480         	5.612          	2.874
MS.481         	5.602          	2.902
MS.482         	5.59           	2.824
MS.483         	5.58           	2.855
MS.484         	5.567          	2.842
MS.485         	5.557          	2.788
MS.486         	5.545          	2.784
MS.487         	5.535          	2.791
MS.488         	5.525          	2.753
MS.489         	5.512          	2.799
MS.490         	5.503          	2.75
MS.491         	5.49           	2.714
MS.492         	5.48           	2.806
MS.493         	5.47           	2.755
MS.494         	5.457          	2.744
MS.495         	5.447          	2.77
MS.496         	5.435          	2.714
MS.497         	5.425          	2.704
MS.498         	5.415          	2.713
MS.499         	5.402          	2.7
MS.500         	5.392          	2.615
MS.501         	5.382          	2.634
MS.502         	5.37           	2.64
MS.503         	5.36           	2.702
