File:              	C:\Qtrac\Data\ME2C30630B.QZD
Name:              	 ME27D
Protocol:          	MSCAN-MV
Date:              	30/6/23
Date of birth:     	27/11/02
Age:               	20
Sex:               	M
Temperature:       	30.5
S/R sites:         	Knee CF-TA
NC/disease:        	NC
Operator:          	BY
Comments:
M-SCAN DATA (Repeat 4/4, 44.5-33.3m)
Scanpts: 76, 107, 825, 879
Stim. (mA)     	Amp. (mV)
MS.1           	12             	7.803
MS.2           	12             	7.825
MS.3           	12             	7.808
MS.4           	12             	7.814
MS.5           	12             	7.803
MS.6           	12             	7.804
MS.7           	12             	7.791
MS.8           	12             	7.787
MS.9           	12             	7.793
MS.10          	12             	7.794
MS.11          	12             	7.791
MS.12          	12             	7.8
MS.13          	12             	7.786
MS.14          	12             	7.789
MS.15          	12             	7.779
MS.16          	12             	7.789
MS.17          	12             	7.789
MS.18          	12             	7.785
MS.19          	12             	7.767
MS.20          	12             	7.784
MS.21          	12             	7.78
MS.22          	12             	7.792
MS.23          	12             	7.782
MS.24          	11.975         	7.776
MS.25          	11.952         	7.789
MS.26          	11.927         	7.773
MS.27          	11.905         	7.771
MS.28          	11.88          	7.778
MS.29          	11.858         	7.76
MS.30          	11.832         	7.776
MS.31          	11.81          	7.776
MS.32          	11.785         	7.763
MS.33          	11.762         	7.78
MS.34          	11.74          	7.776
MS.35          	11.715         	7.764
MS.36          	11.693         	7.756
MS.37          	11.667         	7.769
MS.38          	11.645         	7.77
MS.39          	11.622         	7.777
MS.40          	11.6           	7.751
MS.41          	11.575         	7.776
MS.42          	11.552         	7.757
MS.43          	11.53          	7.759
MS.44          	11.507         	7.743
MS.45          	11.483         	7.758
MS.46          	11.46          	7.769
MS.47          	11.438         	7.768
MS.48          	11.415         	7.763
MS.49          	11.392         	7.766
MS.50          	11.37          	7.753
MS.51          	11.347         	7.759
MS.52          	11.325         	7.762
MS.53          	11.3           	7.751
MS.54          	11.278         	7.757
MS.55          	11.255         	7.756
MS.56          	11.233         	7.753
MS.57          	11.21          	7.761
MS.58          	11.188         	7.762
MS.59          	11.167         	7.764
MS.60          	11.145         	7.759
MS.61          	11.122         	7.755
MS.62          	11.1           	7.751
MS.63          	11.077         	7.766
MS.64          	11.055         	7.768
MS.65          	11.032         	7.761
MS.66          	11.01          	7.753
MS.67          	10.99          	7.756
MS.68          	10.967         	7.746
MS.69          	10.945         	7.745
MS.70          	10.922         	7.757
MS.71          	10.903         	7.774
MS.72          	10.88          	7.746
MS.73          	10.858         	7.75
MS.74          	10.837         	7.765
MS.75          	10.815         	7.742
MS.76          	10.792         	7.769
MS.77          	10.773         	7.797
MS.78          	10.75          	7.765
MS.79          	10.727         	7.763
MS.80          	10.707         	7.796
MS.81          	10.685         	7.745
MS.82          	10.665         	7.756
MS.83          	10.642         	7.769
MS.84          	10.622         	7.749
MS.85          	10.6           	7.773
MS.86          	10.58          	7.756
MS.87          	10.557         	7.783
MS.88          	10.537         	7.738
MS.89          	10.515         	7.769
MS.90          	10.495         	7.778
MS.91          	10.475         	7.769
MS.92          	10.452         	7.772
MS.93          	10.432         	7.755
MS.94          	10.412         	7.773
MS.95          	10.39          	7.748
MS.96          	10.37          	7.786
MS.97          	10.35          	7.77
MS.98          	10.327         	7.777
MS.99          	10.307         	7.749
MS.100         	10.287         	7.764
MS.101         	10.267         	7.756
MS.102         	10.245         	7.766
MS.103         	10.225         	7.77
MS.104         	10.205         	7.78
MS.105         	10.185         	7.742
MS.106         	10.165         	7.755
MS.107         	10.145         	7.756
MS.108         	10.125         	7.758
MS.109         	10.105         	7.747
MS.110         	10.082         	7.751
MS.111         	10.062         	7.75
MS.112         	10.042         	7.753
MS.113         	10.023         	7.734
MS.114         	10.002         	7.756
MS.115         	9.983          	7.758
MS.116         	9.962          	7.751
MS.117         	9.943          	7.745
MS.118         	9.922          	7.749
MS.119         	9.903          	7.761
MS.120         	9.885          	7.753
MS.121         	9.865          	7.757
MS.122         	9.845          	7.76
MS.123         	9.825          	7.753
MS.124         	9.805          	7.744
MS.125         	9.785          	7.744
MS.126         	9.765          	7.762
MS.127         	9.747          	7.739
MS.128         	9.727          	7.741
MS.129         	9.707          	7.74
MS.130         	9.688          	7.751
MS.131         	9.67           	7.736
MS.132         	9.65           	7.744
MS.133         	9.63           	7.754
MS.134         	9.61           	7.74
MS.135         	9.592          	7.747
MS.136         	9.573          	7.743
MS.137         	9.552          	7.737
MS.138         	9.535          	7.744
MS.139         	9.515          	7.753
MS.140         	9.497          	7.723
MS.141         	9.477          	7.732
MS.142         	9.457          	7.738
MS.143         	9.44           	7.737
MS.144         	9.42           	7.736
MS.145         	9.403          	7.747
MS.146         	9.382          	7.751
MS.147         	9.365          	7.738
MS.148         	9.345          	7.754
MS.149         	9.327          	7.747
MS.150         	9.307          	7.745
MS.151         	9.29           	7.747
MS.152         	9.27           	7.74
MS.153         	9.252          	7.733
MS.154         	9.235          	7.729
MS.155         	9.215          	7.733
MS.156         	9.198          	7.738
MS.157         	9.18           	7.731
MS.158         	9.16           	7.727
MS.159         	9.142          	7.719
MS.160         	9.125          	7.746
MS.161         	9.105          	7.745
MS.162         	9.087          	7.75
MS.163         	9.07           	7.747
MS.164         	9.052          	7.731
MS.165         	9.033          	7.758
MS.166         	9.015          	7.712
MS.167         	8.997          	7.739
MS.168         	8.98           	7.733
MS.169         	8.96           	7.743
MS.170         	8.943          	7.744
MS.171         	8.925          	7.742
MS.172         	8.908          	7.73
MS.173         	8.89           	7.755
MS.174         	8.872          	7.745
MS.175         	8.855          	7.748
MS.176         	8.837          	7.73
MS.177         	8.82           	7.744
MS.178         	8.802          	7.75
MS.179         	8.785          	7.736
MS.180         	8.765          	7.75
MS.181         	8.747          	7.74
MS.182         	8.73           	7.741
MS.183         	8.715          	7.755
MS.184         	8.698          	7.736
MS.185         	8.68           	7.747
MS.186         	8.662          	7.729
MS.187         	8.645          	7.739
MS.188         	8.627          	7.75
MS.189         	8.61           	7.73
MS.190         	8.592          	7.727
MS.191         	8.575          	7.744
MS.192         	8.557          	7.723
MS.193         	8.542          	7.74
MS.194         	8.525          	7.744
MS.195         	8.507          	7.719
MS.196         	8.49           	7.736
MS.197         	8.472          	7.745
MS.198         	8.457          	7.728
MS.199         	8.44           	7.716
MS.200         	8.422          	7.717
MS.201         	8.405          	7.721
MS.202         	8.39           	7.724
MS.203         	8.372          	7.705
MS.204         	8.355          	7.719
MS.205         	8.337          	7.709
MS.206         	8.323          	7.721
MS.207         	8.305          	7.721
MS.208         	8.29           	7.707
MS.209         	8.273          	7.695
MS.210         	8.255          	7.703
MS.211         	8.24           	7.725
MS.212         	8.222          	7.711
MS.213         	8.207          	7.698
MS.214         	8.19           	7.705
MS.215         	8.172          	7.702
MS.216         	8.158          	7.7
MS.217         	8.14           	7.713
MS.218         	8.125          	7.703
MS.219         	8.108          	7.69
MS.220         	8.092          	7.707
MS.221         	8.075          	7.69
MS.222         	8.06           	7.694
MS.223         	8.045          	7.703
MS.224         	8.028          	7.679
MS.225         	8.012          	7.672
MS.226         	7.995          	7.686
MS.227         	7.98           	7.684
MS.228         	7.965          	7.677
MS.229         	7.947          	7.712
MS.230         	7.932          	7.701
MS.231         	7.915          	7.69
MS.232         	7.9            	7.687
MS.233         	7.885          	7.684
MS.234         	7.87           	7.686
MS.235         	7.852          	7.688
MS.236         	7.837          	7.645
MS.237         	7.822          	7.658
MS.238         	7.805          	7.655
MS.239         	7.79           	7.649
MS.240         	7.775          	7.654
MS.241         	7.76           	7.659
MS.242         	7.745          	7.652
MS.243         	7.727          	7.672
MS.244         	7.712          	7.664
MS.245         	7.697          	7.673
MS.246         	7.682          	7.652
MS.247         	7.668          	7.667
MS.248         	7.652          	7.661
MS.249         	7.637          	7.653
MS.250         	7.62           	7.66
MS.251         	7.605          	7.651
MS.252         	7.59           	7.679
MS.253         	7.575          	7.654
MS.254         	7.56           	7.664
MS.255         	7.545          	7.667
MS.256         	7.53           	7.644
MS.257         	7.515          	7.657
MS.258         	7.5            	7.643
MS.259         	7.485          	7.664
MS.260         	7.47           	7.664
MS.261         	7.455          	7.642
MS.262         	7.44           	7.642
MS.263         	7.425          	7.631
MS.264         	7.41           	7.684
MS.265         	7.395          	7.658
MS.266         	7.38           	7.645
MS.267         	7.365          	7.634
MS.268         	7.352          	7.62
MS.269         	7.337          	7.649
MS.270         	7.322          	7.652
MS.271         	7.307          	7.672
MS.272         	7.293          	7.65
MS.273         	7.277          	7.591
MS.274         	7.265          	7.601
MS.275         	7.25           	7.613
MS.276         	7.235          	7.627
MS.277         	7.22           	7.618
MS.278         	7.205          	7.631
MS.279         	7.192          	7.618
MS.280         	7.177          	7.607
MS.281         	7.162          	7.512
MS.282         	7.148          	7.608
MS.283         	7.135          	7.6
MS.284         	7.12           	7.595
MS.285         	7.105          	7.61
MS.286         	7.092          	7.602
MS.287         	7.077          	7.6
MS.288         	7.062          	7.608
MS.289         	7.05           	7.625
MS.290         	7.035          	7.612
MS.291         	7.02           	7.589
MS.292         	7.007          	7.596
MS.293         	6.992          	7.481
MS.294         	6.98           	7.504
MS.295         	6.965          	7.607
MS.296         	6.95           	7.59
MS.297         	6.938          	7.521
MS.298         	6.922          	7.521
MS.299         	6.91           	7.424
MS.300         	6.895          	7.526
MS.301         	6.882          	7.545
MS.302         	6.867          	7.432
MS.303         	6.855          	7.419
MS.304         	6.84           	7.432
MS.305         	6.827          	7.482
MS.306         	6.812          	7.413
MS.307         	6.8            	7.364
MS.308         	6.787          	7.404
MS.309         	6.773          	7.429
MS.310         	6.76           	7.36
MS.311         	6.745          	7.291
MS.312         	6.733          	7.367
MS.313         	6.72           	7.405
MS.314         	6.705          	7.33
MS.315         	6.692          	7.24
MS.316         	6.677          	7.296
MS.317         	6.665          	7.3
MS.318         	6.652          	7.362
MS.319         	6.637          	7.288
MS.320         	6.625          	7.15
MS.321         	6.612          	7.299
MS.322         	6.6            	7.151
MS.323         	6.585          	7.23
MS.324         	6.572          	7.229
MS.325         	6.56           	7.211
MS.326         	6.547          	7.213
MS.327         	6.532          	7.056
MS.328         	6.52           	7.158
MS.329         	6.507          	7.161
MS.330         	6.495          	7.134
MS.331         	6.48           	7.173
MS.332         	6.467          	7.026
MS.333         	6.455          	7.059
MS.334         	6.442          	7.057
MS.335         	6.43           	7.027
MS.336         	6.418          	7.039
MS.337         	6.405          	7.071
MS.338         	6.39           	7.133
MS.339         	6.378          	6.944
MS.340         	6.365          	7.061
MS.341         	6.352          	7.013
MS.342         	6.34           	7.034
MS.343         	6.327          	6.965
MS.344         	6.315          	7.058
MS.345         	6.302          	6.935
MS.346         	6.29           	7.028
MS.347         	6.277          	6.975
MS.348         	6.265          	6.87
MS.349         	6.253          	6.967
MS.350         	6.24           	6.975
MS.351         	6.227          	6.912
MS.352         	6.215          	6.83
MS.353         	6.202          	6.86
MS.354         	6.19           	6.887
MS.355         	6.177          	6.867
MS.356         	6.165          	6.901
MS.357         	6.152          	6.877
MS.358         	6.14           	6.903
MS.359         	6.128          	6.788
MS.360         	6.115          	6.814
MS.361         	6.105          	6.804
MS.362         	6.092          	6.755
MS.363         	6.08           	6.75
MS.364         	6.067          	6.646
MS.365         	6.055          	6.741
MS.366         	6.043          	6.588
MS.367         	6.03           	6.746
MS.368         	6.02           	6.722
MS.369         	6.007          	6.715
MS.370         	5.995          	6.707
MS.371         	5.983          	6.623
MS.372         	5.97           	6.633
MS.373         	5.96           	6.516
MS.374         	5.947          	6.562
MS.375         	5.935          	6.507
MS.376         	5.922          	6.501
MS.377         	5.912          	6.442
MS.378         	5.9            	6.478
MS.379         	5.887          	6.473
MS.380         	5.875          	6.411
MS.381         	5.865          	6.472
MS.382         	5.852          	6.469
MS.383         	5.84           	6.486
MS.384         	5.83           	6.453
MS.385         	5.817          	6.458
MS.386         	5.805          	6.361
MS.387         	5.795          	6.387
MS.388         	5.782          	6.328
MS.389         	5.773          	6.281
MS.390         	5.76           	6.408
MS.391         	5.747          	6.304
MS.392         	5.737          	6.223
MS.393         	5.725          	6.307
MS.394         	5.715          	6.222
MS.395         	5.702          	6.259
MS.396         	5.69           	6.318
MS.397         	5.68           	6.31
MS.398         	5.668          	6.107
MS.399         	5.657          	6.222
MS.400         	5.645          	6.008
MS.401         	5.635          	6.221
MS.402         	5.622          	6.059
MS.403         	5.612          	6.052
MS.404         	5.6            	5.988
MS.405         	5.59           	6.159
MS.406         	5.577          	5.929
MS.407         	5.567          	6.006
MS.408         	5.555          	6.066
MS.409         	5.545          	5.997
MS.410         	5.535          	5.983
MS.411         	5.523          	6.052
MS.412         	5.512          	5.996
MS.413         	5.5            	5.989
MS.414         	5.49           	5.792
MS.415         	5.48           	5.939
MS.416         	5.467          	5.839
MS.417         	5.457          	5.844
MS.418         	5.445          	5.715
MS.419         	5.435          	5.708
MS.420         	5.425          	5.618
MS.421         	5.412          	5.752
MS.422         	5.402          	5.757
MS.423         	5.392          	5.649
MS.424         	5.38           	5.616
MS.425         	5.37           	5.67
MS.426         	5.36           	5.629
MS.427         	5.35           	5.505
MS.428         	5.338          	5.56
MS.429         	5.327          	5.541
MS.430         	5.318          	5.421
MS.431         	5.307          	5.442
MS.432         	5.295          	5.432
MS.433         	5.285          	5.273
MS.434         	5.275          	5.417
MS.435         	5.265          	5.316
MS.436         	5.253          	5.187
MS.437         	5.242          	5.325
MS.438         	5.233          	5.186
MS.439         	5.222          	5.106
MS.440         	5.213          	5.182
MS.441         	5.202          	5.2
MS.442         	5.19           	5.108
MS.443         	5.18           	5.28
MS.444         	5.17           	5.144
MS.445         	5.16           	4.97
MS.446         	5.15           	4.977
MS.447         	5.14           	5.007
MS.448         	5.13           	4.969
MS.449         	5.117          	4.794
MS.450         	5.108          	4.833
MS.451         	5.097          	4.848
MS.452         	5.088          	4.781
MS.453         	5.077          	4.799
MS.454         	5.068          	4.814
MS.455         	5.057          	4.731
MS.456         	5.047          	4.749
MS.457         	5.037          	4.566
MS.458         	5.027          	4.542
MS.459         	5.017          	4.583
MS.460         	5.007          	4.54
MS.461         	4.997          	4.434
MS.462         	4.987          	4.338
MS.463         	4.977          	4.506
MS.464         	4.967          	4.344
MS.465         	4.957          	4.334
MS.466         	4.947          	4.305
MS.467         	4.938          	4.303
MS.468         	4.927          	4.266
MS.469         	4.918          	4.316
MS.470         	4.907          	4.17
MS.471         	4.898          	4.127
MS.472         	4.887          	4.02
MS.473         	4.88           	4.083
MS.474         	4.87           	4.09
MS.475         	4.86           	4.078
MS.476         	4.85           	3.96
MS.477         	4.84           	3.849
MS.478         	4.83           	4.036
MS.479         	4.82           	3.916
MS.480         	4.81           	3.885
MS.481         	4.802          	3.748
MS.482         	4.793          	3.763
MS.483         	4.782          	3.707
MS.484         	4.773          	3.663
MS.485         	4.762          	3.635
MS.486         	4.753          	3.708
MS.487         	4.745          	3.649
MS.488         	4.735          	3.528
MS.489         	4.725          	3.588
MS.490         	4.715          	3.521
MS.491         	4.707          	3.594
MS.492         	4.697          	3.525
MS.493         	4.688          	3.489
MS.494         	4.677          	3.569
MS.495         	4.67           	3.467
MS.496         	4.66           	3.323
MS.497         	4.65           	3.423
MS.498         	4.64           	3.459
MS.499         	4.632          	3.461
MS.500         	4.622          	3.282
MS.501         	4.612          	3.337
MS.502         	4.605          	3.311
MS.503         	4.595          	3.176
