File:              	C:\Qtrac\Data\ME2C30627C.QZD
Name:              	 AR18E
Protocol:          	MSCAN-MV
Date:              	27/6/23
Date of birth:     	18/10/02
Age:               	20
Sex:               	M
Temperature:       	31.7
S/R sites:         	Knee CF-TA
NC/disease:        	NC
Operator:          	KJ
Comments:
M-SCAN DATA (Repeat 3/3, 24-18m)
Scanpts: 2, 14, 438, 493
Stim. (mA)     	Amp. (mV)
MS.1           	26             	6.105
MS.2           	25.5           	6.039
MS.3           	25.5           	6.063
MS.4           	25.5           	6.033
MS.5           	25.5           	6.03
MS.6           	25.5           	6.075
MS.7           	25.5           	6.111
MS.8           	25.5           	6.046
MS.9           	25.5           	6.043
MS.10          	25.5           	6.073
MS.11          	25.5           	6.048
MS.12          	25.5           	6.001
MS.13          	25.5           	6.056
MS.14          	25.5           	6.022
MS.15          	25.5           	6.021
MS.16          	25.5           	5.992
MS.17          	25.5           	6.08
MS.18          	25.5           	5.97
MS.19          	25.5           	6.049
MS.20          	25.5           	6.011
MS.21          	25.5           	6.114
MS.22          	25.5           	6.024
MS.23          	25.5           	6.027
MS.24          	25.45          	5.962
MS.25          	25.397         	5.952
MS.26          	25.347         	6.052
MS.27          	25.297         	5.978
MS.28          	25.247         	5.971
MS.29          	25.195         	6
MS.30          	25.145         	5.997
MS.31          	25.095         	6.011
MS.32          	25.045         	5.929
MS.33          	24.995         	5.989
MS.34          	24.945         	5.98
MS.35          	24.895         	5.986
MS.36          	24.845         	6.037
MS.37          	24.795         	5.948
MS.38          	24.747         	5.952
MS.39          	24.698         	5.991
MS.40          	24.647         	5.949
MS.41          	24.597         	5.928
MS.42          	24.55          	5.952
MS.43          	24.5           	5.905
MS.44          	24.45          	5.96
MS.45          	24.403         	5.961
MS.46          	24.352         	5.951
MS.47          	24.305         	5.934
MS.48          	24.257         	5.956
MS.49          	24.207         	5.937
MS.50          	24.16          	5.911
MS.51          	24.11          	5.935
MS.52          	24.062         	5.927
MS.53          	24.015         	5.881
MS.54          	23.967         	5.931
MS.55          	23.92          	5.933
MS.56          	23.872         	5.889
MS.57          	23.823         	5.928
MS.58          	23.775         	5.928
MS.59          	23.727         	5.89
MS.60          	23.68          	5.893
MS.61          	23.635         	5.925
MS.62          	23.587         	5.832
MS.63          	23.54          	5.886
MS.64          	23.493         	5.881
MS.65          	23.445         	5.803
MS.66          	23.397         	5.769
MS.67          	23.352         	5.891
MS.68          	23.305         	5.81
MS.69          	23.257         	5.764
MS.70          	23.212         	5.811
MS.71          	23.165         	5.843
MS.72          	23.12          	5.87
MS.73          	23.073         	5.825
MS.74          	23.028         	5.849
MS.75          	22.98          	5.79
MS.76          	22.935         	5.775
MS.77          	22.89          	5.8
MS.78          	22.845         	5.748
MS.79          	22.797         	5.818
MS.80          	22.752         	5.797
MS.81          	22.707         	5.833
MS.82          	22.663         	5.792
MS.83          	22.618         	5.831
MS.84          	22.573         	5.811
MS.85          	22.525         	5.767
MS.86          	22.48          	5.82
MS.87          	22.438         	5.818
MS.88          	22.392         	5.825
MS.89          	22.347         	5.845
MS.90          	22.302         	5.724
MS.91          	22.257         	5.756
MS.92          	22.212         	5.847
MS.93          	22.167         	5.829
MS.94          	22.125         	5.753
MS.95          	22.08          	5.692
MS.96          	22.035         	5.69
MS.97          	21.993         	5.726
MS.98          	21.948         	5.786
MS.99          	21.905         	5.625
MS.100         	21.86          	5.677
MS.101         	21.817         	5.602
MS.102         	21.772         	5.653
MS.103         	21.73          	5.659
MS.104         	21.688         	5.632
MS.105         	21.642         	5.631
MS.106         	21.6           	5.623
MS.107         	21.557         	5.672
MS.108         	21.512         	5.615
MS.109         	21.47          	5.635
MS.110         	21.427         	5.656
MS.111         	21.385         	5.52
MS.112         	21.342         	5.566
MS.113         	21.3           	5.59
MS.114         	21.257         	5.652
MS.115         	21.215         	5.624
MS.116         	21.172         	5.574
MS.117         	21.13          	5.588
MS.118         	21.087         	5.544
MS.119         	21.045         	5.417
MS.120         	21.002         	5.477
MS.121         	20.962         	5.427
MS.122         	20.92          	5.359
MS.123         	20.877         	5.483
MS.124         	20.835         	5.347
MS.125         	20.795         	5.294
MS.126         	20.752         	5.302
MS.127         	20.712         	5.251
MS.128         	20.67          	5.323
MS.129         	20.627         	5.338
MS.130         	20.587         	5.306
MS.131         	20.545         	5.223
MS.132         	20.505         	5.289
MS.133         	20.465         	5.216
MS.134         	20.422         	5.224
MS.135         	20.382         	5.359
MS.136         	20.342         	5.416
MS.137         	20.3           	5.251
MS.138         	20.26          	5.168
MS.139         	20.22          	5.266
MS.140         	20.18          	5.265
MS.141         	20.14          	5.253
MS.142         	20.1           	5.179
MS.143         	20.06          	5.049
MS.144         	20.02          	5.182
MS.145         	19.98          	5.149
MS.146         	19.94          	5.114
MS.147         	19.9           	5.088
MS.148         	19.86          	5.059
MS.149         	19.82          	5.116
MS.150         	19.78          	5.032
MS.151         	19.74          	5.134
MS.152         	19.7           	4.969
MS.153         	19.663         	4.9
MS.154         	19.622         	5.028
MS.155         	19.583         	4.895
MS.156         	19.545         	4.957
MS.157         	19.505         	4.894
MS.158         	19.465         	4.823
MS.159         	19.427         	4.734
MS.160         	19.387         	4.874
MS.161         	19.35          	4.763
MS.162         	19.31          	4.827
MS.163         	19.272         	4.673
MS.164         	19.235         	4.782
MS.165         	19.195         	4.792
MS.166         	19.157         	4.843
MS.167         	19.12          	4.744
MS.168         	19.08          	4.52
MS.169         	19.042         	4.607
MS.170         	19.005         	4.612
MS.171         	18.967         	4.518
MS.172         	18.927         	4.493
MS.173         	18.89          	4.598
MS.174         	18.852         	4.425
MS.175         	18.815         	4.354
MS.176         	18.778         	4.385
MS.177         	18.74          	4.275
MS.178         	18.702         	4.395
MS.179         	18.665         	4.398
MS.180         	18.628         	4.084
MS.181         	18.59          	4.268
MS.182         	18.555         	4.405
MS.183         	18.517         	4.268
MS.184         	18.48          	4.312
MS.185         	18.442         	4.103
MS.186         	18.405         	4.142
MS.187         	18.37          	4.071
MS.188         	18.333         	4.153
MS.189         	18.295         	4.197
MS.190         	18.26          	4.079
MS.191         	18.222         	4.12
MS.192         	18.188         	4.073
MS.193         	18.15          	4.124
MS.194         	18.115         	4.086
MS.195         	18.077         	3.953
MS.196         	18.042         	3.995
MS.197         	18.005         	3.806
MS.198         	17.97          	3.988
MS.199         	17.932         	3.964
MS.200         	17.897         	3.893
MS.201         	17.862         	3.94
MS.202         	17.827         	3.864
MS.203         	17.79          	3.867
MS.204         	17.755         	3.772
MS.205         	17.72          	3.676
MS.206         	17.685         	3.656
MS.207         	17.65          	3.594
MS.208         	17.612         	3.72
MS.209         	17.577         	3.801
MS.210         	17.542         	3.539
MS.211         	17.507         	3.502
MS.212         	17.472         	3.577
MS.213         	17.438         	3.649
MS.214         	17.403         	3.326
MS.215         	17.37          	3.411
MS.216         	17.335         	3.436
MS.217         	17.3           	3.494
MS.218         	17.265         	3.445
MS.219         	17.23          	3.331
MS.220         	17.195         	3.401
MS.221         	17.163         	3.314
MS.222         	17.128         	3.293
MS.223         	17.092         	3.279
MS.224         	17.06          	3.247
MS.225         	17.025         	3.287
MS.226         	16.99          	3.315
MS.227         	16.958         	3.126
MS.228         	16.922         	3.083
MS.229         	16.89          	2.96
MS.230         	16.855         	3.011
MS.231         	16.823         	3.094
MS.232         	16.788         	2.935
MS.233         	16.755         	2.885
MS.234         	16.72          	3.129
MS.235         	16.688         	3.049
MS.236         	16.655         	3.01
MS.237         	16.62          	2.991
MS.238         	16.587         	2.855
MS.239         	16.555         	2.804
MS.240         	16.522         	2.778
MS.241         	16.49          	2.897
MS.242         	16.455         	2.825
MS.243         	16.422         	2.822
MS.244         	16.39          	2.768
MS.245         	16.358         	2.812
MS.246         	16.325         	2.562
MS.247         	16.292         	2.67
MS.248         	16.26          	2.828
MS.249         	16.227         	2.742
MS.250         	16.195         	2.538
MS.251         	16.163         	2.559
MS.252         	16.13          	2.435
MS.253         	16.097         	2.377
MS.254         	16.065         	2.252
MS.255         	16.032         	2.264
MS.256         	16.003         	2.209
MS.257         	15.97          	2.21
MS.258         	15.938         	2.35
MS.259         	15.905         	2.182
MS.260         	15.875         	2.239
MS.261         	15.842         	2.169
MS.262         	15.81          	2.139
MS.263         	15.78          	2.079
MS.264         	15.747         	1.985
MS.265         	15.715         	1.877
MS.266         	15.685         	1.835
MS.267         	15.652         	1.915
MS.268         	15.622         	1.921
MS.269         	15.59          	1.898
MS.270         	15.56          	1.809
MS.271         	15.527         	1.721
MS.272         	15.497         	1.756
MS.273         	15.467         	1.652
MS.274         	15.435         	1.624
MS.275         	15.405         	1.651
MS.276         	15.375         	1.597
MS.277         	15.342         	1.548
MS.278         	15.312         	1.52
MS.279         	15.282         	1.47
MS.280         	15.252         	1.502
MS.281         	15.22          	1.448
MS.282         	15.19          	1.408
MS.283         	15.16          	1.392
MS.284         	15.13          	1.36
MS.285         	15.1           	1.313
MS.286         	15.07          	1.295
MS.287         	15.04          	1.333
MS.288         	15.01          	1.365
MS.289         	14.98          	1.248
MS.290         	14.95          	1.263
MS.291         	14.92          	1.263
MS.292         	14.89          	1.205
MS.293         	14.86          	1.258
MS.294         	14.83          	1.221
MS.295         	14.8           	1.14
MS.296         	14.77          	1.079
MS.297         	14.742         	1.055
MS.298         	14.712         	0.992
MS.299         	14.682         	1.121
MS.300         	14.652         	1.045
MS.301         	14.625         	1.025
MS.302         	14.595         	0.866
MS.303         	14.565         	1.054
MS.304         	14.537         	0.895
MS.305         	14.507         	0.848
MS.306         	14.477         	0.879
MS.307         	14.45          	0.843
MS.308         	14.42          	0.779
MS.309         	14.392         	0.731
MS.310         	14.362         	0.767
MS.311         	14.335         	0.705
MS.312         	14.305         	0.699
MS.313         	14.278         	0.703
MS.314         	14.25          	0.683
MS.315         	14.22          	0.698
MS.316         	14.193         	0.646
MS.317         	14.162         	0.602
MS.318         	14.135         	0.629
MS.319         	14.108         	0.618
MS.320         	14.08          	0.536
MS.321         	14.05          	0.59
MS.322         	14.023         	0.627
MS.323         	13.995         	0.547
MS.324         	13.967         	0.505
MS.325         	13.94          	0.563
MS.326         	13.91          	0.407
MS.327         	13.882         	0.448
MS.328         	13.855         	0.51
MS.329         	13.827         	0.422
MS.330         	13.8           	0.422
MS.331         	13.773         	0.439
MS.332         	13.745         	0.374
MS.333         	13.717         	0.411
MS.334         	13.69          	0.458
MS.335         	13.662         	0.384
MS.336         	13.635         	0.46
MS.337         	13.608         	0.423
MS.338         	13.58          	0.38
MS.339         	13.555         	0.311
MS.340         	13.528         	0.365
MS.341         	13.5           	0.322
MS.342         	13.472         	0.369
MS.343         	13.445         	0.318
MS.344         	13.42          	0.338
MS.345         	13.392         	0.276
MS.346         	13.365         	0.292
MS.347         	13.34          	0.246
MS.348         	13.312         	0.228
MS.349         	13.285         	0.234
MS.350         	13.26          	0.233
MS.351         	13.233         	0.185
MS.352         	13.205         	0.203
MS.353         	13.18          	0.222
MS.354         	13.153         	0.192
MS.355         	13.127         	0.209
MS.356         	13.1           	0.19
MS.357         	13.075         	0.178
MS.358         	13.047         	0.166
MS.359         	13.023         	0.129
MS.360         	12.997         	0.113
MS.361         	12.97          	0.156
MS.362         	12.945         	0.139
MS.363         	12.917         	0.154
MS.364         	12.892         	0.093
MS.365         	12.867         	0.117
MS.366         	12.842         	0.089
MS.367         	12.815         	0.078
MS.368         	12.79          	0.114
MS.369         	12.765         	0.085
MS.370         	12.74          	0.063
MS.371         	12.712         	0.051
MS.372         	12.688         	0.083
MS.373         	12.662         	0.056
MS.374         	12.637         	0.051
MS.375         	12.613         	0.066
MS.376         	12.587         	0.05
MS.377         	12.562         	0.065
MS.378         	12.537         	0.063
MS.379         	12.512         	0.042
MS.380         	12.488         	0.051
MS.381         	12.462         	0.032
MS.382         	12.438         	0.026
MS.383         	12.412         	0.021
MS.384         	12.387         	0.01
MS.385         	12.363         	0.021
MS.386         	12.337         	0.035
MS.387         	12.312         	0.03
MS.388         	12.287         	0.013
MS.389         	12.265         	0.001
MS.390         	12.24          	0.004
MS.391         	12.215         	0.003
MS.392         	12.19          	0.037
MS.393         	12.167         	-0.006
MS.394         	12.142         	0.005
MS.395         	12.117         	-0.002
MS.396         	12.092         	-0.021
MS.397         	12.07          	-0.006
MS.398         	12.045         	0.011
MS.399         	12.023         	-0.005
MS.400         	11.997         	-0.02
MS.401         	11.972         	-0.026
MS.402         	11.95          	-0.025
MS.403         	11.925         	-0.016
MS.404         	11.903         	-0.014
MS.405         	11.877         	-0.039
MS.406         	11.855         	-0.038
MS.407         	11.83          	-0.041
MS.408         	11.807         	-0.026
MS.409         	11.782         	-0.04
MS.410         	11.76          	-0.026
MS.411         	11.735         	-0.053
MS.412         	11.712         	-0.037
MS.413         	11.69          	-0.057
MS.414         	11.665         	-0.044
MS.415         	11.642         	-0.07
MS.416         	11.62          	-0.067
MS.417         	11.595         	-0.055
MS.418         	11.572         	-0.071
MS.419         	11.55          	-0.059
MS.420         	11.528         	-0.054
MS.421         	11.505         	-0.067
MS.422         	11.48          	-0.048
MS.423         	11.457         	-0.068
MS.424         	11.435         	-0.067
MS.425         	11.412         	-0.065
MS.426         	11.39          	-0.076
MS.427         	11.367         	-0.065
MS.428         	11.345         	-0.067
MS.429         	11.32          	-0.07
MS.430         	11.297         	-0.074
MS.431         	11.275         	-0.075
MS.432         	11.252         	-0.093
MS.433         	11.23          	-0.084
MS.434         	11.207         	-0.079
MS.435         	11.185         	-0.073
MS.436         	11.165         	-0.074
MS.437         	11.142         	-0.084
MS.438         	11.12          	-0.082
MS.439         	11.097         	-0.085
MS.440         	11.075         	-0.083
MS.441         	11.052         	-0.085
MS.442         	11.03          	-0.079
MS.443         	11.007         	-0.085
MS.444         	10.988         	-0.083
MS.445         	10.965         	-0.082
MS.446         	10.943         	-0.086
MS.447         	10.92          	-0.084
MS.448         	10.9           	-0.085
MS.449         	10.877         	-0.082
MS.450         	10.855         	-0.085
MS.451         	10.835         	-0.085
MS.452         	10.812         	-0.09
MS.453         	10.79          	-0.083
MS.454         	10.77          	-0.082
MS.455         	10.747         	-0.081
MS.456         	10.725         	-0.092
MS.457         	10.705         	-0.079
MS.458         	10.682         	-0.087
MS.459         	10.662         	-0.084
MS.460         	10.64          	-0.087
MS.461         	10.62          	-0.08
MS.462         	10.597         	-0.084
MS.463         	10.577         	-0.081
MS.464         	10.555         	-0.082
MS.465         	10.535         	-0.082
MS.466         	10.512         	-0.081
MS.467         	10.492         	-0.077
MS.468         	10.472         	-0.08
MS.469         	10.45          	-0.08
MS.470         	10.43          	-0.079
MS.471         	10.41          	-0.078
MS.472         	10.387         	-0.076
MS.473         	10.367         	-0.079
MS.474         	10.347         	-0.08
MS.475         	10.325         	-0.074
MS.476         	10.305         	-0.079
MS.477         	10.285         	-0.074
MS.478         	10.265         	-0.079
MS.479         	10.245         	-0.075
MS.480         	10.222         	-0.077
MS.481         	10.202         	-0.074
MS.482         	10.182         	-0.074
MS.483         	10.162         	-0.078
MS.484         	10.142         	-0.075
MS.485         	10.122         	-0.077
MS.486         	10.102         	-0.074
MS.487         	10.082         	-0.076
MS.488         	10.06          	-0.073
MS.489         	10.04          	-0.074
MS.490         	10.02          	-0.071
MS.491         	10             	-0.078
MS.492         	9.98           	-0.073
MS.493         	9.96           	-0.071
DERIVED EXCITABILITY VARIABLES
Program = QTracP 27/06/2023
Threshold method = 6 (optimised for CAP, using data for present condition only)
SR method = 1 (using actual data values)
6.                 	0.000               	Peak response\(mV)
9.                 	31.7                	Temperature ( C)
