File:              	C:\Qtrac\Data\ME2C30623B.QZD
Name:              	 JO31X
Protocol:          	MSCAN-MV
Date:              	23/6/23
Date of birth:     	31/10/91
Age:               	31
Sex:               	M
Temperature:       	33.5
S/R sites:         	Knee CF-TA
NC/disease:        	NC
Operator:          	BY
Comments:
M-SCAN DATA (Repeat 1/3, 9.5-3.2m)
Scanpts: 20, 31, 452, 470
Stim. (mA)     	Amp. (mV)
MS.1           	9              	5.883
MS.2           	9              	5.92
MS.3           	9              	5.945
MS.4           	9              	5.956
MS.5           	9              	5.977
MS.6           	9              	5.898
MS.7           	9              	5.956
MS.8           	9              	5.932
MS.9           	9              	5.922
MS.10          	9              	5.958
MS.11          	9              	5.923
MS.12          	9              	5.945
MS.13          	9              	5.991
MS.14          	9              	5.969
MS.15          	9              	5.959
MS.16          	9              	5.914
MS.17          	9              	5.917
MS.18          	9              	5.928
MS.19          	9              	5.934
MS.20          	9              	5.969
MS.21          	9              	5.97
MS.22          	9              	5.945
MS.23          	9              	5.987
MS.24          	8.965          	5.967
MS.25          	8.945          	5.955
MS.26          	8.927          	5.944
MS.27          	8.91           	5.968
MS.28          	8.892          	5.957
MS.29          	8.875          	5.968
MS.30          	8.858          	5.952
MS.31          	8.84           	5.943
MS.32          	8.823          	5.967
MS.33          	8.805          	5.995
MS.34          	8.787          	6.008
MS.35          	8.77           	5.981
MS.36          	8.752          	5.944
MS.37          	8.735          	5.983
MS.38          	8.717          	5.933
MS.39          	8.7            	5.966
MS.40          	8.682          	5.984
MS.41          	8.665          	6
MS.42          	8.648          	6
MS.43          	8.63           	5.985
MS.44          	8.613          	5.972
MS.45          	8.595          	6.003
MS.46          	8.577          	5.987
MS.47          	8.56           	5.989
MS.48          	8.545          	5.983
MS.49          	8.528          	5.99
MS.50          	8.51           	5.99
MS.51          	8.492          	5.931
MS.52          	8.475          	5.996
MS.53          	8.46           	5.972
MS.54          	8.443          	5.999
MS.55          	8.425          	5.927
MS.56          	8.408          	5.912
MS.57          	8.392          	5.944
MS.58          	8.375          	5.994
MS.59          	8.358          	5.952
MS.60          	8.342          	5.959
MS.61          	8.325          	5.905
MS.62          	8.307          	5.951
MS.63          	8.292          	5.968
MS.64          	8.275          	5.934
MS.65          	8.257          	5.899
MS.66          	8.242          	5.952
MS.67          	8.225          	5.904
MS.68          	8.21           	5.926
MS.69          	8.193          	5.938
MS.70          	8.175          	5.906
MS.71          	8.16           	5.945
MS.72          	8.142          	5.886
MS.73          	8.127          	5.948
MS.74          	8.11           	5.927
MS.75          	8.095          	5.896
MS.76          	8.077          	5.948
MS.77          	8.062          	5.98
MS.78          	8.047          	5.911
MS.79          	8.03           	5.97
MS.80          	8.015          	5.941
MS.81          	7.997          	5.997
MS.82          	7.982          	5.95
MS.83          	7.967          	5.917
MS.84          	7.95           	5.931
MS.85          	7.935          	5.942
MS.86          	7.918          	5.964
MS.87          	7.902          	5.948
MS.88          	7.887          	5.992
MS.89          	7.872          	5.933
MS.90          	7.855          	5.953
MS.91          	7.84           	5.908
MS.92          	7.825          	5.906
MS.93          	7.807          	5.82
MS.94          	7.793          	5.883
MS.95          	7.777          	5.893
MS.96          	7.762          	5.942
MS.97          	7.747          	5.913
MS.98          	7.73           	5.882
MS.99          	7.715          	5.85
MS.100         	7.7            	5.826
MS.101         	7.685          	5.924
MS.102         	7.67           	5.858
MS.103         	7.655          	5.884
MS.104         	7.637          	5.861
MS.105         	7.622          	5.767
MS.106         	7.607          	5.721
MS.107         	7.592          	5.765
MS.108         	7.577          	5.747
MS.109         	7.562          	5.731
MS.110         	7.547          	5.75
MS.111         	7.532          	5.779
MS.112         	7.517          	5.693
MS.113         	7.503          	5.753
MS.114         	7.487          	5.692
MS.115         	7.472          	5.698
MS.116         	7.457          	5.753
MS.117         	7.442          	5.744
MS.118         	7.427          	5.745
MS.119         	7.412          	5.773
MS.120         	7.398          	5.615
MS.121         	7.382          	5.585
MS.122         	7.367          	5.555
MS.123         	7.355          	5.605
MS.124         	7.34           	5.592
MS.125         	7.325          	5.549
MS.126         	7.31           	5.476
MS.127         	7.295          	5.557
MS.128         	7.28           	5.55
MS.129         	7.265          	5.593
MS.130         	7.253          	5.468
MS.131         	7.237          	5.441
MS.132         	7.222          	5.53
MS.133         	7.207          	5.618
MS.134         	7.195          	5.465
MS.135         	7.18           	5.504
MS.136         	7.165          	5.443
MS.137         	7.15           	5.325
MS.138         	7.137          	5.233
MS.139         	7.122          	5.326
MS.140         	7.108          	5.32
MS.141         	7.095          	5.236
MS.142         	7.08           	5.32
MS.143         	7.065          	5.249
MS.144         	7.052          	5.355
MS.145         	7.037          	5.297
MS.146         	7.023          	4.919
MS.147         	7.01           	4.91
MS.148         	6.995          	4.957
MS.149         	6.98           	4.841
MS.150         	6.967          	4.82
MS.151         	6.952          	4.908
MS.152         	6.94           	5.068
MS.153         	6.925          	4.702
MS.154         	6.912          	4.819
MS.155         	6.898          	4.666
MS.156         	6.885          	4.51
MS.157         	6.87           	4.51
MS.158         	6.858          	4.646
MS.159         	6.842          	4.618
MS.160         	6.83           	4.709
MS.161         	6.815          	4.493
MS.162         	6.802          	4.764
MS.163         	6.787          	4.412
MS.164         	6.775          	4.484
MS.165         	6.762          	4.506
MS.166         	6.747          	4.503
MS.167         	6.735          	4.589
MS.168         	6.72           	4.594
MS.169         	6.707          	4.401
MS.170         	6.695          	4.299
MS.171         	6.68           	4.379
MS.172         	6.668          	4.25
MS.173         	6.655          	4.282
MS.174         	6.64           	4.327
MS.175         	6.628          	4.417
MS.176         	6.615          	4.352
MS.177         	6.6            	4.221
MS.178         	6.587          	4.272
MS.179         	6.575          	4.271
MS.180         	6.562          	4.21
MS.181         	6.547          	4.111
MS.182         	6.535          	4.235
MS.183         	6.523          	4.041
MS.184         	6.51           	4.175
MS.185         	6.495          	4.187
MS.186         	6.483          	3.949
MS.187         	6.47           	4.116
MS.188         	6.457          	4.116
MS.189         	6.445          	4.05
MS.190         	6.432          	4.061
MS.191         	6.418          	4.093
MS.192         	6.405          	4.037
MS.193         	6.392          	3.999
MS.194         	6.38           	3.868
MS.195         	6.367          	3.995
MS.196         	6.355          	4.031
MS.197         	6.342          	3.998
MS.198         	6.33           	3.966
MS.199         	6.317          	3.835
MS.200         	6.305          	3.847
MS.201         	6.293          	3.753
MS.202         	6.28           	3.795
MS.203         	6.267          	3.589
MS.204         	6.255          	3.598
MS.205         	6.242          	3.912
MS.206         	6.23           	3.779
MS.207         	6.217          	3.655
MS.208         	6.205          	3.523
MS.209         	6.192          	3.592
MS.210         	6.18           	3.524
MS.211         	6.168          	3.624
MS.212         	6.155          	3.534
MS.213         	6.142          	3.489
MS.214         	6.13           	3.312
MS.215         	6.117          	3.47
MS.216         	6.105          	3.299
MS.217         	6.092          	3.35
MS.218         	6.082          	3.189
MS.219         	6.07           	3.291
MS.220         	6.057          	3.356
MS.221         	6.045          	3.144
MS.222         	6.032          	3.094
MS.223         	6.02           	3.16
MS.224         	6.01           	3.162
MS.225         	5.997          	3.164
MS.226         	5.985          	2.974
MS.227         	5.972          	3.058
MS.228         	5.96           	3.058
MS.229         	5.95           	2.971
MS.230         	5.938          	3.017
MS.231         	5.925          	2.971
MS.232         	5.912          	3.014
MS.233         	5.902          	2.98
MS.234         	5.89           	2.983
MS.235         	5.878          	2.855
MS.236         	5.867          	2.912
MS.237         	5.855          	2.809
MS.238         	5.842          	2.769
MS.239         	5.83           	2.866
MS.240         	5.82           	2.821
MS.241         	5.807          	2.568
MS.242         	5.797          	2.651
MS.243         	5.785          	2.651
MS.244         	5.773          	2.537
MS.245         	5.762          	2.664
MS.246         	5.75           	2.486
MS.247         	5.737          	2.54
MS.248         	5.727          	2.478
MS.249         	5.715          	2.431
MS.250         	5.705          	2.562
MS.251         	5.692          	2.325
MS.252         	5.682          	2.444
MS.253         	5.67           	2.359
MS.254         	5.66           	2.384
MS.255         	5.648          	2.343
MS.256         	5.637          	2.397
MS.257         	5.625          	2.28
MS.258         	5.615          	2.2
MS.259         	5.602          	2.266
MS.260         	5.592          	2.227
MS.261         	5.58           	2.095
MS.262         	5.57           	2.17
MS.263         	5.557          	1.992
MS.264         	5.547          	2.002
MS.265         	5.535          	2.051
MS.266         	5.525          	1.741
MS.267         	5.512          	1.803
MS.268         	5.503          	1.848
MS.269         	5.492          	1.767
MS.270         	5.48           	1.649
MS.271         	5.47           	1.722
MS.272         	5.46           	1.683
MS.273         	5.447          	1.756
MS.274         	5.438          	1.693
MS.275         	5.425          	1.677
MS.276         	5.415          	1.508
MS.277         	5.405          	1.471
MS.278         	5.392          	1.484
MS.279         	5.382          	1.393
MS.280         	5.372          	1.507
MS.281         	5.362          	1.477
MS.282         	5.35           	1.381
MS.283         	5.34           	1.456
MS.284         	5.33           	1.302
MS.285         	5.318          	1.32
MS.286         	5.307          	1.401
MS.287         	5.297          	1.339
MS.288         	5.287          	1.259
MS.289         	5.277          	1.241
MS.290         	5.265          	1.157
MS.291         	5.255          	1.099
MS.292         	5.245          	1.125
MS.293         	5.235          	1.07
MS.294         	5.225          	1.035
MS.295         	5.213          	1.08
MS.296         	5.202          	1.047
MS.297         	5.193          	1.037
MS.298         	5.182          	1.042
MS.299         	5.172          	1.006
MS.300         	5.162          	1
MS.301         	5.15           	0.963
MS.302         	5.14           	0.906
MS.303         	5.13           	0.955
MS.304         	5.12           	0.887
MS.305         	5.11           	0.844
MS.306         	5.1            	0.942
MS.307         	5.09           	0.846
MS.308         	5.08           	0.927
MS.309         	5.07           	0.977
MS.310         	5.06           	0.869
MS.311         	5.05           	0.871
MS.312         	5.04           	0.901
MS.313         	5.03           	0.876
MS.314         	5.02           	0.67
MS.315         	5.01           	0.789
MS.316         	5              	0.616
MS.317         	4.99           	0.79
MS.318         	4.98           	0.768
MS.319         	4.97           	0.665
MS.320         	4.96           	0.762
MS.321         	4.95           	0.715
MS.322         	4.94           	0.676
MS.323         	4.93           	0.62
MS.324         	4.92           	0.672
MS.325         	4.91           	0.577
MS.326         	4.9            	0.533
MS.327         	4.89           	0.515
MS.328         	4.88           	0.293
MS.329         	4.87           	0.447
MS.330         	4.86           	0.359
MS.331         	4.85           	0.403
MS.332         	4.842          	0.417
MS.333         	4.832          	0.32
MS.334         	4.822          	0.334
MS.335         	4.812          	0.468
MS.336         	4.802          	0.241
MS.337         	4.793          	0.244
MS.338         	4.782          	0.215
MS.339         	4.775          	0.288
MS.340         	4.765          	0.382
MS.341         	4.755          	0.167
MS.342         	4.745          	0.187
MS.343         	4.735          	0.156
MS.344         	4.727          	0.218
MS.345         	4.717          	0.089
MS.346         	4.707          	0.121
MS.347         	4.697          	0.078
MS.348         	4.69           	0.067
MS.349         	4.68           	0.048
MS.350         	4.67           	0.077
MS.351         	4.66           	-0.084
MS.352         	4.652          	0.085
MS.353         	4.642          	-0.016
MS.354         	4.632          	0.000
MS.355         	4.625          	-0.042
MS.356         	4.615          	0.02
MS.357         	4.605          	0.027
MS.358         	4.595          	-0.125
MS.359         	4.588          	-0.142
MS.360         	4.577          	-0.084
MS.361         	4.568          	-0.166
MS.362         	4.56           	-0.105
MS.363         	4.55           	-0.191
MS.364         	4.543          	-0.204
MS.365         	4.532          	-0.289
MS.366         	4.523          	-0.268
MS.367         	4.515          	-0.281
MS.368         	4.505          	-0.272
MS.369         	4.495          	-0.261
MS.370         	4.487          	-0.213
MS.371         	4.477          	-0.28
MS.372         	4.47           	-0.305
MS.373         	4.46           	-0.292
MS.374         	4.452          	-0.3
MS.375         	4.443          	-0.341
MS.376         	4.432          	-0.366
MS.377         	4.425          	-0.338
MS.378         	4.415          	-0.355
MS.379         	4.407          	-0.35
MS.380         	4.398          	-0.355
MS.381         	4.39           	-0.349
MS.382         	4.38           	-0.309
MS.383         	4.372          	-0.418
MS.384         	4.362          	-0.4
MS.385         	4.355          	-0.393
MS.386         	4.345          	-0.428
MS.387         	4.338          	-0.395
MS.388         	4.327          	-0.411
MS.389         	4.32           	-0.397
MS.390         	4.31           	-0.42
MS.391         	4.302          	-0.406
MS.392         	4.295          	-0.375
MS.393         	4.285          	-0.418
MS.394         	4.277          	-0.412
MS.395         	4.267          	-0.422
MS.396         	4.26           	-0.419
MS.397         	4.253          	-0.446
MS.398         	4.242          	-0.378
MS.399         	4.235          	-0.475
MS.400         	4.225          	-0.449
MS.401         	4.217          	-0.472
MS.402         	4.21           	-0.483
MS.403         	4.2            	-0.486
MS.404         	4.193          	-0.489
MS.405         	4.185          	-0.457
MS.406         	4.175          	-0.507
MS.407         	4.168          	-0.493
MS.408         	4.16           	-0.493
MS.409         	4.15           	-0.473
MS.410         	4.142          	-0.515
MS.411         	4.135          	-0.493
MS.412         	4.125          	-0.474
MS.413         	4.117          	-0.528
MS.414         	4.11           	-0.525
MS.415         	4.1            	-0.482
MS.416         	4.092          	-0.508
MS.417         	4.085          	-0.554
MS.418         	4.077          	-0.524
MS.419         	4.068          	-0.535
MS.420         	4.06           	-0.55
MS.421         	4.052          	-0.533
MS.422         	4.045          	-0.574
MS.423         	4.035          	-0.548
MS.424         	4.027          	-0.513
MS.425         	4.02           	-0.553
MS.426         	4.012          	-0.569
MS.427         	4.003          	-0.548
MS.428         	3.995          	-0.564
MS.429         	3.987          	-0.509
MS.430         	3.98           	-0.555
MS.431         	3.972          	-0.585
MS.432         	3.965          	-0.539
MS.433         	3.955          	-0.567
MS.434         	3.947          	-0.574
MS.435         	3.94           	-0.562
MS.436         	3.932          	-0.584
MS.437         	3.925          	-0.561
MS.438         	3.918          	-0.586
MS.439         	3.91           	-0.588
MS.440         	3.9            	-0.599
MS.441         	3.892          	-0.611
MS.442         	3.885          	-0.585
MS.443         	3.877          	-0.55
MS.444         	3.87           	-0.576
MS.445         	3.862          	-0.574
MS.446         	3.855          	-0.566
MS.447         	3.847          	-0.579
MS.448         	3.84           	-0.612
MS.449         	3.832          	-0.593
MS.450         	3.822          	-0.605
MS.451         	3.815          	-0.602
MS.452         	3.807          	-0.629
MS.453         	3.8            	-0.588
MS.454         	3.793          	-0.573
MS.455         	3.785          	-0.606
MS.456         	3.777          	-0.56
MS.457         	3.77           	-0.567
MS.458         	3.762          	-0.588
MS.459         	3.755          	-0.607
MS.460         	3.747          	-0.604
MS.461         	3.74           	-0.575
MS.462         	3.732          	-0.61
MS.463         	3.725          	-0.584
MS.464         	3.717          	-0.602
MS.465         	3.71           	-0.566
MS.466         	3.702          	-0.557
MS.467         	3.695          	-0.595
MS.468         	3.688          	-0.613
MS.469         	3.68           	-0.607
MS.470         	3.675          	-0.592
MS.471         	3.668          	-0.554
MS.472         	3.66           	-0.601
MS.473         	3.652          	-0.61
MS.474         	3.645          	-0.601
MS.475         	3.637          	-0.579
MS.476         	3.63           	-0.574
MS.477         	3.622          	-0.576
MS.478         	3.615          	-0.585
MS.479         	3.607          	-0.588
MS.480         	3.6            	-0.573
MS.481         	3.595          	-0.568
MS.482         	3.587          	-0.577
MS.483         	3.58           	-0.59
MS.484         	3.572          	-0.582
MS.485         	3.565          	-0.587
MS.486         	3.557          	-0.569
MS.487         	3.55           	-0.502
MS.488         	3.545          	-0.567
MS.489         	3.537          	-0.533
MS.490         	3.53           	-0.577
MS.491         	3.523          	-0.552
MS.492         	3.515          	-0.563
MS.493         	3.507          	-0.566
MS.494         	3.502          	-0.555
MS.495         	3.495          	-0.557
MS.496         	3.487          	-0.582
MS.497         	3.48           	-0.533
MS.498         	3.472          	-0.538
MS.499         	3.467          	-0.536
