File:              	C:\Qtrac\Data\ME2C30629C.QZD
Name:              	 JA20R
Protocol:          	MSCAN-MV
Date:              	29/6/23
Date of birth:     	20/10/00
Age:               	22
Sex:               	F
Temperature:       	33.0
S/R sites:         	Knee CF-TA
NC/disease:        	NC
Operator:          	BY
Comments:
M-SCAN DATA (Repeat 2/4, 14.6-7.9m)
Scanpts: 1, 12, 449, 509
Stim. (mA)     	Amp. (mV)
MS.1           	21             	4.324
MS.2           	21             	4.294
MS.3           	21             	4.315
MS.4           	21             	4.307
MS.5           	21             	4.311
MS.6           	21             	4.346
MS.7           	21             	4.293
MS.8           	21             	4.33
MS.9           	21             	4.31
MS.10          	21             	4.318
MS.11          	21             	4.289
MS.12          	21             	4.307
MS.13          	21             	4.335
MS.14          	21             	4.239
MS.15          	21             	4.315
MS.16          	21             	4.316
MS.17          	21             	4.341
MS.18          	21             	4.286
MS.19          	21             	4.313
MS.20          	21             	4.295
MS.21          	21             	4.263
MS.22          	21             	4.321
MS.23          	21             	4.324
MS.24          	20.958         	4.284
MS.25          	20.915         	4.293
MS.26          	20.875         	4.323
MS.27          	20.833         	4.27
MS.28          	20.79          	4.293
MS.29          	20.75          	4.271
MS.30          	20.708         	4.271
MS.31          	20.667         	4.273
MS.32          	20.625         	4.241
MS.33          	20.585         	4.29
MS.34          	20.542         	4.26
MS.35          	20.502         	4.27
MS.36          	20.46          	4.282
MS.37          	20.42          	4.265
MS.38          	20.38          	4.271
MS.39          	20.337         	4.206
MS.40          	20.297         	4.252
MS.41          	20.257         	4.269
MS.42          	20.217         	4.224
MS.43          	20.177         	4.232
MS.44          	20.137         	4.248
MS.45          	20.095         	4.182
MS.46          	20.055         	4.261
MS.47          	20.015         	4.272
MS.48          	19.975         	4.227
MS.49          	19.935         	4.218
MS.50          	19.895         	4.194
MS.51          	19.858         	4.22
MS.52          	19.817         	4.202
MS.53          	19.778         	4.244
MS.54          	19.737         	4.187
MS.55          	19.698         	4.187
MS.56          	19.66          	4.259
MS.57          	19.62          	4.198
MS.58          	19.58          	4.207
MS.59          	19.54          	4.198
MS.60          	19.502         	4.177
MS.61          	19.462         	4.228
MS.62          	19.425         	4.2
MS.63          	19.385         	4.201
MS.64          	19.347         	4.16
MS.65          	19.307         	4.164
MS.66          	19.27          	4.163
MS.67          	19.23          	4.125
MS.68          	19.192         	4.178
MS.69          	19.155         	4.141
MS.70          	19.115         	4.167
MS.71          	19.077         	4.131
MS.72          	19.04          	4.15
MS.73          	19.002         	4.125
MS.74          	18.962         	4.142
MS.75          	18.925         	4.12
MS.76          	18.887         	4.13
MS.77          	18.85          	4.131
MS.78          	18.812         	4.147
MS.79          	18.775         	4.089
MS.80          	18.737         	4.099
MS.81          	18.7           	4.115
MS.82          	18.663         	4.094
MS.83          	18.625         	4.112
MS.84          	18.587         	4.089
MS.85          	18.55          	4.103
MS.86          	18.515         	4.061
MS.87          	18.477         	4.088
MS.88          	18.44          	4.097
MS.89          	18.403         	4.116
MS.90          	18.368         	4.099
MS.91          	18.33          	4.085
MS.92          	18.292         	4.085
MS.93          	18.257         	4.072
MS.94          	18.22          	4.051
MS.95          	18.182         	4.078
MS.96          	18.147         	4.058
MS.97          	18.11          	4.068
MS.98          	18.075         	4.086
MS.99          	18.04          	4.047
MS.100         	18.003         	4.038
MS.101         	17.967         	4.036
MS.102         	17.93          	3.951
MS.103         	17.895         	3.934
MS.104         	17.86          	4.026
MS.105         	17.823         	3.985
MS.106         	17.788         	3.983
MS.107         	17.753         	3.966
MS.108         	17.717         	4.003
MS.109         	17.682         	4.005
MS.110         	17.645         	3.895
MS.111         	17.61          	3.987
MS.112         	17.575         	3.894
MS.113         	17.54          	3.889
MS.114         	17.505         	3.89
MS.115         	17.47          	3.887
MS.116         	17.435         	3.824
MS.117         	17.4           	3.812
MS.118         	17.365         	3.879
MS.119         	17.333         	3.917
MS.120         	17.297         	3.926
MS.121         	17.262         	3.923
MS.122         	17.227         	3.853
MS.123         	17.192         	3.856
MS.124         	17.16          	3.831
MS.125         	17.125         	3.855
MS.126         	17.09          	3.897
MS.127         	17.057         	3.848
MS.128         	17.022         	3.85
MS.129         	16.987         	3.831
MS.130         	16.955         	3.807
MS.131         	16.92          	3.819
MS.132         	16.887         	3.763
MS.133         	16.852         	3.787
MS.134         	16.82          	3.797
MS.135         	16.785         	3.777
MS.136         	16.753         	3.757
MS.137         	16.717         	3.807
MS.138         	16.685         	3.748
MS.139         	16.653         	3.781
MS.140         	16.618         	3.691
MS.141         	16.585         	3.768
MS.142         	16.552         	3.721
MS.143         	16.52          	3.708
MS.144         	16.485         	3.655
MS.145         	16.452         	3.707
MS.146         	16.42          	3.808
MS.147         	16.387         	3.651
MS.148         	16.355         	3.652
MS.149         	16.323         	3.7
MS.150         	16.29          	3.597
MS.151         	16.257         	3.636
MS.152         	16.225         	3.624
MS.153         	16.192         	3.66
MS.154         	16.16          	3.619
MS.155         	16.128         	3.6
MS.156         	16.095         	3.53
MS.157         	16.062         	3.595
MS.158         	16.03          	3.522
MS.159         	16             	3.563
MS.160         	15.967         	3.526
MS.161         	15.935         	3.557
MS.162         	15.902         	3.455
MS.163         	15.872         	3.508
MS.164         	15.84          	3.553
MS.165         	15.807         	3.516
MS.166         	15.777         	3.485
MS.167         	15.745         	3.477
MS.168         	15.712         	3.453
MS.169         	15.682         	3.505
MS.170         	15.65          	3.424
MS.171         	15.62          	3.508
MS.172         	15.587         	3.309
MS.173         	15.557         	3.384
MS.174         	15.525         	3.377
MS.175         	15.495         	3.373
MS.176         	15.465         	3.361
MS.177         	15.432         	3.305
MS.178         	15.402         	3.334
MS.179         	15.372         	3.246
MS.180         	15.34          	3.21
MS.181         	15.31          	3.43
MS.182         	15.28          	3.319
MS.183         	15.25          	3.216
MS.184         	15.217         	3.225
MS.185         	15.188         	3.242
MS.186         	15.157         	3.025
MS.187         	15.127         	3.088
MS.188         	15.097         	3.174
MS.189         	15.068         	3.081
MS.190         	15.037         	3.143
MS.191         	15.007         	3.102
MS.192         	14.977         	3.023
MS.193         	14.947         	3.077
MS.194         	14.917         	2.957
MS.195         	14.887         	3.055
MS.196         	14.858         	2.93
MS.197         	14.827         	2.941
MS.198         	14.797         	3.065
MS.199         	14.77          	2.988
MS.200         	14.74          	2.957
MS.201         	14.71          	2.96
MS.202         	14.68          	2.91
MS.203         	14.65          	2.936
MS.204         	14.622         	2.809
MS.205         	14.592         	2.928
MS.206         	14.562         	2.751
MS.207         	14.535         	2.744
MS.208         	14.505         	2.77
MS.209         	14.477         	2.758
MS.210         	14.447         	2.809
MS.211         	14.417         	2.742
MS.212         	14.39          	2.815
MS.213         	14.36          	2.781
MS.214         	14.332         	2.62
MS.215         	14.305         	2.546
MS.216         	14.275         	2.679
MS.217         	14.247         	2.53
MS.218         	14.217         	2.623
MS.219         	14.19          	2.529
MS.220         	14.162         	2.565
MS.221         	14.132         	2.662
MS.222         	14.105         	2.638
MS.223         	14.077         	2.509
MS.224         	14.047         	2.436
MS.225         	14.02          	2.534
MS.226         	13.992         	2.517
MS.227         	13.965         	2.377
MS.228         	13.938         	2.332
MS.229         	13.91          	2.314
MS.230         	13.88          	2.364
MS.231         	13.852         	2.404
MS.232         	13.825         	2.369
MS.233         	13.797         	2.35
MS.234         	13.77          	2.424
MS.235         	13.742         	2.396
MS.236         	13.715         	2.31
MS.237         	13.688         	2.264
MS.238         	13.66          	2.275
MS.239         	13.632         	2.337
MS.240         	13.605         	2.188
MS.241         	13.58          	2.281
MS.242         	13.552         	2.195
MS.243         	13.525         	2.194
MS.244         	13.497         	2.264
MS.245         	13.47          	2.252
MS.246         	13.445         	2.238
MS.247         	13.417         	2.256
MS.248         	13.39          	2.161
MS.249         	13.362         	2.123
MS.250         	13.337         	2.075
MS.251         	13.31          	1.997
MS.252         	13.282         	2.027
MS.253         	13.257         	1.95
MS.254         	13.23          	1.901
MS.255         	13.205         	2.004
MS.256         	13.177         	1.951
MS.257         	13.153         	1.81
MS.258         	13.125         	1.789
MS.259         	13.1           	1.799
MS.260         	13.072         	1.722
MS.261         	13.047         	1.754
MS.262         	13.02          	1.766
MS.263         	12.995         	1.802
MS.264         	12.967         	1.553
MS.265         	12.943         	1.533
MS.266         	12.917         	1.511
MS.267         	12.89          	1.51
MS.268         	12.865         	1.603
MS.269         	12.84          	1.534
MS.270         	12.815         	1.479
MS.271         	12.787         	1.476
MS.272         	12.762         	1.49
MS.273         	12.738         	1.287
MS.274         	12.712         	1.353
MS.275         	12.688         	1.29
MS.276         	12.66          	1.306
MS.277         	12.635         	1.239
MS.278         	12.61          	1.25
MS.279         	12.585         	1.26
MS.280         	12.56          	1.257
MS.281         	12.535         	1.138
MS.282         	12.51          	1.152
MS.283         	12.485         	1.198
MS.284         	12.46          	1.135
MS.285         	12.435         	1.061
MS.286         	12.41          	0.972
MS.287         	12.385         	1.051
MS.288         	12.36          	0.997
MS.289         	12.335         	1.026
MS.290         	12.312         	1.014
MS.291         	12.287         	0.989
MS.292         	12.262         	0.948
MS.293         	12.238         	0.955
MS.294         	12.212         	0.861
MS.295         	12.19          	0.905
MS.296         	12.165         	0.841
MS.297         	12.14          	0.894
MS.298         	12.115         	0.852
MS.299         	12.092         	0.862
MS.300         	12.068         	0.861
MS.301         	12.042         	0.826
MS.302         	12.02          	0.785
MS.303         	11.995         	0.667
MS.304         	11.972         	0.642
MS.305         	11.947         	0.731
MS.306         	11.922         	0.681
MS.307         	11.9           	0.498
MS.308         	11.875         	0.487
MS.309         	11.852         	0.563
MS.310         	11.827         	0.535
MS.311         	11.805         	0.502
MS.312         	11.782         	0.419
MS.313         	11.757         	0.569
MS.314         	11.735         	0.408
MS.315         	11.71          	0.359
MS.316         	11.688         	0.252
MS.317         	11.665         	0.352
MS.318         	11.64          	0.262
MS.319         	11.617         	0.241
MS.320         	11.595         	0.237
MS.321         	11.57          	0.294
MS.322         	11.547         	0.144
MS.323         	11.525         	0.179
MS.324         	11.502         	0.14
MS.325         	11.48          	0.275
MS.326         	11.455         	0.091
MS.327         	11.432         	0.173
MS.328         	11.41          	0.11
MS.329         	11.387         	0.056
MS.330         	11.365         	0.032
MS.331         	11.342         	0.06
MS.332         	11.32          	0.121
MS.333         	11.297         	-0.023
MS.334         	11.275         	-0.119
MS.335         	11.252         	-0.045
MS.336         	11.23          	-0.038
MS.337         	11.207         	-0.024
MS.338         	11.185         	-0.078
MS.339         	11.162         	-0.002
MS.340         	11.14          	-0.098
MS.341         	11.117         	-0.101
MS.342         	11.095         	-0.175
MS.343         	11.073         	-0.105
MS.344         	11.05          	-0.199
MS.345         	11.03          	-0.147
MS.346         	11.007         	-0.206
MS.347         	10.985         	-0.104
MS.348         	10.962         	-0.25
MS.349         	10.94          	-0.246
MS.350         	10.92          	-0.211
MS.351         	10.898         	-0.253
MS.352         	10.875         	-0.29
MS.353         	10.855         	-0.248
MS.354         	10.832         	-0.251
MS.355         	10.81          	-0.312
MS.356         	10.79          	-0.192
MS.357         	10.767         	-0.291
MS.358         	10.745         	-0.322
MS.359         	10.725         	-0.285
MS.360         	10.702         	-0.32
MS.361         	10.682         	-0.335
MS.362         	10.66          	-0.327
MS.363         	10.64          	-0.334
MS.364         	10.617         	-0.308
MS.365         	10.597         	-0.356
MS.366         	10.575         	-0.338
MS.367         	10.555         	-0.408
MS.368         	10.532         	-0.403
MS.369         	10.512         	-0.423
MS.370         	10.49          	-0.425
MS.371         	10.47          	-0.458
MS.372         	10.45          	-0.444
MS.373         	10.427         	-0.482
MS.374         	10.407         	-0.459
MS.375         	10.387         	-0.493
MS.376         	10.365         	-0.497
MS.377         	10.345         	-0.535
MS.378         	10.325         	-0.477
MS.379         	10.305         	-0.47
MS.380         	10.282         	-0.559
MS.381         	10.262         	-0.567
MS.382         	10.242         	-0.551
MS.383         	10.222         	-0.635
MS.384         	10.202         	-0.592
MS.385         	10.18          	-0.621
MS.386         	10.16          	-0.603
MS.387         	10.14          	-0.552
MS.388         	10.12          	-0.569
MS.389         	10.1           	-0.601
MS.390         	10.08          	-0.533
MS.391         	10.06          	-0.622
MS.392         	10.04          	-0.575
MS.393         	10.02          	-0.612
MS.394         	10             	-0.644
MS.395         	9.98           	-0.681
MS.396         	9.96           	-0.611
MS.397         	9.94           	-0.674
MS.398         	9.92           	-0.679
MS.399         	9.9            	-0.704
MS.400         	9.88           	-0.75
MS.401         	9.86           	-0.722
MS.402         	9.84           	-0.732
MS.403         	9.82           	-0.68
MS.404         	9.802          	-0.739
MS.405         	9.782          	-0.707
MS.406         	9.762          	-0.726
MS.407         	9.742          	-0.743
MS.408         	9.722          	-0.665
MS.409         	9.705          	-0.704
MS.410         	9.685          	-0.688
MS.411         	9.665          	-0.7
MS.412         	9.645          	-0.739
MS.413         	9.627          	-0.747
MS.414         	9.608          	-0.733
MS.415         	9.587          	-0.762
MS.416         	9.57           	-0.804
MS.417         	9.55           	-0.767
MS.418         	9.53           	-0.797
MS.419         	9.512          	-0.806
MS.420         	9.492          	-0.788
MS.421         	9.472          	-0.773
MS.422         	9.455          	-0.764
MS.423         	9.435          	-0.85
MS.424         	9.417          	-0.841
MS.425         	9.398          	-0.84
MS.426         	9.38           	-0.854
MS.427         	9.36           	-0.85
MS.428         	9.342          	-0.768
MS.429         	9.323          	-0.774
MS.430         	9.305          	-0.845
MS.431         	9.285          	-0.865
MS.432         	9.267          	-0.825
MS.433         	9.25           	-0.814
MS.434         	9.23           	-0.791
MS.435         	9.212          	-0.853
MS.436         	9.193          	-0.84
MS.437         	9.175          	-0.889
MS.438         	9.158          	-0.891
MS.439         	9.137          	-0.87
MS.440         	9.12           	-0.843
MS.441         	9.102          	-0.896
MS.442         	9.085          	-0.878
MS.443         	9.065          	-0.87
MS.444         	9.047          	-0.898
MS.445         	9.03           	-0.886
MS.446         	9.012          	-0.82
MS.447         	8.992          	-0.86
MS.448         	8.975          	-0.93
MS.449         	8.957          	-0.941
MS.450         	8.94           	-0.872
MS.451         	8.922          	-0.933
MS.452         	8.905          	-0.938
MS.453         	8.887          	-0.914
MS.454         	8.867          	-0.917
MS.455         	8.85           	-0.935
MS.456         	8.832          	-0.93
MS.457         	8.815          	-0.944
MS.458         	8.797          	-0.947
MS.459         	8.78           	-0.952
MS.460         	8.762          	-0.933
MS.461         	8.745          	-0.95
MS.462         	8.727          	-0.939
MS.463         	8.71           	-0.963
MS.464         	8.693          	-0.947
MS.465         	8.675          	-0.894
MS.466         	8.658          	-0.961
MS.467         	8.64           	-0.945
MS.468         	8.625          	-0.885
MS.469         	8.608          	-0.97
MS.470         	8.59           	-0.977
MS.471         	8.573          	-0.968
MS.472         	8.555          	-0.975
MS.473         	8.537          	-0.995
MS.474         	8.52           	-0.964
MS.475         	8.505          	-0.952
MS.476         	8.488          	-0.995
MS.477         	8.47           	-0.975
MS.478         	8.452          	-0.981
MS.479         	8.435          	-0.938
MS.480         	8.42           	-0.959
MS.481         	8.403          	-0.995
MS.482         	8.385          	-0.991
MS.483         	8.37           	-0.993
MS.484         	8.352          	-1
MS.485         	8.335          	-0.993
MS.486         	8.32           	-0.97
MS.487         	8.302          	-0.937
MS.488         	8.285          	-0.966
MS.489         	8.27           	-0.983
MS.490         	8.252          	-0.911
MS.491         	8.235          	-0.964
MS.492         	8.22           	-0.954
MS.493         	8.202          	-0.97
MS.494         	8.188          	-0.967
MS.495         	8.17           	-0.965
MS.496         	8.155          	-0.964
MS.497         	8.137          	-0.955
MS.498         	8.122          	-0.972
MS.499         	8.105          	-0.963
