File:              	C:\Qtrac\Data\ME2C30613A.QZD
Name:              	 HU17A
Protocol:          	MSCAN-R2
Date:              	13/6/23
Date of birth:     	17/9/88
Age:               	34
Sex:               	F
Temperature:       	32.0
S/R sites:         	Knee CF-TA
NC/disease:        	NC
Operator:          	BY
Comments:
M-SCAN DATA (Repeat 2/3, 28.6-20.9m)
Scanpts: 87, 125, 607, 616
Stim. (mA)     	Amp. (mV)
MS.1           	31             	4.486
MS.2           	31             	4.481
MS.3           	31             	4.493
MS.4           	31             	4.453
MS.5           	31             	4.467
MS.6           	31             	4.481
MS.7           	31             	4.498
MS.8           	31             	4.476
MS.9           	31             	4.512
MS.10          	31             	4.515
MS.11          	31             	4.484
MS.12          	31             	4.512
MS.13          	31             	4.512
MS.14          	31             	4.498
MS.15          	31             	4.521
MS.16          	31             	4.509
MS.17          	31             	4.491
MS.18          	31             	4.492
MS.19          	31             	4.52
MS.20          	31             	4.528
MS.21          	31             	4.538
MS.22          	31             	4.485
MS.23          	31             	4.512
MS.24          	30.938         	4.521
MS.25          	30.875         	4.571
MS.26          	30.815         	4.556
MS.27          	30.752         	4.523
MS.28          	30.692         	4.504
MS.29          	30.63          	4.536
MS.30          	30.57          	4.539
MS.31          	30.507         	4.572
MS.32          	30.448         	4.521
MS.33          	30.385         	4.487
MS.34          	30.325         	4.57
MS.35          	30.265         	4.556
MS.36          	30.205         	4.51
MS.37          	30.145         	4.524
MS.38          	30.085         	4.551
MS.39          	30.022         	4.556
MS.40          	29.962         	4.572
MS.41          	29.905         	4.57
MS.42          	29.845         	4.547
MS.43          	29.785         	4.557
MS.44          	29.725         	4.585
MS.45          	29.665         	4.555
MS.46          	29.608         	4.597
MS.47          	29.547         	4.55
MS.48          	29.487         	4.608
MS.49          	29.43          	4.591
MS.50          	29.37          	4.597
MS.51          	29.312         	4.633
MS.52          	29.252         	4.555
MS.53          	29.195         	4.547
MS.54          	29.137         	4.592
MS.55          	29.077         	4.614
MS.56          	29.02          	4.614
MS.57          	28.962         	4.559
MS.58          	28.905         	4.627
MS.59          	28.847         	4.612
MS.60          	28.79          	4.626
MS.61          	28.733         	4.609
MS.62          	28.675         	4.615
MS.63          	28.618         	4.617
MS.64          	28.56          	4.62
MS.65          	28.502         	4.619
MS.66          	28.445         	4.651
MS.67          	28.387         	4.584
MS.68          	28.332         	4.628
MS.69          	28.275         	4.631
MS.70          	28.22          	4.639
MS.71          	28.162         	4.592
MS.72          	28.105         	4.597
MS.73          	28.05          	4.623
MS.74          	27.995         	4.604
MS.75          	27.938         	4.662
MS.76          	27.882         	4.63
MS.77          	27.827         	4.61
MS.78          	27.77          	4.625
MS.79          	27.715         	4.639
MS.80          	27.66          	4.589
MS.81          	27.605         	4.65
MS.82          	27.55          	4.587
MS.83          	27.495         	4.65
MS.84          	27.44          	4.606
MS.85          	27.385         	4.648
MS.86          	27.33          	4.641
MS.87          	27.275         	4.615
MS.88          	27.22          	4.648
MS.89          	27.167         	4.626
MS.90          	27.112         	4.621
MS.91          	27.057         	4.613
MS.92          	27.005         	4.604
MS.93          	26.95          	4.619
MS.94          	26.897         	4.701
MS.95          	26.842         	4.594
MS.96          	26.79          	4.639
MS.97          	26.735         	4.651
MS.98          	26.682         	4.577
MS.99          	26.627         	4.635
MS.100         	26.575         	4.601
MS.101         	26.522         	4.627
MS.102         	26.47          	4.641
MS.103         	26.417         	4.626
MS.104         	26.362         	4.615
MS.105         	26.31          	4.697
MS.106         	26.257         	4.615
MS.107         	26.205         	4.672
MS.108         	26.153         	4.624
MS.109         	26.102         	4.611
MS.110         	26.05          	4.657
MS.111         	25.997         	4.637
MS.112         	25.945         	4.625
MS.113         	25.892         	4.63
MS.114         	25.842         	4.706
MS.115         	25.79          	4.655
MS.116         	25.737         	4.618
MS.117         	25.688         	4.581
MS.118         	25.635         	4.625
MS.119         	25.585         	4.615
MS.120         	25.532         	4.6
MS.121         	25.483         	4.633
MS.122         	25.432         	4.628
MS.123         	25.38          	4.626
MS.124         	25.33          	4.633
MS.125         	25.28          	4.628
MS.126         	25.23          	4.586
MS.127         	25.177         	4.65
MS.128         	25.127         	4.631
MS.129         	25.077         	4.639
MS.130         	25.028         	4.648
MS.131         	24.977         	4.636
MS.132         	24.927         	4.594
MS.133         	24.877         	4.661
MS.134         	24.827         	4.602
MS.135         	24.78          	4.609
MS.136         	24.73          	4.697
MS.137         	24.68          	4.625
MS.138         	24.63          	4.556
MS.139         	24.582         	4.653
MS.140         	24.532         	4.61
MS.141         	24.483         	4.589
MS.142         	24.435         	4.623
MS.143         	24.385         	4.566
MS.144         	24.337         	4.601
MS.145         	24.288         	4.684
MS.146         	24.24          	4.589
MS.147         	24.19          	4.611
MS.148         	24.142         	4.611
MS.149         	24.095         	4.623
MS.150         	24.047         	4.538
MS.151         	23.997         	4.578
MS.152         	23.95          	4.6
MS.153         	23.903         	4.561
MS.154         	23.855         	4.575
MS.155         	23.807         	4.553
MS.156         	23.76          	4.545
MS.157         	23.712         	4.531
MS.158         	23.665         	4.563
MS.159         	23.618         	4.55
MS.160         	23.57          	4.504
MS.161         	23.522         	4.532
MS.162         	23.475         	4.517
MS.163         	23.43          	4.469
MS.164         	23.382         	4.508
MS.165         	23.335         	4.494
MS.166         	23.29          	4.468
MS.167         	23.243         	4.496
MS.168         	23.195         	4.465
MS.169         	23.15          	4.538
MS.170         	23.102         	4.471
MS.171         	23.057         	4.436
MS.172         	23.012         	4.371
MS.173         	22.965         	4.496
MS.174         	22.92          	4.467
MS.175         	22.872         	4.437
MS.176         	22.827         	4.483
MS.177         	22.782         	4.446
MS.178         	22.737         	4.464
MS.179         	22.692         	4.329
MS.180         	22.645         	4.427
MS.181         	22.6           	4.413
MS.182         	22.555         	4.422
MS.183         	22.51          	4.471
MS.184         	22.465         	4.376
MS.185         	22.42          	4.401
MS.186         	22.375         	4.335
MS.187         	22.332         	4.289
MS.188         	22.288         	4.297
MS.189         	22.243         	4.327
MS.190         	22.198         	4.218
MS.191         	22.153         	4.313
MS.192         	22.11          	4.268
MS.193         	22.065         	4.29
MS.194         	22.02          	4.229
MS.195         	21.977         	4.205
MS.196         	21.932         	4.251
MS.197         	21.89          	4.144
MS.198         	21.845         	4.205
MS.199         	21.802         	4.212
MS.200         	21.757         	4.156
MS.201         	21.715         	4.153
MS.202         	21.672         	4.124
MS.203         	21.627         	4.147
MS.204         	21.585         	4.094
MS.205         	21.542         	4.118
MS.206         	21.497         	4.109
MS.207         	21.455         	4.07
MS.208         	21.413         	4.088
MS.209         	21.37          	4.119
MS.210         	21.327         	4.083
MS.211         	21.285         	4.077
MS.212         	21.243         	4.097
MS.213         	21.2           	4.084
MS.214         	21.157         	4.045
MS.215         	21.115         	4.065
MS.216         	21.073         	4.055
MS.217         	21.03          	4.017
MS.218         	20.99          	4.02
MS.219         	20.948         	4.002
MS.220         	20.905         	4.006
MS.221         	20.862         	3.972
MS.222         	20.823         	3.967
MS.223         	20.78          	3.937
MS.224         	20.737         	3.979
MS.225         	20.698         	3.961
MS.226         	20.655         	3.94
MS.227         	20.615         	3.862
MS.228         	20.573         	3.854
MS.229         	20.532         	3.933
MS.230         	20.49          	3.848
MS.231         	20.45          	3.908
MS.232         	20.41          	3.903
MS.233         	20.368         	3.868
MS.234         	20.327         	3.825
MS.235         	20.288         	3.835
MS.236         	20.247         	3.847
MS.237         	20.205         	3.831
MS.238         	20.165         	3.87
MS.239         	20.125         	3.83
MS.240         	20.085         	3.805
MS.241         	20.045         	3.842
MS.242         	20.005         	3.712
MS.243         	19.965         	3.767
MS.244         	19.925         	3.777
MS.245         	19.885         	3.751
MS.246         	19.845         	3.75
MS.247         	19.805         	3.751
MS.248         	19.767         	3.683
MS.249         	19.727         	3.719
MS.250         	19.688         	3.499
MS.251         	19.647         	3.699
MS.252         	19.61          	3.585
MS.253         	19.57          	3.634
MS.254         	19.53          	3.596
MS.255         	19.493         	3.535
MS.256         	19.452         	3.447
MS.257         	19.415         	3.554
MS.258         	19.375         	3.381
MS.259         	19.337         	3.542
MS.260         	19.297         	3.475
MS.261         	19.26          	3.347
MS.262         	19.22          	3.325
MS.263         	19.182         	3.464
MS.264         	19.145         	3.298
MS.265         	19.105         	3.222
MS.266         	19.067         	3.229
MS.267         	19.03          	3.247
MS.268         	18.993         	3.237
MS.269         	18.952         	3.242
MS.270         	18.915         	3.174
MS.271         	18.877         	3.186
MS.272         	18.84          	3.206
MS.273         	18.802         	3.278
MS.274         	18.765         	3.127
MS.275         	18.727         	3.089
MS.276         	18.69          	3.076
MS.277         	18.653         	3.027
MS.278         	18.615         	3.066
MS.279         	18.577         	3.075
MS.280         	18.54          	3.117
MS.281         	18.505         	3.128
MS.282         	18.467         	3.071
MS.283         	18.43          	3.029
MS.284         	18.392         	3.124
MS.285         	18.358         	3.004
MS.286         	18.32          	3.063
MS.287         	18.282         	3.051
MS.288         	18.247         	3.071
MS.289         	18.21          	3.026
MS.290         	18.175         	2.945
MS.291         	18.137         	2.962
MS.292         	18.102         	2.971
MS.293         	18.065         	2.93
MS.294         	18.03          	2.853
MS.295         	17.993         	2.906
MS.296         	17.958         	2.96
MS.297         	17.92          	2.877
MS.298         	17.885         	2.746
MS.299         	17.85          	2.808
MS.300         	17.815         	2.888
MS.301         	17.778         	2.679
MS.302         	17.743         	2.831
MS.303         	17.708         	2.774
MS.304         	17.672         	2.784
MS.305         	17.637         	2.686
MS.306         	17.602         	2.784
MS.307         	17.567         	2.672
MS.308         	17.532         	2.708
MS.309         	17.497         	2.673
MS.310         	17.462         	2.672
MS.311         	17.427         	2.581
MS.312         	17.392         	2.548
MS.313         	17.358         	2.542
MS.314         	17.323         	2.595
MS.315         	17.288         	2.541
MS.316         	17.253         	2.58
MS.317         	17.217         	2.459
MS.318         	17.185         	2.485
MS.319         	17.15          	2.451
MS.320         	17.115         	2.43
MS.321         	17.083         	2.427
MS.322         	17.047         	2.403
MS.323         	17.012         	2.365
MS.324         	16.98          	2.31
MS.325         	16.945         	2.295
MS.326         	16.913         	2.287
MS.327         	16.878         	2.363
MS.328         	16.845         	2.383
MS.329         	16.81          	2.507
MS.330         	16.778         	2.242
MS.331         	16.743         	2.285
MS.332         	16.71          	2.346
MS.333         	16.677         	2.264
MS.334         	16.642         	2.181
MS.335         	16.61          	2.354
MS.336         	16.577         	2.281
MS.337         	16.542         	2.329
MS.338         	16.51          	2.257
MS.339         	16.477         	2.287
MS.340         	16.445         	2.29
MS.341         	16.413         	2.241
MS.342         	16.38          	2.213
MS.343         	16.345         	2.272
MS.344         	16.312         	2.188
MS.345         	16.28          	2.224
MS.346         	16.247         	2.136
MS.347         	16.215         	2.14
MS.348         	16.182         	2.239
MS.349         	16.15          	2.072
MS.350         	16.12          	2.048
MS.351         	16.087         	2.043
MS.352         	16.055         	2.174
MS.353         	16.022         	2.097
MS.354         	15.99          	1.989
MS.355         	15.957         	2.032
MS.356         	15.927         	1.94
MS.357         	15.895         	2.037
MS.358         	15.862         	2.034
MS.359         	15.832         	2.039
MS.360         	15.8           	1.948
MS.361         	15.767         	1.977
MS.362         	15.737         	1.992
MS.363         	15.705         	1.874
MS.364         	15.672         	1.807
MS.365         	15.642         	1.945
MS.366         	15.61          	1.872
MS.367         	15.58          	1.797
MS.368         	15.55          	1.805
MS.369         	15.517         	1.794
MS.370         	15.487         	1.824
MS.371         	15.455         	1.866
MS.372         	15.425         	1.763
MS.373         	15.395         	1.747
MS.374         	15.362         	1.841
MS.375         	15.332         	1.724
MS.376         	15.302         	1.841
MS.377         	15.273         	1.657
MS.378         	15.24          	1.767
MS.379         	15.21          	1.777
MS.380         	15.18          	1.729
MS.381         	15.15          	1.74
MS.382         	15.12          	1.639
MS.383         	15.09          	1.729
MS.384         	15.06          	1.614
MS.385         	15.03          	1.647
MS.386         	15             	1.627
MS.387         	14.97          	1.533
MS.388         	14.94          	1.542
MS.389         	14.91          	1.559
MS.390         	14.88          	1.528
MS.391         	14.85          	1.582
MS.392         	14.82          	1.563
MS.393         	14.79          	1.638
MS.394         	14.76          	1.603
MS.395         	14.733         	1.586
MS.396         	14.702         	1.559
MS.397         	14.672         	1.526
MS.398         	14.642         	1.525
MS.399         	14.615         	1.491
MS.400         	14.585         	1.462
MS.401         	14.555         	1.307
MS.402         	14.527         	1.402
MS.403         	14.497         	1.509
MS.404         	14.467         	1.475
MS.405         	14.44          	1.46
MS.406         	14.41          	1.473
MS.407         	14.382         	1.381
MS.408         	14.352         	1.378
MS.409         	14.325         	1.361
MS.410         	14.295         	1.332
MS.411         	14.267         	1.263
MS.412         	14.24          	1.267
MS.413         	14.21          	1.259
MS.414         	14.182         	1.276
MS.415         	14.155         	1.392
MS.416         	14.125         	1.256
MS.417         	14.097         	1.368
MS.418         	14.07          	1.26
MS.419         	14.04          	1.197
MS.420         	14.012         	1.29
MS.421         	13.985         	1.313
MS.422         	13.957         	1.238
MS.423         	13.93          	1.251
MS.424         	13.903         	1.331
MS.425         	13.872         	1.341
MS.426         	13.845         	1.205
MS.427         	13.818         	1.166
MS.428         	13.79          	1.183
MS.429         	13.762         	1.254
MS.430         	13.735         	1.174
MS.431         	13.707         	1.202
MS.432         	13.68          	1.198
MS.433         	13.653         	1.086
MS.434         	13.625         	1.127
MS.435         	13.6           	1.059
MS.436         	13.572         	1.163
MS.437         	13.545         	1.107
MS.438         	13.517         	1.108
MS.439         	13.49          	1.102
MS.440         	13.462         	1.094
MS.441         	13.438         	1.07
MS.442         	13.41          	1.073
MS.443         	13.382         	1.104
MS.444         	13.358         	1.044
MS.445         	13.33          	1.111
MS.446         	13.302         	1.056
MS.447         	13.278         	1.073
MS.448         	13.25          	1.005
MS.449         	13.222         	1.053
MS.450         	13.197         	1.063
MS.451         	13.17          	1.055
MS.452         	13.145         	1.03
MS.453         	13.117         	1.116
MS.454         	13.092         	1.039
MS.455         	13.065         	0.983
MS.456         	13.04          	1.056
MS.457         	13.012         	1.013
MS.458         	12.987         	1.012
MS.459         	12.962         	0.984
MS.460         	12.935         	1.047
MS.461         	12.91          	0.944
MS.462         	12.885         	0.931
MS.463         	12.858         	0.914
MS.464         	12.832         	0.867
MS.465         	12.807         	0.935
MS.466         	12.782         	0.846
MS.467         	12.755         	0.902
MS.468         	12.73          	0.833
MS.469         	12.705         	0.854
MS.470         	12.68          	0.887
MS.471         	12.655         	0.883
MS.472         	12.63          	0.818
MS.473         	12.602         	0.933
MS.474         	12.577         	0.786
MS.475         	12.552         	0.916
MS.476         	12.528         	0.806
MS.477         	12.502         	0.826
MS.478         	12.477         	0.835
MS.479         	12.452         	0.812
MS.480         	12.427         	0.807
MS.481         	12.403         	0.819
MS.482         	12.38          	0.787
MS.483         	12.355         	0.786
MS.484         	12.33          	0.792
MS.485         	12.305         	0.853
MS.486         	12.28          	0.803
MS.487         	12.255         	0.777
MS.488         	12.23          	0.737
MS.489         	12.207         	0.692
MS.490         	12.182         	0.784
MS.491         	12.157         	0.721
MS.492         	12.132         	0.706
MS.493         	12.11          	0.753
MS.494         	12.085         	0.724
MS.495         	12.06          	0.631
MS.496         	12.037         	0.757
MS.497         	12.012         	0.634
MS.498         	11.99          	0.712
MS.499         	11.965         	0.696
MS.500         	11.94          	0.718
MS.501         	11.917         	0.754
MS.502         	11.892         	0.692
