File:              	C:\Qtrac\Data\ME2C30712B.QZD
Name:              	 ME14L
Protocol:          	MSCAN-MV
Date:              	12/7/23
Date of birth:     	14/6/01
Age:               	22
Sex:               	M
Temperature:       	33.2
S/R sites:         	Knee CF-TA
NC/disease:        	NC
Operator:          	BY
Comments:
M-SCAN DATA (Repeat 1/3, 8.7-2.4m)
Scanpts: 32, 39, 480, 519
Stim. (mA)     	Amp. (mV)
MS.1           	17.5           	4.872
MS.2           	17.5           	4.811
MS.3           	17.5           	4.838
MS.4           	17.5           	4.868
MS.5           	17.5           	4.843
MS.6           	17.5           	4.814
MS.7           	17.5           	4.803
MS.8           	17.5           	4.794
MS.9           	17.5           	4.796
MS.10          	17.5           	4.792
MS.11          	17.5           	4.737
MS.12          	17.5           	4.792
MS.13          	17.5           	4.797
MS.14          	17.5           	4.765
MS.15          	17.5           	4.776
MS.16          	17.5           	4.767
MS.17          	17.5           	4.742
MS.18          	17.5           	4.729
MS.19          	17.5           	4.81
MS.20          	17.5           	4.769
MS.21          	17.5           	4.786
MS.22          	17.5           	4.781
MS.23          	17.5           	4.778
MS.24          	17.43          	4.78
MS.25          	17.395         	4.764
MS.26          	17.36          	4.699
MS.27          	17.325         	4.777
MS.28          	17.29          	4.736
MS.29          	17.257         	4.775
MS.30          	17.222         	4.692
MS.31          	17.188         	4.746
MS.32          	17.153         	4.704
MS.33          	17.12          	4.701
MS.34          	17.085         	4.714
MS.35          	17.05          	4.742
MS.36          	17.017         	4.701
MS.37          	16.983         	4.727
MS.38          	16.95          	4.686
MS.39          	16.915         	4.745
MS.40          	16.88          	4.709
MS.41          	16.847         	4.681
MS.42          	16.812         	4.672
MS.43          	16.78          	4.651
MS.44          	16.747         	4.652
MS.45          	16.712         	4.62
MS.46          	16.68          	4.619
MS.47          	16.647         	4.631
MS.48          	16.612         	4.632
MS.49          	16.58          	4.611
MS.50          	16.547         	4.576
MS.51          	16.515         	4.628
MS.52          	16.48          	4.606
MS.53          	16.448         	4.618
MS.54          	16.415         	4.627
MS.55          	16.382         	4.658
MS.56          	16.35          	4.609
MS.57          	16.317         	4.612
MS.58          	16.285         	4.577
MS.59          	16.253         	4.568
MS.60          	16.22          	4.56
MS.61          	16.188         	4.59
MS.62          	16.155         	4.573
MS.63          	16.122         	4.562
MS.64          	16.09          	4.548
MS.65          	16.057         	4.542
MS.66          	16.025         	4.528
MS.67          	15.992         	4.555
MS.68          	15.962         	4.575
MS.69          	15.93          	4.586
MS.70          	15.898         	4.578
MS.71          	15.867         	4.565
MS.72          	15.835         	4.499
MS.73          	15.802         	4.522
MS.74          	15.773         	4.525
MS.75          	15.74          	4.49
MS.76          	15.707         	4.586
MS.77          	15.677         	4.532
MS.78          	15.645         	4.548
MS.79          	15.615         	4.523
MS.80          	15.582         	4.482
MS.81          	15.552         	4.512
MS.82          	15.52          	4.525
MS.83          	15.49          	4.489
MS.84          	15.46          	4.495
MS.85          	15.427         	4.494
MS.86          	15.398         	4.451
MS.87          	15.367         	4.422
MS.88          	15.335         	4.427
MS.89          	15.305         	4.425
MS.90          	15.275         	4.41
MS.91          	15.245         	4.43
MS.92          	15.212         	4.349
MS.93          	15.182         	4.298
MS.94          	15.152         	4.426
MS.95          	15.122         	4.381
MS.96          	15.092         	4.381
MS.97          	15.062         	4.386
MS.98          	15.032         	4.365
MS.99          	15.002         	4.324
MS.100         	14.972         	4.31
MS.101         	14.943         	4.319
MS.102         	14.912         	4.337
MS.103         	14.882         	4.28
MS.104         	14.852         	4.306
MS.105         	14.822         	4.3
MS.106         	14.792         	4.279
MS.107         	14.765         	4.265
MS.108         	14.735         	4.29
MS.109         	14.705         	4.255
MS.110         	14.675         	4.251
MS.111         	14.648         	4.291
MS.112         	14.617         	4.274
MS.113         	14.587         	4.278
MS.114         	14.56          	4.249
MS.115         	14.53          	4.231
MS.116         	14.5           	4.244
MS.117         	14.472         	4.157
MS.118         	14.443         	4.101
MS.119         	14.415         	4.199
MS.120         	14.385         	4.191
MS.121         	14.358         	4.104
MS.122         	14.327         	4.2
MS.123         	14.3           	4.16
MS.124         	14.27          	4.009
MS.125         	14.242         	4.064
MS.126         	14.212         	4.144
MS.127         	14.185         	4.153
MS.128         	14.157         	4.142
MS.129         	14.127         	4.075
MS.130         	14.1           	4.124
MS.131         	14.072         	3.99
MS.132         	14.045         	4.023
MS.133         	14.015         	4.095
MS.134         	13.987         	4.068
MS.135         	13.96          	3.936
MS.136         	13.932         	4.008
MS.137         	13.905         	3.943
MS.138         	13.877         	3.909
MS.139         	13.85          	4.016
MS.140         	13.82          	3.922
MS.141         	13.792         	3.926
MS.142         	13.765         	3.895
MS.143         	13.737         	3.923
MS.144         	13.71          	3.878
MS.145         	13.682         	3.914
MS.146         	13.655         	3.868
MS.147         	13.63          	3.829
MS.148         	13.602         	3.803
MS.149         	13.575         	3.817
MS.150         	13.547         	3.68
MS.151         	13.52          	3.751
MS.152         	13.492         	3.722
MS.153         	13.467         	3.675
MS.154         	13.44          	3.68
MS.155         	13.412         	3.621
MS.156         	13.385         	3.693
MS.157         	13.36          	3.683
MS.158         	13.332         	3.627
MS.159         	13.305         	3.644
MS.160         	13.28          	3.521
MS.161         	13.252         	3.516
MS.162         	13.225         	3.541
MS.163         	13.2           	3.571
MS.164         	13.172         	3.577
MS.165         	13.148         	3.523
MS.166         	13.12          	3.482
MS.167         	13.095         	3.533
MS.168         	13.068         	3.532
MS.169         	13.042         	3.499
MS.170         	13.015         	3.449
MS.171         	12.99          	3.386
MS.172         	12.965         	3.425
MS.173         	12.938         	3.34
MS.174         	12.912         	3.408
MS.175         	12.887         	3.351
MS.176         	12.86          	3.337
MS.177         	12.835         	3.328
MS.178         	12.81          	3.369
MS.179         	12.785         	3.419
MS.180         	12.757         	3.334
MS.181         	12.733         	3.392
MS.182         	12.707         	3.408
MS.183         	12.682         	3.455
MS.184         	12.657         	3.333
MS.185         	12.632         	3.265
MS.186         	12.608         	3.367
MS.187         	12.58          	3.367
MS.188         	12.555         	3.239
MS.189         	12.53          	3.234
MS.190         	12.505         	3.213
MS.191         	12.48          	3.185
MS.192         	12.455         	3.229
MS.193         	12.43          	3.18
MS.194         	12.405         	3.107
MS.195         	12.382         	3.108
MS.196         	12.358         	3.066
MS.197         	12.332         	2.977
MS.198         	12.307         	2.986
MS.199         	12.282         	3.033
MS.200         	12.257         	2.947
MS.201         	12.233         	2.921
MS.202         	12.21          	2.846
MS.203         	12.185         	2.775
MS.204         	12.16          	2.856
MS.205         	12.135         	2.844
MS.206         	12.113         	2.87
MS.207         	12.087         	2.797
MS.208         	12.062         	2.693
MS.209         	12.04          	2.721
MS.210         	12.015         	2.808
MS.211         	11.992         	2.708
MS.212         	11.967         	2.706
MS.213         	11.943         	2.69
MS.214         	11.92          	2.684
MS.215         	11.895         	2.659
MS.216         	11.872         	2.66
MS.217         	11.847         	2.614
MS.218         	11.825         	2.748
MS.219         	11.8           	2.644
MS.220         	11.778         	2.651
MS.221         	11.755         	2.673
MS.222         	11.73          	2.592
MS.223         	11.707         	2.638
MS.224         	11.682         	2.561
MS.225         	11.66          	2.475
MS.226         	11.637         	2.296
MS.227         	11.615         	2.313
MS.228         	11.59          	2.39
MS.229         	11.568         	2.374
MS.230         	11.545         	2.469
MS.231         	11.523         	2.328
MS.232         	11.497         	2.339
MS.233         	11.475         	2.337
MS.234         	11.452         	2.306
MS.235         	11.43          	2.28
MS.236         	11.407         	2.225
MS.237         	11.385         	2.103
MS.238         	11.36          	2.101
MS.239         	11.337         	2.208
MS.240         	11.315         	2.222
MS.241         	11.292         	2.175
MS.242         	11.27          	2.103
MS.243         	11.247         	2.232
MS.244         	11.225         	2.085
MS.245         	11.202         	2.114
MS.246         	11.18          	2.148
MS.247         	11.157         	2.049
MS.248         	11.135         	2.052
MS.249         	11.115         	2.246
MS.250         	11.092         	2.061
MS.251         	11.07          	2.107
MS.252         	11.047         	2.044
MS.253         	11.025         	1.929
MS.254         	11.002         	1.973
MS.255         	10.983         	1.889
MS.256         	10.96          	1.965
MS.257         	10.938         	1.752
MS.258         	10.915         	1.642
MS.259         	10.895         	1.675
MS.260         	10.872         	1.569
MS.261         	10.85          	1.542
MS.262         	10.827         	1.734
MS.263         	10.807         	1.56
MS.264         	10.785         	1.79
MS.265         	10.765         	1.532
MS.266         	10.742         	1.587
MS.267         	10.72          	1.619
MS.268         	10.7           	1.641
MS.269         	10.677         	1.617
MS.270         	10.657         	1.465
MS.271         	10.635         	1.491
MS.272         	10.615         	1.406
MS.273         	10.592         	1.526
MS.274         	10.573         	1.503
MS.275         	10.55          	1.46
MS.276         	10.53          	1.326
MS.277         	10.507         	1.332
MS.278         	10.488         	1.269
MS.279         	10.467         	1.343
MS.280         	10.445         	1.192
MS.281         	10.425         	1.339
MS.282         	10.405         	1.126
MS.283         	10.382         	1.227
MS.284         	10.363         	1.27
MS.285         	10.342         	1.154
MS.286         	10.32          	1.084
MS.287         	10.3           	0.934
MS.288         	10.28          	1.05
MS.289         	10.26          	0.963
MS.290         	10.24          	1.066
MS.291         	10.217         	1.135
MS.292         	10.198         	1.079
MS.293         	10.177         	0.982
MS.294         	10.157         	0.828
MS.295         	10.137         	0.975
MS.296         	10.117         	0.828
MS.297         	10.097         	0.797
MS.298         	10.077         	0.797
MS.299         	10.057         	0.847
MS.300         	10.035         	0.842
MS.301         	10.015         	0.743
MS.302         	9.995          	0.736
MS.303         	9.975          	0.922
MS.304         	9.955          	0.834
MS.305         	9.938          	0.792
MS.306         	9.917          	0.732
MS.307         	9.898          	0.706
MS.308         	9.877          	0.678
MS.309         	9.858          	0.842
MS.310         	9.837          	0.752
MS.311         	9.818          	0.682
MS.312         	9.797          	0.588
MS.313         	9.778          	0.654
MS.314         	9.76           	0.63
MS.315         	9.74           	0.667
MS.316         	9.72           	0.571
MS.317         	9.7            	0.572
MS.318         	9.682          	0.563
MS.319         	9.662          	0.593
MS.320         	9.642          	0.56
MS.321         	9.622          	0.546
MS.322         	9.605          	0.557
MS.323         	9.585          	0.512
MS.324         	9.565          	0.557
MS.325         	9.547          	0.629
MS.326         	9.528          	0.425
MS.327         	9.507          	0.569
MS.328         	9.49           	0.494
MS.329         	9.47           	0.545
MS.330         	9.452          	0.526
MS.331         	9.432          	0.436
MS.332         	9.415          	0.545
MS.333         	9.395          	0.448
MS.334         	9.377          	0.471
MS.335         	9.358          	0.411
MS.336         	9.34           	0.475
MS.337         	9.32           	0.428
MS.338         	9.302          	0.451
MS.339         	9.283          	0.438
MS.340         	9.265          	0.419
MS.341         	9.245          	0.031
MS.342         	9.227          	-0.069
MS.343         	9.21           	0.258
MS.344         	9.19           	0.33
MS.345         	9.172          	0.214
MS.346         	9.155          	0.249
MS.347         	9.135          	0.226
MS.348         	9.117          	0.209
MS.349         	9.1            	0.205
MS.350         	9.08           	0.246
MS.351         	9.062          	0.225
MS.352         	9.045          	0.135
MS.353         	9.028          	0.169
MS.354         	9.01           	0.223
MS.355         	8.99           	0.236
MS.356         	8.972          	0.244
MS.357         	8.955          	0.164
MS.358         	8.938          	0.108
MS.359         	8.92           	0.181
MS.360         	8.903          	0.14
MS.361         	8.882          	0.112
MS.362         	8.865          	0.045
MS.363         	8.847          	0.115
MS.364         	8.83           	0.081
MS.365         	8.812          	0.138
MS.366         	8.795          	0.083
MS.367         	8.778          	0.078
MS.368         	8.76           	0.073
MS.369         	8.742          	0.071
MS.370         	8.725          	0.073
MS.371         	8.707          	0.079
MS.372         	8.69           	0.000
MS.373         	8.672          	-0.001
MS.374         	8.655          	0.053
MS.375         	8.637          	0.073
MS.376         	8.62           	0.037
MS.377         	8.602          	0.045
MS.378         	8.587          	0.031
MS.379         	8.57           	0.028
MS.380         	8.552          	0.051
MS.381         	8.535          	0.024
MS.382         	8.517          	-0.029
MS.383         	8.5            	0.02
MS.384         	8.485          	-0.018
MS.385         	8.467          	0.048
MS.386         	8.45           	-0.015
MS.387         	8.432          	0.046
MS.388         	8.417          	-0.006
MS.389         	8.4            	-0.001
MS.390         	8.382          	0.026
MS.391         	8.365          	0.021
MS.392         	8.35           	-0.018
MS.393         	8.332          	0.005
MS.394         	8.315          	0.007
MS.395         	8.3            	0.017
MS.396         	8.283          	-0.007
MS.397         	8.267          	-0.045
MS.398         	8.25           	0.017
MS.399         	8.233          	0.019
MS.400         	8.217          	-0.024
MS.401         	8.2            	-0.007
MS.402         	8.185          	0.000
MS.403         	8.167          	-0.024
MS.404         	8.153          	0.01
MS.405         	8.135          	-0.016
MS.406         	8.12           	-0.063
MS.407         	8.102          	0.003
MS.408         	8.087          	0.001
MS.409         	8.07           	-0.018
MS.410         	8.055          	-0.026
MS.411         	8.037          	0.002
MS.412         	8.023          	-0.006
MS.413         	8.005          	-0.035
MS.414         	7.99           	-0.065
MS.415         	7.975          	-0.023
MS.416         	7.957          	-0.005
MS.417         	7.942          	-0.024
MS.418         	7.927          	-0.026
MS.419         	7.91           	-0.058
MS.420         	7.895          	-0.026
MS.421         	7.88           	-0.048
MS.422         	7.862          	-0.013
MS.423         	7.847          	-0.056
MS.424         	7.832          	-0.033
MS.425         	7.815          	-0.047
MS.426         	7.8            	-0.034
MS.427         	7.785          	-0.043
MS.428         	7.77           	-0.046
MS.429         	7.755          	-0.049
MS.430         	7.737          	-0.024
MS.431         	7.722          	-0.038
MS.432         	7.707          	-0.031
MS.433         	7.692          	-0.055
MS.434         	7.677          	-0.06
MS.435         	7.662          	-0.052
MS.436         	7.645          	-0.019
MS.437         	7.63           	-0.034
MS.438         	7.615          	-0.015
MS.439         	7.6            	-0.022
MS.440         	7.585          	-0.049
MS.441         	7.57           	-0.052
MS.442         	7.555          	-0.037
MS.443         	7.54           	-0.034
MS.444         	7.525          	-0.047
MS.445         	7.51           	-0.048
MS.446         	7.495          	-0.04
MS.447         	7.48           	-0.05
MS.448         	7.465          	-0.03
MS.449         	7.45           	-0.038
MS.450         	7.435          	-0.043
MS.451         	7.42           	-0.038
MS.452         	7.405          	-0.034
MS.453         	7.39           	-0.034
MS.454         	7.375          	-0.042
MS.455         	7.36           	-0.035
MS.456         	7.347          	-0.057
MS.457         	7.332          	-0.035
MS.458         	7.317          	-0.035
MS.459         	7.302          	-0.04
MS.460         	7.287          	-0.038
MS.461         	7.273          	-0.044
MS.462         	7.257          	-0.042
MS.463         	7.245          	-0.052
MS.464         	7.23           	-0.038
MS.465         	7.215          	-0.054
MS.466         	7.2            	-0.034
MS.467         	7.188          	-0.059
MS.468         	7.172          	-0.042
MS.469         	7.157          	-0.057
MS.470         	7.142          	-0.042
MS.471         	7.13           	-0.04
MS.472         	7.115          	-0.038
MS.473         	7.1            	-0.042
MS.474         	7.087          	-0.059
MS.475         	7.072          	-0.043
MS.476         	7.057          	-0.042
MS.477         	7.045          	-0.042
MS.478         	7.03           	-0.042
MS.479         	7.015          	-0.038
MS.480         	7.003          	-0.036
MS.481         	6.987          	-0.042
MS.482         	6.975          	-0.04
MS.483         	6.96           	-0.035
MS.484         	6.945          	-0.04
MS.485         	6.932          	-0.041
MS.486         	6.918          	-0.038
MS.487         	6.905          	-0.04
MS.488         	6.89           	-0.039
MS.489         	6.878          	-0.038
MS.490         	6.862          	-0.04
MS.491         	6.85           	-0.038
MS.492         	6.835          	-0.04
MS.493         	6.822          	-0.038
MS.494         	6.807          	-0.041
MS.495         	6.795          	-0.043
MS.496         	6.782          	-0.04
MS.497         	6.767          	-0.038
MS.498         	6.755          	-0.041
MS.499         	6.74           	-0.04
MS.500         	6.727          	-0.04
