File:              	C:\Qtrac\Data\ME2C30622A.QZD
Name:              	 ME27D
Protocol:          	MSCAN-MV
Date:              	22/6/23
Date of birth:     	27/11/02
Age:               	20
Sex:               	M
Temperature:       	31.3
S/R sites:         	Knee CF-TA
NC/disease:        	NC
Operator:          	BY
Comments:
M-SCAN DATA (Repeat 2/4, 12.3-4.7m)
Scanpts: 1, 26, 564, 610
Stim. (mA)     	Amp. (mV)
MS.1           	7.5            	11.457
MS.2           	7.5            	11.524
MS.3           	7.5            	11.558
MS.4           	7.5            	11.368
MS.5           	7.5            	11.532
MS.6           	7.5            	11.529
MS.7           	7.5            	11.506
MS.8           	7.5            	11.54
MS.9           	7.5            	11.449
MS.10          	7.5            	11.545
MS.11          	7.5            	11.589
MS.12          	7.5            	11.546
MS.13          	7.5            	11.337
MS.14          	7.5            	11.516
MS.15          	7.5            	11.55
MS.16          	7.5            	11.379
MS.17          	7.5            	11.322
MS.18          	7.5            	11.544
MS.19          	7.5            	11.559
MS.20          	7.5            	11.479
MS.21          	7.5            	11.598
MS.22          	7.5            	11.422
MS.23          	7.5            	11.5
MS.24          	7.485          	11.484
MS.25          	7.47           	11.504
MS.26          	7.455          	11.54
MS.27          	7.44           	11.483
MS.28          	7.425          	11.232
MS.29          	7.41           	11.397
MS.30          	7.395          	11.367
MS.31          	7.38           	11.425
MS.32          	7.365          	11.324
MS.33          	7.352          	11.491
MS.34          	7.337          	11.277
MS.35          	7.322          	11.343
MS.36          	7.307          	11.336
MS.37          	7.293          	11.21
MS.38          	7.277          	11.166
MS.39          	7.265          	11.295
MS.40          	7.25           	11.394
MS.41          	7.235          	11.281
MS.42          	7.22           	11.424
MS.43          	7.205          	11.296
MS.44          	7.192          	11.484
MS.45          	7.177          	11.224
MS.46          	7.162          	11.318
MS.47          	7.148          	11.354
MS.48          	7.135          	11.243
MS.49          	7.12           	11.449
MS.50          	7.105          	11.036
MS.51          	7.092          	11.277
MS.52          	7.077          	11.306
MS.53          	7.062          	11.382
MS.54          	7.05           	11.288
MS.55          	7.035          	11.381
MS.56          	7.02           	11.369
MS.57          	7.007          	11.172
MS.58          	6.992          	11.336
MS.59          	6.98           	11.374
MS.60          	6.965          	11.184
MS.61          	6.95           	11.106
MS.62          	6.938          	11.109
MS.63          	6.922          	11.359
MS.64          	6.91           	11.388
MS.65          	6.895          	11.251
MS.66          	6.882          	11.149
MS.67          	6.867          	11.083
MS.68          	6.855          	11.121
MS.69          	6.84           	11.132
MS.70          	6.827          	11.216
MS.71          	6.812          	11.116
MS.72          	6.8            	11.144
MS.73          	6.787          	10.944
MS.74          	6.773          	10.964
MS.75          	6.76           	11.111
MS.76          	6.745          	10.576
MS.77          	6.733          	11.181
MS.78          	6.72           	11.18
MS.79          	6.705          	11.226
MS.80          	6.692          	10.867
MS.81          	6.677          	10.697
MS.82          	6.665          	10.739
MS.83          	6.652          	10.85
MS.84          	6.637          	10.806
MS.85          	6.625          	11.024
MS.86          	6.612          	10.579
MS.87          	6.6            	10.562
MS.88          	6.585          	10.69
MS.89          	6.572          	10.853
MS.90          	6.56           	10.276
MS.91          	6.547          	10.472
MS.92          	6.532          	10.872
MS.93          	6.52           	10.509
MS.94          	6.507          	10.458
MS.95          	6.495          	10.187
MS.96          	6.48           	9.916
MS.97          	6.467          	10.042
MS.98          	6.455          	10.117
MS.99          	6.442          	10.215
MS.100         	6.43           	10.064
MS.101         	6.418          	10.329
MS.102         	6.405          	9.961
MS.103         	6.39           	10.353
MS.104         	6.378          	9.648
MS.105         	6.365          	9.683
MS.106         	6.352          	9.853
MS.107         	6.34           	9.73
MS.108         	6.327          	9.851
MS.109         	6.315          	10.064
MS.110         	6.302          	10.166
MS.111         	6.29           	9.836
MS.112         	6.277          	9.561
MS.113         	6.265          	9.743
MS.114         	6.253          	9.572
MS.115         	6.24           	9.547
MS.116         	6.227          	9.615
MS.117         	6.215          	9.341
MS.118         	6.202          	9.431
MS.119         	6.19           	9.605
MS.120         	6.177          	9.485
MS.121         	6.165          	9.5
MS.122         	6.152          	9.565
MS.123         	6.14           	9.321
MS.124         	6.128          	9.501
MS.125         	6.115          	9.285
MS.126         	6.102          	9.201
MS.127         	6.092          	9.427
MS.128         	6.08           	9.33
MS.129         	6.067          	9.239
MS.130         	6.055          	9.324
MS.131         	6.043          	9.35
MS.132         	6.03           	9.006
MS.133         	6.02           	9.155
MS.134         	6.007          	9.13
MS.135         	5.995          	9.333
MS.136         	5.983          	9.439
MS.137         	5.97           	9.07
MS.138         	5.96           	8.934
MS.139         	5.947          	9.156
MS.140         	5.935          	9.019
MS.141         	5.922          	9.09
MS.142         	5.912          	8.68
MS.143         	5.9            	9.18
MS.144         	5.887          	9.058
MS.145         	5.875          	8.801
MS.146         	5.865          	9.004
MS.147         	5.852          	8.663
MS.148         	5.84           	8.669
MS.149         	5.83           	8.721
MS.150         	5.817          	8.964
MS.151         	5.805          	8.654
MS.152         	5.795          	8.565
MS.153         	5.782          	8.713
MS.154         	5.773          	8.665
MS.155         	5.76           	8.954
MS.156         	5.747          	8.887
MS.157         	5.737          	8.629
MS.158         	5.725          	8.609
MS.159         	5.715          	8.659
MS.160         	5.702          	8.532
MS.161         	5.69           	8.387
MS.162         	5.68           	8.524
MS.163         	5.668          	8.358
MS.164         	5.657          	8.405
MS.165         	5.645          	8.366
MS.166         	5.635          	8.341
MS.167         	5.622          	8.557
MS.168         	5.612          	8.452
MS.169         	5.6            	8.054
MS.170         	5.59           	8.252
MS.171         	5.577          	8.076
MS.172         	5.567          	8.611
MS.173         	5.555          	8.094
MS.174         	5.545          	8.184
MS.175         	5.535          	8.103
MS.176         	5.523          	8.156
MS.177         	5.512          	7.877
MS.178         	5.5            	8.07
MS.179         	5.49           	8.044
MS.180         	5.48           	7.978
MS.181         	5.467          	8.128
MS.182         	5.457          	7.961
MS.183         	5.445          	8.027
MS.184         	5.435          	7.969
MS.185         	5.425          	7.672
MS.186         	5.412          	8.036
MS.187         	5.402          	7.939
MS.188         	5.392          	7.795
MS.189         	5.38           	7.503
MS.190         	5.37           	7.764
MS.191         	5.36           	7.437
MS.192         	5.35           	7.659
MS.193         	5.338          	7.404
MS.194         	5.327          	7.544
MS.195         	5.318          	7.543
MS.196         	5.307          	7.594
MS.197         	5.295          	7.422
MS.198         	5.285          	7.473
MS.199         	5.275          	7.364
MS.200         	5.265          	7.161
MS.201         	5.253          	7.504
MS.202         	5.242          	7.497
MS.203         	5.233          	7.342
MS.204         	5.222          	7.108
MS.205         	5.213          	7.295
MS.206         	5.202          	7.376
MS.207         	5.19           	7.106
MS.208         	5.18           	7.319
MS.209         	5.17           	7.048
MS.210         	5.16           	6.946
MS.211         	5.15           	6.93
MS.212         	5.14           	6.677
MS.213         	5.13           	6.772
MS.214         	5.117          	6.905
MS.215         	5.108          	6.643
MS.216         	5.097          	6.769
MS.217         	5.088          	6.349
MS.218         	5.077          	6.259
MS.219         	5.068          	6.315
MS.220         	5.057          	6.625
MS.221         	5.047          	6.199
MS.222         	5.037          	6.146
MS.223         	5.027          	6.268
MS.224         	5.017          	6.407
MS.225         	5.007          	5.993
MS.226         	4.997          	5.728
MS.227         	4.987          	5.981
MS.228         	4.977          	5.685
MS.229         	4.967          	5.906
MS.230         	4.957          	5.913
MS.231         	4.947          	5.905
MS.232         	4.938          	5.876
MS.233         	4.927          	5.325
MS.234         	4.918          	5.464
MS.235         	4.907          	5.481
MS.236         	4.898          	5.237
MS.237         	4.887          	5.475
MS.238         	4.88           	5.485
MS.239         	4.87           	4.998
MS.240         	4.86           	5.096
MS.241         	4.85           	4.941
MS.242         	4.84           	5.306
MS.243         	4.83           	4.893
MS.244         	4.82           	4.918
MS.245         	4.81           	5.054
MS.246         	4.802          	4.964
MS.247         	4.793          	4.883
MS.248         	4.782          	4.876
MS.249         	4.773          	4.672
MS.250         	4.762          	4.601
MS.251         	4.753          	4.736
MS.252         	4.745          	4.812
MS.253         	4.735          	4.694
MS.254         	4.725          	4.591
MS.255         	4.715          	4.31
MS.256         	4.707          	4.25
MS.257         	4.697          	4.601
MS.258         	4.688          	4.214
MS.259         	4.677          	4.345
MS.260         	4.67           	4.068
MS.261         	4.66           	3.917
MS.262         	4.65           	3.908
MS.263         	4.64           	3.928
MS.264         	4.632          	4.229
MS.265         	4.622          	4.062
MS.266         	4.612          	3.989
MS.267         	4.605          	3.975
MS.268         	4.595          	3.593
MS.269         	4.585          	3.862
MS.270         	4.577          	3.78
MS.271         	4.568          	3.778
MS.272         	4.557          	3.64
MS.273         	4.55           	3.732
MS.274         	4.54           	3.565
MS.275         	4.53           	3.698
MS.276         	4.523          	3.491
MS.277         	4.512          	3.495
MS.278         	4.503          	3.517
MS.279         	4.495          	3.335
MS.280         	4.485          	3.16
MS.281         	4.477          	3.355
MS.282         	4.467          	3.143
MS.283         	4.46           	2.968
MS.284         	4.45           	3.304
MS.285         	4.44           	3.391
MS.286         	4.432          	3.267
MS.287         	4.423          	3.094
MS.288         	4.415          	3.154
MS.289         	4.405          	3.078
MS.290         	4.398          	3.013
MS.291         	4.387          	3.057
MS.292         	4.38           	2.789
MS.293         	4.37           	2.852
MS.294         	4.362          	2.806
MS.295         	4.352          	2.672
MS.296         	4.345          	2.637
MS.297         	4.335          	2.686
MS.298         	4.327          	2.435
MS.299         	4.318          	2.501
MS.300         	4.31           	2.614
MS.301         	4.3            	2.416
MS.302         	4.293          	2.654
MS.303         	4.285          	2.596
MS.304         	4.275          	2.391
MS.305         	4.267          	2.252
MS.306         	4.257          	2.385
MS.307         	4.25           	2.156
MS.308         	4.242          	2.308
MS.309         	4.233          	2.26
MS.310         	4.225          	2.077
MS.311         	4.215          	2.123
MS.312         	4.207          	2.169
MS.313         	4.2            	2.006
MS.314         	4.19           	1.996
MS.315         	4.182          	1.884
MS.316         	4.175          	1.931
MS.317         	4.165          	1.94
MS.318         	4.157          	1.801
MS.319         	4.15           	1.985
MS.320         	4.14           	1.88
MS.321         	4.132          	1.956
MS.322         	4.125          	1.836
MS.323         	4.115          	1.84
MS.324         	4.108          	1.882
MS.325         	4.1            	1.808
MS.326         	4.092          	1.852
MS.327         	4.082          	1.652
MS.328         	4.075          	1.738
MS.329         	4.068          	1.617
MS.330         	4.06           	1.743
MS.331         	4.05           	1.704
MS.332         	4.043          	1.614
MS.333         	4.035          	1.614
MS.334         	4.027          	1.649
MS.335         	4.017          	1.635
MS.336         	4.01           	1.509
MS.337         	4.003          	1.479
MS.338         	3.995          	1.527
MS.339         	3.987          	1.458
MS.340         	3.977          	1.509
MS.341         	3.97           	1.549
MS.342         	3.962          	1.617
MS.343         	3.955          	1.495
MS.344         	3.947          	1.573
MS.345         	3.94           	1.573
MS.346         	3.93           	1.451
MS.347         	3.922          	1.434
MS.348         	3.915          	1.508
MS.349         	3.908          	1.566
MS.350         	3.9            	1.447
MS.351         	3.892          	1.477
MS.352         	3.885          	1.531
MS.353         	3.877          	1.529
MS.354         	3.867          	1.525
MS.355         	3.86           	1.428
MS.356         	3.852          	1.513
MS.357         	3.845          	1.446
MS.358         	3.837          	1.489
MS.359         	3.83           	1.458
MS.360         	3.822          	1.484
MS.361         	3.815          	1.432
MS.362         	3.807          	1.462
MS.363         	3.8            	1.453
MS.364         	3.793          	1.497
MS.365         	3.785          	1.471
MS.366         	3.777          	1.447
MS.367         	3.77           	1.47
MS.368         	3.762          	1.434
MS.369         	3.755          	1.382
MS.370         	3.747          	1.339
MS.371         	3.74           	1.341
MS.372         	3.732          	1.403
MS.373         	3.725          	1.393
MS.374         	3.717          	1.354
MS.375         	3.71           	1.339
MS.376         	3.702          	1.339
MS.377         	3.695          	1.276
MS.378         	3.688          	1.293
MS.379         	3.68           	1.34
MS.380         	3.672          	1.287
MS.381         	3.665          	1.189
MS.382         	3.658          	1.295
MS.383         	3.65           	1.294
MS.384         	3.642          	1.27
MS.385         	3.635          	1.266
MS.386         	3.63           	1.298
MS.387         	3.622          	1.274
MS.388         	3.615          	1.213
MS.389         	3.607          	1.234
MS.390         	3.6            	1.174
MS.391         	3.592          	1.296
MS.392         	3.585          	1.091
MS.393         	3.577          	1.185
MS.394         	3.57           	1.192
MS.395         	3.565          	1.169
MS.396         	3.557          	1.172
MS.397         	3.55           	1.202
MS.398         	3.543          	1.188
MS.399         	3.535          	1.053
MS.400         	3.527          	1.21
MS.401         	3.523          	1.166
MS.402         	3.515          	1.091
MS.403         	3.507          	1.085
MS.404         	3.5            	1.12
MS.405         	3.492          	1.109
MS.406         	3.487          	1.132
MS.407         	3.48           	1.138
MS.408         	3.472          	1.157
MS.409         	3.465          	1.187
MS.410         	3.457          	1.16
MS.411         	3.452          	1.057
MS.412         	3.445          	1.071
MS.413         	3.438          	1.144
MS.414         	3.43           	0.992
MS.415         	3.425          	1.097
MS.416         	3.418          	0.99
MS.417         	3.41           	1.037
MS.418         	3.405          	0.959
MS.419         	3.398          	1.023
MS.420         	3.39           	1.005
MS.421         	3.382          	0.95
MS.422         	3.377          	1.06
MS.423         	3.37           	0.967
MS.424         	3.362          	0.988
MS.425         	3.357          	0.882
MS.426         	3.35           	0.895
MS.427         	3.342          	0.934
MS.428         	3.337          	0.895
MS.429         	3.33           	0.849
MS.430         	3.322          	0.912
MS.431         	3.317          	0.855
MS.432         	3.31           	0.897
MS.433         	3.303          	0.839
MS.434         	3.297          	0.795
MS.435         	3.29           	0.717
MS.436         	3.283          	0.844
MS.437         	3.277          	0.787
MS.438         	3.27           	0.732
MS.439         	3.265          	0.768
MS.440         	3.257          	0.822
MS.441         	3.25           	0.721
MS.442         	3.245          	0.776
MS.443         	3.237          	0.671
MS.444         	3.232          	0.671
MS.445         	3.225          	0.715
MS.446         	3.217          	0.614
MS.447         	3.212          	0.592
MS.448         	3.205          	0.6
MS.449         	3.2            	0.67
MS.450         	3.192          	0.499
MS.451         	3.188          	0.566
MS.452         	3.18           	0.63
MS.453         	3.172          	0.565
MS.454         	3.168          	0.577
MS.455         	3.16           	0.573
MS.456         	3.155          	0.562
MS.457         	3.148          	0.52
MS.458         	3.142          	0.515
MS.459         	3.135          	0.566
MS.460         	3.13           	0.64
MS.461         	3.122          	0.527
MS.462         	3.117          	0.499
MS.463         	3.11           	0.543
MS.464         	3.105          	0.483
MS.465         	3.097          	0.443
MS.466         	3.092          	0.497
MS.467         	3.085          	0.439
MS.468         	3.08           	0.478
MS.469         	3.075          	0.482
MS.470         	3.067          	0.508
MS.471         	3.062          	0.442
MS.472         	3.055          	0.436
MS.473         	3.05           	0.439
MS.474         	3.043          	0.436
MS.475         	3.037          	0.414
MS.476         	3.03           	0.433
MS.477         	3.025          	0.427
MS.478         	3.02           	0.474
MS.479         	3.013          	0.411
MS.480         	3.007          	0.381
MS.481         	3              	0.383
MS.482         	2.995          	0.474
MS.483         	2.99           	0.381
MS.484         	2.982          	0.406
MS.485         	2.977          	0.366
MS.486         	2.97           	0.403
MS.487         	2.965          	0.389
MS.488         	2.96           	0.378
MS.489         	2.952          	0.347
MS.490         	2.947          	0.391
MS.491         	2.942          	0.374
MS.492         	2.935          	0.357
MS.493         	2.93           	0.35
MS.494         	2.925          	0.392
MS.495         	2.918          	0.327
MS.496         	2.912          	0.335
MS.497         	2.908          	0.291
MS.498         	2.9            	0.256
MS.499         	2.895          	0.305
MS.500         	2.89           	0.31
