File:              	C:\Qtrac\Data\ME2C30629A.QZD
Name:              	 HA02N
Protocol:          	MSCAN-MV
Date:              	29/6/23
Date of birth:     	2/3/00
Age:               	23
Sex:               	M
Temperature:       	33.7
S/R sites:         	Knee CF-TA
NC/disease:        	NC
Operator:          	BY
Comments:
M-SCAN DATA (Repeat 3/3, 40.5-28.8m)
Scanpts: 1, 23, 885, 930
Stim. (mA)     	Amp. (mV)
MS.1           	15             	4.714
MS.2           	15             	4.706
MS.3           	15             	4.711
MS.4           	15             	4.695
MS.5           	15             	4.691
MS.6           	15             	4.711
MS.7           	15             	4.697
MS.8           	15             	4.696
MS.9           	15             	4.705
MS.10          	15             	4.709
MS.11          	15             	4.702
MS.12          	15             	4.702
MS.13          	15             	4.706
MS.14          	15             	4.708
MS.15          	15             	4.703
MS.16          	15             	4.713
MS.17          	15             	4.698
MS.18          	15             	4.716
MS.19          	15             	4.709
MS.20          	15             	4.707
MS.21          	15             	4.708
MS.22          	15             	4.694
MS.23          	15             	4.706
MS.24          	14.97          	4.704
MS.25          	14.94          	4.709
MS.26          	14.91          	4.68
MS.27          	14.88          	4.716
MS.28          	14.85          	4.705
MS.29          	14.82          	4.695
MS.30          	14.792         	4.689
MS.31          	14.762         	4.684
MS.32          	14.733         	4.689
MS.33          	14.702         	4.565
MS.34          	14.672         	4.684
MS.35          	14.645         	4.697
MS.36          	14.615         	4.687
MS.37          	14.585         	4.683
MS.38          	14.557         	4.683
MS.39          	14.527         	4.679
MS.40          	14.497         	4.595
MS.41          	14.47          	4.688
MS.42          	14.44          	4.692
MS.43          	14.412         	4.586
MS.44          	14.382         	4.682
MS.45          	14.355         	4.587
MS.46          	14.325         	4.673
MS.47          	14.297         	4.571
MS.48          	14.267         	4.563
MS.49          	14.24          	4.579
MS.50          	14.212         	4.688
MS.51          	14.182         	4.586
MS.52          	14.155         	4.565
MS.53          	14.127         	4.555
MS.54          	14.097         	4.558
MS.55          	14.07          	4.55
MS.56          	14.042         	4.563
MS.57          	14.015         	4.665
MS.58          	13.985         	4.554
MS.59          	13.957         	4.565
MS.60          	13.93          	4.552
MS.61          	13.903         	4.575
MS.62          	13.875         	4.573
MS.63          	13.847         	4.67
MS.64          	13.82          	4.548
MS.65          	13.792         	4.658
MS.66          	13.765         	4.661
MS.67          	13.737         	4.57
MS.68          	13.71          	4.557
MS.69          	13.682         	4.551
MS.70          	13.655         	4.541
MS.71          	13.627         	4.547
MS.72          	13.6           	4.554
MS.73          	13.572         	4.543
MS.74          	13.545         	4.548
MS.75          	13.517         	4.542
MS.76          	13.492         	4.55
MS.77          	13.465         	4.553
MS.78          	13.438         	4.553
MS.79          	13.41          	4.551
MS.80          	13.385         	4.539
MS.81          	13.358         	4.529
MS.82          	13.33          	4.54
MS.83          	13.305         	4.565
MS.84          	13.278         	4.53
MS.85          	13.25          	4.538
MS.86          	13.225         	4.547
MS.87          	13.197         	4.55
MS.88          	13.172         	4.534
MS.89          	13.145         	4.554
MS.90          	13.12          	4.542
MS.91          	13.092         	4.553
MS.92          	13.068         	4.536
MS.93          	13.04          	4.553
MS.94          	13.015         	4.55
MS.95          	12.987         	4.527
MS.96          	12.962         	4.537
MS.97          	12.938         	4.526
MS.98          	12.91          	4.518
MS.99          	12.885         	4.538
MS.100         	12.86          	4.548
MS.101         	12.832         	4.53
MS.102         	12.807         	4.538
MS.103         	12.782         	4.525
MS.104         	12.757         	4.542
MS.105         	12.73          	4.539
MS.106         	12.705         	4.536
MS.107         	12.68          	4.526
MS.108         	12.655         	4.53
MS.109         	12.63          	4.536
MS.110         	12.605         	4.521
MS.111         	12.58          	4.537
MS.112         	12.555         	4.531
MS.113         	12.53          	4.521
MS.114         	12.505         	4.525
MS.115         	12.48          	4.521
MS.116         	12.455         	4.532
MS.117         	12.43          	4.526
MS.118         	12.405         	4.506
MS.119         	12.38          	4.527
MS.120         	12.355         	4.523
MS.121         	12.33          	4.515
MS.122         	12.305         	4.537
MS.123         	12.28          	4.521
MS.124         	12.257         	4.531
MS.125         	12.233         	4.524
MS.126         	12.207         	4.518
MS.127         	12.182         	4.509
MS.128         	12.16          	4.526
MS.129         	12.135         	4.527
MS.130         	12.11          	4.514
MS.131         	12.085         	4.524
MS.132         	12.062         	4.527
MS.133         	12.037         	4.514
MS.134         	12.012         	4.531
MS.135         	11.99          	4.506
MS.136         	11.965         	4.521
MS.137         	11.943         	4.525
MS.138         	11.917         	4.521
MS.139         	11.895         	4.521
MS.140         	11.87          	4.512
MS.141         	11.847         	4.518
MS.142         	11.822         	4.511
MS.143         	11.8           	4.506
MS.144         	11.775         	4.513
MS.145         	11.752         	4.517
MS.146         	11.73          	4.515
MS.147         	11.705         	4.539
MS.148         	11.682         	4.517
MS.149         	11.657         	4.536
MS.150         	11.635         	4.515
MS.151         	11.613         	4.503
MS.152         	11.59          	4.505
MS.153         	11.565         	4.517
MS.154         	11.542         	4.543
MS.155         	11.52          	4.515
MS.156         	11.497         	4.495
MS.157         	11.472         	4.522
MS.158         	11.45          	4.507
MS.159         	11.427         	4.504
MS.160         	11.405         	4.501
MS.161         	11.382         	4.512
MS.162         	11.36          	4.513
MS.163         	11.337         	4.506
MS.164         	11.315         	4.478
MS.165         	11.292         	4.515
MS.166         	11.27          	4.531
MS.167         	11.247         	4.515
MS.168         	11.225         	4.502
MS.169         	11.202         	4.493
MS.170         	11.18          	4.494
MS.171         	11.157         	4.49
MS.172         	11.135         	4.457
MS.173         	11.113         	4.498
MS.174         	11.09          	4.475
MS.175         	11.068         	4.495
MS.176         	11.045         	4.489
MS.177         	11.023         	4.507
MS.178         	11.002         	4.517
MS.179         	10.98          	4.477
MS.180         	10.957         	4.489
MS.181         	10.935         	4.503
MS.182         	10.915         	4.471
MS.183         	10.892         	4.49
MS.184         	10.87          	4.48
MS.185         	10.85          	4.48
MS.186         	10.827         	4.484
MS.187         	10.805         	4.481
MS.188         	10.785         	4.496
MS.189         	10.762         	4.47
MS.190         	10.74          	4.464
MS.191         	10.72          	4.438
MS.192         	10.698         	4.462
MS.193         	10.677         	4.458
MS.194         	10.655         	4.505
MS.195         	10.635         	4.473
MS.196         	10.613         	4.479
MS.197         	10.592         	4.465
MS.198         	10.57          	4.459
MS.199         	10.55          	4.464
MS.200         	10.528         	4.471
MS.201         	10.507         	4.438
MS.202         	10.485         	4.468
MS.203         	10.465         	4.454
MS.204         	10.445         	4.445
MS.205         	10.422         	4.452
MS.206         	10.403         	4.464
MS.207         	10.382         	4.464
MS.208         	10.36          	4.461
MS.209         	10.34          	4.46
MS.210         	10.32          	4.459
MS.211         	10.3           	4.46
MS.212         	10.278         	4.468
MS.213         	10.257         	4.454
MS.214         	10.238         	4.464
MS.215         	10.217         	4.446
MS.216         	10.198         	4.445
MS.217         	10.175         	4.436
MS.218         	10.155         	4.441
MS.219         	10.135         	4.442
MS.220         	10.115         	4.448
MS.221         	10.095         	4.446
MS.222         	10.075         	4.441
MS.223         	10.055         	4.442
MS.224         	10.035         	4.433
MS.225         	10.015         	4.435
MS.226         	9.995          	4.457
MS.227         	9.975          	4.408
MS.228         	9.955          	4.401
MS.229         	9.935          	4.429
MS.230         	9.915          	4.415
MS.231         	9.895          	4.388
MS.232         	9.875          	4.399
MS.233         	9.855          	4.451
MS.234         	9.835          	4.421
MS.235         	9.818          	4.361
MS.236         	9.797          	4.393
MS.237         	9.778          	4.377
MS.238         	9.757          	4.381
MS.239         	9.738          	4.374
MS.240         	9.717          	4.397
MS.241         	9.7            	4.376
MS.242         	9.68           	4.33
MS.243         	9.66           	4.349
MS.244         	9.64           	4.307
MS.245         	9.622          	4.398
MS.246         	9.602          	4.323
MS.247         	9.582          	4.331
MS.248         	9.565          	4.337
MS.249         	9.545          	4.404
MS.250         	9.525          	4.375
MS.251         	9.507          	4.314
MS.252         	9.488          	4.368
MS.253         	9.47           	4.316
MS.254         	9.45           	4.362
MS.255         	9.432          	4.311
MS.256         	9.412          	4.36
MS.257         	9.395          	4.368
MS.258         	9.375          	4.321
MS.259         	9.358          	4.357
MS.260         	9.337          	4.357
MS.261         	9.32           	4.361
MS.262         	9.3            	4.343
MS.263         	9.283          	4.344
MS.264         	9.262          	4.359
MS.265         	9.245          	4.373
MS.266         	9.225          	4.351
MS.267         	9.207          	4.349
MS.268         	9.19           	4.352
MS.269         	9.17           	4.336
MS.270         	9.153          	4.357
MS.271         	9.135          	4.333
MS.272         	9.115          	4.351
MS.273         	9.097          	4.329
MS.274         	9.08           	4.33
MS.275         	9.062          	4.333
MS.276         	9.042          	4.324
MS.277         	9.025          	4.318
MS.278         	9.007          	4.345
MS.279         	8.99           	4.324
MS.280         	8.972          	4.312
MS.281         	8.952          	4.314
MS.282         	8.935          	4.319
MS.283         	8.917          	4.308
MS.284         	8.9            	4.301
MS.285         	8.882          	4.304
MS.286         	8.865          	4.307
MS.287         	8.847          	4.301
MS.288         	8.83           	4.319
MS.289         	8.812          	4.312
MS.290         	8.795          	4.301
MS.291         	8.778          	4.313
MS.292         	8.757          	4.318
MS.293         	8.74           	4.305
MS.294         	8.725          	4.305
MS.295         	8.707          	4.299
MS.296         	8.69           	4.296
MS.297         	8.672          	4.297
MS.298         	8.655          	4.293
MS.299         	8.637          	4.308
MS.300         	8.62           	4.299
MS.301         	8.602          	4.299
MS.302         	8.585          	4.254
MS.303         	8.568          	4.285
MS.304         	8.55           	4.323
MS.305         	8.535          	4.294
MS.306         	8.517          	4.241
MS.307         	8.5            	4.169
MS.308         	8.483          	4.283
MS.309         	8.465          	4.195
MS.310         	8.45           	4.205
MS.311         	8.432          	4.268
MS.312         	8.415          	4.27
MS.313         	8.398          	4.21
MS.314         	8.382          	4.176
MS.315         	8.365          	4.2
MS.316         	8.347          	4.26
MS.317         	8.332          	4.243
MS.318         	8.315          	4.241
MS.319         	8.297          	4.155
MS.320         	8.283          	4.249
MS.321         	8.265          	4.221
MS.322         	8.247          	4.177
MS.323         	8.233          	4.24
MS.324         	8.215          	4.144
MS.325         	8.2            	4.172
MS.326         	8.182          	4.185
MS.327         	8.167          	4.197
MS.328         	8.15           	4.209
MS.329         	8.135          	4.175
MS.330         	8.117          	4.15
MS.331         	8.102          	4.181
MS.332         	8.085          	4.136
MS.333         	8.07           	4.146
MS.334         	8.052          	4.127
MS.335         	8.037          	4.144
MS.336         	8.02           	4.193
MS.337         	8.005          	4.141
MS.338         	7.99           	4.17
MS.339         	7.972          	4.156
MS.340         	7.957          	4.135
MS.341         	7.94           	4.166
MS.342         	7.925          	4.097
MS.343         	7.91           	4.123
MS.344         	7.892          	4.146
MS.345         	7.878          	4.095
MS.346         	7.862          	4.156
MS.347         	7.847          	4.081
MS.348         	7.83           	4.058
MS.349         	7.815          	4.15
MS.350         	7.8            	4.13
MS.351         	7.785          	4.057
MS.352         	7.767          	4.135
MS.353         	7.753          	4.107
MS.354         	7.737          	4.108
MS.355         	7.722          	4.119
MS.356         	7.707          	4.089
MS.357         	7.69           	4.064
MS.358         	7.675          	4.108
MS.359         	7.66           	4.097
MS.360         	7.645          	4.111
MS.361         	7.63           	4.06
MS.362         	7.615          	4.073
MS.363         	7.6            	4.019
MS.364         	7.585          	4.057
MS.365         	7.57           	3.989
MS.366         	7.555          	4.097
MS.367         	7.537          	4.069
MS.368         	7.523          	3.978
MS.369         	7.507          	4.045
MS.370         	7.492          	4.006
MS.371         	7.477          	3.99
MS.372         	7.462          	3.937
MS.373         	7.45           	3.961
MS.374         	7.435          	3.952
MS.375         	7.42           	3.922
MS.376         	7.405          	3.951
MS.377         	7.39           	3.976
MS.378         	7.375          	3.985
MS.379         	7.36           	3.948
MS.380         	7.345          	3.914
MS.381         	7.33           	3.824
MS.382         	7.315          	3.917
MS.383         	7.302          	3.893
MS.384         	7.287          	3.692
MS.385         	7.273          	3.868
MS.386         	7.257          	3.778
MS.387         	7.242          	3.892
MS.388         	7.227          	3.858
MS.389         	7.215          	3.792
MS.390         	7.2            	3.755
MS.391         	7.185          	3.763
MS.392         	7.17           	3.812
MS.393         	7.157          	3.589
MS.394         	7.142          	3.775
MS.395         	7.128          	3.668
MS.396         	7.115          	3.665
MS.397         	7.1            	3.663
MS.398         	7.085          	3.561
MS.399         	7.072          	3.605
MS.400         	7.057          	3.618
MS.401         	7.043          	3.669
MS.402         	7.03           	3.594
MS.403         	7.015          	3.667
MS.404         	7              	3.606
MS.405         	6.987          	3.56
MS.406         	6.972          	3.582
MS.407         	6.96           	3.643
MS.408         	6.945          	3.468
MS.409         	6.932          	3.619
MS.410         	6.918          	3.587
MS.411         	6.902          	3.623
MS.412         	6.89           	3.616
MS.413         	6.875          	3.574
MS.414         	6.862          	3.474
MS.415         	6.847          	3.527
MS.416         	6.835          	3.441
MS.417         	6.822          	3.558
MS.418         	6.807          	3.459
MS.419         	6.795          	3.55
MS.420         	6.78           	3.419
MS.421         	6.767          	3.385
MS.422         	6.753          	3.465
MS.423         	6.74           	3.521
MS.424         	6.727          	3.33
MS.425         	6.712          	3.419
MS.426         	6.7            	3.448
MS.427         	6.685          	3.417
MS.428         	6.672          	3.336
MS.429         	6.66           	3.4
MS.430         	6.645          	3.392
MS.431         	6.632          	3.422
MS.432         	6.62           	3.372
MS.433         	6.608          	3.432
MS.434         	6.592          	3.372
MS.435         	6.58           	3.444
MS.436         	6.567          	3.248
MS.437         	6.555          	3.377
MS.438         	6.54           	3.377
MS.439         	6.527          	3.289
MS.440         	6.515          	3.21
MS.441         	6.503          	3.317
MS.442         	6.487          	3.251
MS.443         	6.475          	3.323
MS.444         	6.462          	3.261
MS.445         	6.45           	3.182
MS.446         	6.438          	3.221
MS.447         	6.425          	3.142
MS.448         	6.41           	3.177
MS.449         	6.398          	3.224
MS.450         	6.385          	3.169
MS.451         	6.372          	3.123
MS.452         	6.36           	3.145
MS.453         	6.347          	3.016
MS.454         	6.335          	3.14
MS.455         	6.322          	3.096
MS.456         	6.31           	2.963
MS.457         	6.297          	3.118
MS.458         	6.285          	2.96
MS.459         	6.273          	3.054
MS.460         	6.26           	2.991
MS.461         	6.247          	2.986
MS.462         	6.235          	2.996
MS.463         	6.222          	3.019
MS.464         	6.21           	2.976
MS.465         	6.197          	2.936
MS.466         	6.185          	2.946
MS.467         	6.172          	2.917
MS.468         	6.16           	2.8
MS.469         	6.148          	2.783
MS.470         	6.135          	2.82
MS.471         	6.122          	2.835
MS.472         	6.11           	2.734
MS.473         	6.097          	2.778
MS.474         	6.088          	2.76
MS.475         	6.075          	2.688
MS.476         	6.062          	2.592
MS.477         	6.05           	2.625
MS.478         	6.037          	2.667
MS.479         	6.025          	2.547
MS.480         	6.015          	2.606
MS.481         	6.003          	2.706
MS.482         	5.99           	2.365
MS.483         	5.977          	2.424
MS.484         	5.965          	2.402
MS.485         	5.955          	2.424
MS.486         	5.942          	2.322
MS.487         	5.93           	2.332
MS.488         	5.918          	2.338
MS.489         	5.907          	2.379
MS.490         	5.895          	2.319
MS.491         	5.882          	2.247
MS.492         	5.87           	2.291
MS.493         	5.86           	2.382
MS.494         	5.847          	2.37
MS.495         	5.835          	2.195
MS.496         	5.825          	2.17
MS.497         	5.812          	2.19
MS.498         	5.8            	2.117
MS.499         	5.79           	2.137
MS.500         	5.777          	2.13
MS.501         	5.767          	2.165
MS.502         	5.755          	2.119
MS.503         	5.742          	2.017
