File:              	C:\Qtrac\Data\ME2C30712A.QZD
Name:              	 JA20R
Protocol:          	MSCAN-MV
Date:              	12/7/23
Date of birth:     	20/10/00
Age:               	22
Sex:               	F
Temperature:       	33.5
S/R sites:         	Knee CF-TA
NC/disease:        	NC
Operator:          	BY
Comments:
M-SCAN DATA (Repeat 2/3, 18.7-9.7m)
Scanpts: 1, 7, 566, 580
Stim. (mA)     	Amp. (mV)
MS.1           	11.5           	3.956
MS.2           	11.5           	3.951
MS.3           	11.5           	3.967
MS.4           	11.5           	3.953
MS.5           	11.5           	3.945
MS.6           	11.5           	3.966
MS.7           	11.5           	3.901
MS.8           	11.5           	3.957
MS.9           	11.5           	3.934
MS.10          	11.5           	3.958
MS.11          	11.5           	3.953
MS.12          	11.5           	3.905
MS.13          	11.5           	3.92
MS.14          	11.5           	3.867
MS.15          	11.5           	3.918
MS.16          	11.5           	3.92
MS.17          	11.5           	3.929
MS.18          	11.5           	3.928
MS.19          	11.5           	3.922
MS.20          	11.5           	3.904
MS.21          	11.5           	3.933
MS.22          	11.5           	3.903
MS.23          	11.5           	3.936
MS.24          	11.477         	3.942
MS.25          	11.455         	3.908
MS.26          	11.43          	3.911
MS.27          	11.407         	3.887
MS.28          	11.385         	3.923
MS.29          	11.363         	3.907
MS.30          	11.34          	3.899
MS.31          	11.318         	3.845
MS.32          	11.295         	3.837
MS.33          	11.273         	3.902
MS.34          	11.25          	3.914
MS.35          	11.227         	3.874
MS.36          	11.205         	3.839
MS.37          	11.182         	3.792
MS.38          	11.16          	3.808
MS.39          	11.137         	3.876
MS.40          	11.115         	3.812
MS.41          	11.092         	3.812
MS.42          	11.07          	3.757
MS.43          	11.05          	3.78
MS.44          	11.028         	3.73
MS.45          	11.005         	3.729
MS.46          	10.983         	3.78
MS.47          	10.96          	3.743
MS.48          	10.94          	3.76
MS.49          	10.917         	3.724
MS.50          	10.895         	3.739
MS.51          	10.872         	3.647
MS.52          	10.852         	3.77
MS.53          	10.83          	3.748
MS.54          	10.807         	3.72
MS.55          	10.787         	3.705
MS.56          	10.765         	3.774
MS.57          	10.745         	3.691
MS.58          	10.722         	3.661
MS.59          	10.7           	3.753
MS.60          	10.68          	3.675
MS.61          	10.657         	3.619
MS.62          	10.637         	3.587
MS.63          	10.615         	3.628
MS.64          	10.595         	3.632
MS.65          	10.573         	3.569
MS.66          	10.552         	3.683
MS.67          	10.532         	3.549
MS.68          	10.51          	3.541
MS.69          	10.49          	3.546
MS.70          	10.467         	3.552
MS.71          	10.448         	3.689
MS.72          	10.427         	3.577
MS.73          	10.405         	3.575
MS.74          	10.385         	3.667
MS.75          	10.365         	3.494
MS.76          	10.342         	3.548
MS.77          	10.323         	3.624
MS.78          	10.302         	3.538
MS.79          	10.282         	3.48
MS.80          	10.26          	3.445
MS.81          	10.24          	3.425
MS.82          	10.22          	3.483
MS.83          	10.2           	3.458
MS.84          	10.18          	3.47
MS.85          	10.16          	3.486
MS.86          	10.137         	3.386
MS.87          	10.117         	3.44
MS.88          	10.097         	3.452
MS.89          	10.077         	3.316
MS.90          	10.057         	3.314
MS.91          	10.037         	3.397
MS.92          	10.017         	3.414
MS.93          	9.997          	3.416
MS.94          	9.977          	3.414
MS.95          	9.957          	3.475
MS.96          	9.938          	3.388
MS.97          	9.917          	3.421
MS.98          	9.898          	3.344
MS.99          	9.877          	3.296
MS.100         	9.858          	3.167
MS.101         	9.84           	3.308
MS.102         	9.82           	3.201
MS.103         	9.8            	3.175
MS.104         	9.78           	3.206
MS.105         	9.76           	3.174
MS.106         	9.74           	3.147
MS.107         	9.722          	3.094
MS.108         	9.702          	3.138
MS.109         	9.682          	3.191
MS.110         	9.662          	3.214
MS.111         	9.645          	3.126
MS.112         	9.625          	3.156
MS.113         	9.605          	3.296
MS.114         	9.587          	3.229
MS.115         	9.568          	3.188
MS.116         	9.547          	3.174
MS.117         	9.53           	3.188
MS.118         	9.51           	3.2
MS.119         	9.49           	3.053
MS.120         	9.472          	3.256
MS.121         	9.452          	3.091
MS.122         	9.435          	3.342
MS.123         	9.415          	3.321
MS.124         	9.398          	3.285
MS.125         	9.377          	3.319
MS.126         	9.36           	3.324
MS.127         	9.34           	3.21
MS.128         	9.323          	3.329
MS.129         	9.302          	3.235
MS.130         	9.285          	3.236
MS.131         	9.265          	3.17
MS.132         	9.247          	3.116
MS.133         	9.23           	3.176
MS.134         	9.21           	3.083
MS.135         	9.193          	3.124
MS.136         	9.175          	3.035
MS.137         	9.155          	3.017
MS.138         	9.137          	3.253
MS.139         	9.12           	3.195
MS.140         	9.1            	3.25
MS.141         	9.082          	3.15
MS.142         	9.065          	3.133
MS.143         	9.045          	3.149
MS.144         	9.028          	3.135
MS.145         	9.01           	3.059
MS.146         	8.992          	3.049
MS.147         	8.975          	3.116
MS.148         	8.955          	3.083
MS.149         	8.938          	3.157
MS.150         	8.92           	3.076
MS.151         	8.903          	3.098
MS.152         	8.885          	3.065
MS.153         	8.867          	3.136
MS.154         	8.85           	2.946
MS.155         	8.832          	2.988
MS.156         	8.815          	2.975
MS.157         	8.797          	3.076
MS.158         	8.78           	2.892
MS.159         	8.762          	3.026
MS.160         	8.745          	2.924
MS.161         	8.727          	2.904
MS.162         	8.71           	2.977
MS.163         	8.693          	2.928
MS.164         	8.675          	2.939
MS.165         	8.658          	2.944
MS.166         	8.64           	2.86
MS.167         	8.622          	2.842
MS.168         	8.605          	2.845
MS.169         	8.587          	2.946
MS.170         	8.57           	2.772
MS.171         	8.552          	2.825
MS.172         	8.537          	2.861
MS.173         	8.52           	2.79
MS.174         	8.502          	2.856
MS.175         	8.485          	2.911
MS.176         	8.467          	3.043
MS.177         	8.452          	3.068
MS.178         	8.435          	3.071
MS.179         	8.417          	2.987
MS.180         	8.4            	2.75
MS.181         	8.385          	2.754
MS.182         	8.367          	2.783
MS.183         	8.35           	2.727
MS.184         	8.335          	2.8
MS.185         	8.318          	2.747
MS.186         	8.3            	2.693
MS.187         	8.285          	2.67
MS.188         	8.267          	2.687
MS.189         	8.25           	2.559
MS.190         	8.235          	2.687
MS.191         	8.217          	2.819
MS.192         	8.202          	2.7
MS.193         	8.185          	2.618
MS.194         	8.17           	2.634
MS.195         	8.153          	2.686
MS.196         	8.137          	2.62
MS.197         	8.12           	2.587
MS.198         	8.105          	2.601
MS.199         	8.087          	2.692
MS.200         	8.073          	2.662
MS.201         	8.055          	2.575
MS.202         	8.04           	2.521
MS.203         	8.023          	2.54
MS.204         	8.007          	2.547
MS.205         	7.992          	2.496
MS.206         	7.975          	2.506
MS.207         	7.96           	2.533
MS.208         	7.942          	2.489
MS.209         	7.927          	2.413
MS.210         	7.912          	2.474
MS.211         	7.895          	2.458
MS.212         	7.88           	2.354
MS.213         	7.865          	2.35
MS.214         	7.847          	2.43
MS.215         	7.832          	2.363
MS.216         	7.817          	2.294
MS.217         	7.802          	2.238
MS.218         	7.785          	2.289
MS.219         	7.77           	2.31
MS.220         	7.755          	2.263
MS.221         	7.74           	2.272
MS.222         	7.725          	2.187
MS.223         	7.707          	2.169
MS.224         	7.692          	2.205
MS.225         	7.677          	2.203
MS.226         	7.662          	2.184
MS.227         	7.648          	2.131
MS.228         	7.632          	2.12
MS.229         	7.617          	2.089
MS.230         	7.602          	2.098
MS.231         	7.587          	2.102
MS.232         	7.57           	2.083
MS.233         	7.555          	2.115
MS.234         	7.54           	2.158
MS.235         	7.525          	2.178
MS.236         	7.51           	2.063
MS.237         	7.495          	2.095
MS.238         	7.48           	1.948
MS.239         	7.465          	2.036
MS.240         	7.45           	1.969
MS.241         	7.435          	1.899
MS.242         	7.42           	1.959
MS.243         	7.407          	2.001
MS.244         	7.392          	1.92
MS.245         	7.378          	1.917
MS.246         	7.362          	1.902
MS.247         	7.347          	1.904
MS.248         	7.332          	1.888
MS.249         	7.317          	1.879
MS.250         	7.302          	1.738
MS.251         	7.29           	1.753
MS.252         	7.275          	1.76
MS.253         	7.26           	1.703
MS.254         	7.245          	1.699
MS.255         	7.23           	1.674
MS.256         	7.217          	1.612
MS.257         	7.202          	1.544
MS.258         	7.188          	1.567
MS.259         	7.172          	1.564
MS.260         	7.16           	1.533
MS.261         	7.145          	1.6
MS.262         	7.13           	1.66
MS.263         	7.115          	1.555
MS.264         	7.102          	1.606
MS.265         	7.087          	1.583
MS.266         	7.072          	1.802
MS.267         	7.06           	1.622
MS.268         	7.045          	1.682
MS.269         	7.03           	1.544
MS.270         	7.017          	1.45
MS.271         	7.003          	1.532
MS.272         	6.99           	1.483
MS.273         	6.975          	1.487
MS.274         	6.96           	1.451
MS.275         	6.947          	1.502
MS.276         	6.932          	1.505
MS.277         	6.92           	1.451
MS.278         	6.905          	1.503
MS.279         	6.892          	1.436
MS.280         	6.878          	1.465
MS.281         	6.865          	1.368
MS.282         	6.85           	1.403
MS.283         	6.837          	1.451
MS.284         	6.822          	1.432
MS.285         	6.81           	1.421
MS.286         	6.795          	1.37
MS.287         	6.782          	1.411
MS.288         	6.77           	1.447
MS.289         	6.755          	1.303
MS.290         	6.742          	1.377
MS.291         	6.727          	1.361
MS.292         	6.715          	1.349
MS.293         	6.702          	1.404
MS.294         	6.688          	1.377
MS.295         	6.675          	1.361
MS.296         	6.662          	1.272
MS.297         	6.648          	1.252
MS.298         	6.635          	1.279
MS.299         	6.622          	1.246
MS.300         	6.608          	1.182
MS.301         	6.595          	1.202
MS.302         	6.582          	1.23
MS.303         	6.57           	1.225
MS.304         	6.555          	1.192
MS.305         	6.543          	1.135
MS.306         	6.53           	1.157
MS.307         	6.517          	1.132
MS.308         	6.503          	1.18
MS.309         	6.49           	1.139
MS.310         	6.477          	1.198
MS.311         	6.465          	1.164
MS.312         	6.452          	1.118
MS.313         	6.44           	1.074
MS.314         	6.425          	1.066
MS.315         	6.412          	1.06
MS.316         	6.4            	1.035
MS.317         	6.387          	1.063
MS.318         	6.375          	0.922
MS.319         	6.362          	1.013
MS.320         	6.35           	1.043
MS.321         	6.338          	1.012
MS.322         	6.325          	0.976
MS.323         	6.312          	1.033
MS.324         	6.297          	0.964
MS.325         	6.285          	0.91
MS.326         	6.273          	0.921
MS.327         	6.26           	0.9
MS.328         	6.247          	0.916
MS.329         	6.235          	0.934
MS.330         	6.222          	0.914
MS.331         	6.21           	0.87
MS.332         	6.197          	0.912
MS.333         	6.188          	0.911
MS.334         	6.175          	0.858
MS.335         	6.162          	0.871
MS.336         	6.15           	0.812
MS.337         	6.137          	0.814
MS.338         	6.125          	0.766
MS.339         	6.112          	0.822
MS.340         	6.1            	0.796
MS.341         	6.088          	0.797
MS.342         	6.075          	0.762
MS.343         	6.065          	0.753
MS.344         	6.052          	0.71
MS.345         	6.04           	0.785
MS.346         	6.027          	0.698
MS.347         	6.015          	0.73
MS.348         	6.003          	0.713
MS.349         	5.992          	0.71
MS.350         	5.98           	0.712
MS.351         	5.967          	0.672
MS.352         	5.955          	0.67
MS.353         	5.945          	0.636
MS.354         	5.932          	0.709
MS.355         	5.92           	0.651
MS.356         	5.907          	0.651
MS.357         	5.898          	0.668
MS.358         	5.885          	0.642
MS.359         	5.872          	0.583
MS.360         	5.86           	0.586
MS.361         	5.85           	0.576
MS.362         	5.838          	0.605
MS.363         	5.825          	0.549
MS.364         	5.815          	0.524
MS.365         	5.802          	0.522
MS.366         	5.79           	0.625
MS.367         	5.78           	0.563
MS.368         	5.767          	0.611
MS.369         	5.757          	0.681
MS.370         	5.745          	0.538
MS.371         	5.733          	0.424
MS.372         	5.722          	0.382
MS.373         	5.71           	0.383
MS.374         	5.7            	0.389
MS.375         	5.688          	0.392
MS.376         	5.677          	0.389
MS.377         	5.665          	0.389
MS.378         	5.655          	0.383
MS.379         	5.642          	0.391
MS.380         	5.632          	0.391
MS.381         	5.62           	0.389
MS.382         	5.61           	0.389
MS.383         	5.597          	0.394
MS.384         	5.588          	0.387
MS.385         	5.575          	0.394
MS.386         	5.565          	0.388
MS.387         	5.552          	0.387
MS.388         	5.543          	0.386
MS.389         	5.53           	0.389
MS.390         	5.52           	0.388
MS.391         	5.51           	0.393
MS.392         	5.497          	0.397
MS.393         	5.487          	0.397
MS.394         	5.475          	0.392
MS.395         	5.465          	0.391
MS.396         	5.455          	0.394
MS.397         	5.443          	0.397
MS.398         	5.432          	0.389
MS.399         	5.422          	0.394
MS.400         	5.41           	0.392
MS.401         	5.4            	0.394
MS.402         	5.39           	0.394
MS.403         	5.378          	0.382
MS.404         	5.367          	0.384
MS.405         	5.358          	0.392
MS.406         	5.345          	0.393
MS.407         	5.335          	0.391
MS.408         	5.325          	0.385
MS.409         	5.315          	0.386
MS.410         	5.302          	0.385
MS.411         	5.293          	0.389
MS.412         	5.282          	0.387
MS.413         	5.273          	0.389
MS.414         	5.26           	0.381
MS.415         	5.25           	0.385
MS.416         	5.24           	0.386
MS.417         	5.23           	0.389
MS.418         	5.22           	0.385
MS.419         	5.21           	0.383
MS.420         	5.197          	0.381
MS.421         	5.188          	0.38
MS.422         	5.177          	0.385
MS.423         	5.168          	0.388
MS.424         	5.157          	0.388
MS.425         	5.148          	0.384
MS.426         	5.137          	0.385
MS.427         	5.125          	0.379
MS.428         	5.115          	0.375
MS.429         	5.105          	0.386
MS.430         	5.095          	0.381
MS.431         	5.085          	0.384
MS.432         	5.075          	0.375
MS.433         	5.065          	0.378
MS.434         	5.055          	0.371
MS.435         	5.045          	0.369
MS.436         	5.035          	0.369
MS.437         	5.025          	0.366
MS.438         	5.015          	0.367
MS.439         	5.005          	0.359
MS.440         	4.995          	0.359
MS.441         	4.985          	0.361
MS.442         	4.975          	0.352
MS.443         	4.965          	0.354
MS.444         	4.955          	0.351
MS.445         	4.945          	0.349
MS.446         	4.935          	0.352
MS.447         	4.925          	0.345
MS.448         	4.915          	0.343
MS.449         	4.905          	0.345
MS.450         	4.895          	0.346
MS.451         	4.885          	0.344
MS.452         	4.875          	0.347
MS.453         	4.867          	0.35
MS.454         	4.858          	0.359
MS.455         	4.847          	0.344
MS.456         	4.838          	0.348
MS.457         	4.827          	0.341
MS.458         	4.818          	0.338
MS.459         	4.807          	0.336
MS.460         	4.797          	0.338
MS.461         	4.79           	0.332
MS.462         	4.78           	0.325
MS.463         	4.77           	0.327
MS.464         	4.76           	0.316
MS.465         	4.75           	0.309
MS.466         	4.742          	0.311
MS.467         	4.733          	0.311
MS.468         	4.722          	0.309
MS.469         	4.713          	0.316
MS.470         	4.702          	0.298
MS.471         	4.695          	0.305
MS.472         	4.685          	0.31
MS.473         	4.675          	0.309
MS.474         	4.665          	0.308
MS.475         	4.657          	0.305
MS.476         	4.648          	0.305
MS.477         	4.637          	0.306
MS.478         	4.63           	0.306
MS.479         	4.62           	0.309
MS.480         	4.61           	0.314
MS.481         	4.602          	0.317
MS.482         	4.592          	0.315
MS.483         	4.582          	0.31
MS.484         	4.575          	0.314
MS.485         	4.565          	0.297
MS.486         	4.555          	0.294
MS.487         	4.548          	0.283
MS.488         	4.537          	0.288
MS.489         	4.527          	0.289
MS.490         	4.52           	0.281
MS.491         	4.51           	0.296
MS.492         	4.5            	0.284
MS.493         	4.492          	0.289
MS.494         	4.483          	0.29
MS.495         	4.475          	0.286
MS.496         	4.465          	0.28
MS.497         	4.457          	0.28
MS.498         	4.447          	0.281
MS.499         	4.438          	0.281
MS.500         	4.43           	0.276
MS.501         	4.42           	0.28
MS.502         	4.412          	0.276
MS.503         	4.402          	0.276
