File:              	C:\Qtrac\Data\ME2C30710A.QZD
Name:              	 ST14R
Protocol:          	MSCAN-MV
Date:              	10/7/23
Date of birth:     	14/4/00
Age:               	23
Sex:               	M
Temperature:       	30.7
S/R sites:         	Knee CF-TA
NC/disease:        	NC
Operator:          	BY
Comments:
M-SCAN DATA (Repeat 2/3, 21.8-14.5m)
Scanpts: 1, 29, 591, 591
Stim. (mA)     	Amp. (mV)
MS.1           	23             	3.654
MS.2           	23             	3.668
MS.3           	23             	3.652
MS.4           	23             	3.649
MS.5           	23             	3.651
MS.6           	23             	3.651
MS.7           	23             	3.666
MS.8           	23             	3.649
MS.9           	23             	3.614
MS.10          	23             	3.627
MS.11          	23             	3.646
MS.12          	23             	3.649
MS.13          	23             	3.643
MS.14          	23             	3.646
MS.15          	23             	3.668
MS.16          	23             	3.621
MS.17          	23             	3.669
MS.18          	23             	3.632
MS.19          	23             	3.664
MS.20          	23             	3.643
MS.21          	23             	3.641
MS.22          	23             	3.627
MS.23          	23             	3.652
MS.24          	22.955         	3.611
MS.25          	22.907         	3.657
MS.26          	22.862         	3.671
MS.27          	22.817         	3.654
MS.28          	22.77          	3.633
MS.29          	22.725         	3.63
MS.30          	22.68          	3.63
MS.31          	22.635         	3.612
MS.32          	22.59          	3.679
MS.33          	22.545         	3.604
MS.34          	22.5           	3.617
MS.35          	22.455         	3.641
MS.36          	22.41          	3.634
MS.37          	22.365         	3.618
MS.38          	22.32          	3.594
MS.39          	22.275         	3.617
MS.40          	22.23          	3.626
MS.41          	22.188         	3.594
MS.42          	22.142         	3.61
MS.43          	22.097         	3.603
MS.44          	22.055         	3.63
MS.45          	22.01          	3.606
MS.46          	21.965         	3.597
MS.47          	21.922         	3.599
MS.48          	21.877         	3.606
MS.49          	21.835         	3.62
MS.50          	21.79          	3.613
MS.51          	21.747         	3.566
MS.52          	21.705         	3.589
MS.53          	21.66          	3.597
MS.54          	21.618         	3.635
MS.55          	21.575         	3.598
MS.56          	21.53          	3.59
MS.57          	21.487         	3.558
MS.58          	21.445         	3.601
MS.59          	21.403         	3.547
MS.60          	21.36          	3.556
MS.61          	21.317         	3.56
MS.62          	21.275         	3.552
MS.63          	21.233         	3.588
MS.64          	21.19          	3.584
MS.65          	21.147         	3.576
MS.66          	21.105         	3.569
MS.67          	21.062         	3.594
MS.68          	21.02          	3.519
MS.69          	20.977         	3.602
MS.70          	20.938         	3.524
MS.71          	20.895         	3.566
MS.72          	20.852         	3.543
MS.73          	20.812         	3.526
MS.74          	20.77          	3.525
MS.75          	20.727         	3.524
MS.76          	20.688         	3.523
MS.77          	20.645         	3.521
MS.78          	20.605         	3.521
MS.79          	20.562         	3.557
MS.80          	20.522         	3.511
MS.81          	20.48          	3.524
MS.82          	20.44          	3.484
MS.83          	20.4           	3.494
MS.84          	20.358         	3.542
MS.85          	20.317         	3.515
MS.86          	20.278         	3.495
MS.87          	20.237         	3.525
MS.88          	20.195         	3.502
MS.89          	20.155         	3.461
MS.90          	20.115         	3.535
MS.91          	20.075         	3.475
MS.92          	20.035         	3.533
MS.93          	19.995         	3.493
MS.94          	19.955         	3.48
MS.95          	19.915         	3.441
MS.96          	19.875         	3.498
MS.97          	19.835         	3.476
MS.98          	19.797         	3.432
MS.99          	19.757         	3.493
MS.100         	19.717         	3.462
MS.101         	19.677         	3.423
MS.102         	19.637         	3.482
MS.103         	19.6           	3.481
MS.104         	19.56          	3.453
MS.105         	19.52          	3.456
MS.106         	19.483         	3.421
MS.107         	19.442         	3.452
MS.108         	19.405         	3.43
MS.109         	19.365         	3.447
MS.110         	19.327         	3.376
MS.111         	19.288         	3.445
MS.112         	19.25          	3.395
MS.113         	19.21          	3.408
MS.114         	19.172         	3.422
MS.115         	19.135         	3.365
MS.116         	19.097         	3.4
MS.117         	19.057         	3.411
MS.118         	19.02          	3.343
MS.119         	18.983         	3.36
MS.120         	18.945         	3.395
MS.121         	18.907         	3.315
MS.122         	18.868         	3.328
MS.123         	18.83          	3.37
MS.124         	18.792         	3.331
MS.125         	18.755         	3.369
MS.126         	18.717         	3.318
MS.127         	18.68          	3.339
MS.128         	18.642         	3.307
MS.129         	18.605         	3.332
MS.130         	18.57          	3.263
MS.131         	18.532         	3.278
MS.132         	18.495         	3.279
MS.133         	18.458         	3.319
MS.134         	18.42          	3.311
MS.135         	18.385         	3.282
MS.136         	18.347         	3.262
MS.137         	18.31          	3.242
MS.138         	18.275         	3.232
MS.139         	18.237         	3.228
MS.140         	18.202         	3.237
MS.141         	18.165         	3.185
MS.142         	18.128         	3.221
MS.143         	18.092         	3.204
MS.144         	18.057         	3.162
MS.145         	18.02          	3.062
MS.146         	17.985         	3.12
MS.147         	17.948         	3.17
MS.148         	17.913         	3.082
MS.149         	17.878         	3.13
MS.150         	17.84          	3.077
MS.151         	17.805         	3.047
MS.152         	17.77          	3.109
MS.153         	17.735         	3.107
MS.154         	17.7           	3.036
MS.155         	17.663         	3.062
MS.156         	17.628         	2.925
MS.157         	17.592         	2.93
MS.158         	17.557         	2.913
MS.159         	17.522         	3.045
MS.160         	17.487         	2.979
MS.161         	17.452         	3.006
MS.162         	17.417         	2.969
MS.163         	17.382         	2.919
MS.164         	17.347         	2.973
MS.165         	17.312         	2.832
MS.166         	17.28          	2.853
MS.167         	17.245         	2.887
MS.168         	17.21          	2.797
MS.169         	17.175         	2.812
MS.170         	17.142         	2.787
MS.171         	17.108         	2.879
MS.172         	17.073         	2.789
MS.173         	17.04          	2.841
MS.174         	17.005         	2.801
MS.175         	16.97          	2.748
MS.176         	16.938         	2.749
MS.177         	16.903         	2.737
MS.178         	16.87          	2.723
MS.179         	16.835         	2.751
MS.180         	16.802         	2.633
MS.181         	16.767         	2.673
MS.182         	16.735         	2.699
MS.183         	16.702         	2.656
MS.184         	16.667         	2.668
MS.185         	16.635         	2.597
MS.186         	16.602         	2.611
MS.187         	16.567         	2.558
MS.188         	16.535         	2.58
MS.189         	16.503         	2.599
MS.190         	16.47          	2.556
MS.191         	16.438         	2.571
MS.192         	16.403         	2.535
MS.193         	16.37          	2.539
MS.194         	16.337         	2.535
MS.195         	16.305         	2.46
MS.196         	16.272         	2.498
MS.197         	16.24          	2.476
MS.198         	16.208         	2.449
MS.199         	16.175         	2.566
MS.200         	16.142         	2.411
MS.201         	16.11          	2.424
MS.202         	16.077         	2.438
MS.203         	16.047         	2.429
MS.204         	16.015         	2.41
MS.205         	15.983         	2.368
MS.206         	15.95          	2.299
MS.207         	15.917         	2.349
MS.208         	15.887         	2.357
MS.209         	15.855         	2.433
MS.210         	15.822         	2.354
MS.211         	15.792         	2.303
MS.212         	15.76          	2.348
MS.213         	15.73          	2.344
MS.214         	15.697         	2.271
MS.215         	15.665         	2.257
MS.216         	15.635         	2.22
MS.217         	15.602         	2.206
MS.218         	15.572         	2.262
MS.219         	15.54          	2.204
MS.220         	15.51          	2.15
MS.221         	15.48          	2.212
MS.222         	15.447         	2.232
MS.223         	15.417         	2.202
MS.224         	15.387         	2.199
MS.225         	15.355         	2.203
MS.226         	15.325         	2.103
MS.227         	15.295         	2.107
MS.228         	15.265         	2.028
MS.229         	15.233         	2.101
MS.230         	15.202         	2.082
MS.231         	15.172         	2.075
MS.232         	15.142         	2.031
MS.233         	15.112         	2.068
MS.234         	15.082         	2.086
MS.235         	15.052         	2.07
MS.236         	15.023         	2.021
MS.237         	14.992         	2.022
MS.238         	14.962         	1.942
MS.239         	14.932         	1.958
MS.240         	14.902         	1.947
MS.241         	14.872         	1.885
MS.242         	14.842         	1.876
MS.243         	14.812         	1.869
MS.244         	14.782         	1.913
MS.245         	14.752         	1.863
MS.246         	14.725         	1.784
MS.247         	14.695         	1.824
MS.248         	14.665         	1.813
MS.249         	14.635         	1.774
MS.250         	14.608         	1.737
MS.251         	14.577         	1.712
MS.252         	14.547         	1.711
MS.253         	14.52          	1.696
MS.254         	14.49          	1.703
MS.255         	14.462         	1.693
MS.256         	14.432         	1.68
MS.257         	14.405         	1.661
MS.258         	14.375         	1.639
MS.259         	14.347         	1.68
MS.260         	14.318         	1.655
MS.261         	14.29          	1.548
MS.262         	14.26          	1.574
MS.263         	14.233         	1.526
MS.264         	14.202         	1.511
MS.265         	14.175         	1.553
MS.266         	14.148         	1.464
MS.267         	14.117         	1.461
MS.268         	14.09          	1.384
MS.269         	14.062         	1.398
MS.270         	14.035         	1.392
MS.271         	14.005         	1.401
MS.272         	13.977         	1.326
MS.273         	13.95          	1.329
MS.274         	13.922         	1.357
MS.275         	13.895         	1.365
MS.276         	13.867         	1.342
MS.277         	13.84          	1.251
MS.278         	13.812         	1.275
MS.279         	13.785         	1.281
MS.280         	13.757         	1.197
MS.281         	13.73          	1.284
MS.282         	13.702         	1.066
MS.283         	13.675         	1.178
MS.284         	13.648         	1.138
MS.285         	13.62          	1.113
MS.286         	13.592         	1.114
MS.287         	13.565         	1.05
MS.288         	13.537         	1.077
MS.289         	13.51          	1.05
MS.290         	13.485         	1.01
MS.291         	13.457         	1.035
MS.292         	13.43          	1.047
MS.293         	13.403         	1.054
MS.294         	13.377         	0.97
MS.295         	13.35          	1.028
MS.296         	13.322         	0.928
MS.297         	13.297         	0.892
MS.298         	13.27          	0.793
MS.299         	13.242         	0.799
MS.300         	13.217         	0.831
MS.301         	13.19          	0.897
MS.302         	13.165         	0.82
MS.303         	13.137         	0.731
MS.304         	13.112         	0.764
MS.305         	13.085         	0.782
MS.306         	13.06          	0.69
MS.307         	13.032         	0.735
MS.308         	13.007         	0.72
MS.309         	12.98          	0.739
MS.310         	12.955         	0.657
MS.311         	12.93          	0.677
MS.312         	12.903         	0.643
MS.313         	12.877         	0.673
MS.314         	12.852         	0.61
MS.315         	12.827         	0.602
MS.316         	12.8           	0.548
MS.317         	12.775         	0.486
MS.318         	12.75          	0.502
MS.319         	12.725         	0.54
MS.320         	12.697         	0.527
MS.321         	12.672         	0.54
MS.322         	12.648         	0.521
MS.323         	12.622         	0.529
MS.324         	12.597         	0.491
MS.325         	12.572         	0.472
MS.326         	12.547         	0.513
MS.327         	12.523         	0.529
MS.328         	12.497         	0.431
MS.329         	12.472         	0.453
MS.330         	12.447         	0.396
MS.331         	12.422         	0.442
MS.332         	12.398         	0.44
MS.333         	12.372         	0.408
MS.334         	12.347         	0.365
MS.335         	12.322         	0.391
MS.336         	12.297         	0.368
MS.337         	12.275         	0.357
MS.338         	12.25          	0.383
MS.339         	12.225         	0.412
MS.340         	12.2           	0.345
MS.341         	12.177         	0.356
MS.342         	12.153         	0.339
MS.343         	12.127         	0.316
MS.344         	12.102         	0.313
MS.345         	12.08          	0.333
MS.346         	12.055         	0.275
MS.347         	12.03          	0.303
MS.348         	12.007         	0.297
MS.349         	11.983         	0.309
MS.350         	11.96          	0.27
MS.351         	11.935         	0.25
MS.352         	11.912         	0.261
MS.353         	11.887         	0.313
MS.354         	11.865         	0.299
MS.355         	11.84          	0.289
MS.356         	11.818         	0.289
MS.357         	11.792         	0.283
MS.358         	11.77          	0.284
MS.359         	11.745         	0.26
MS.360         	11.722         	0.252
MS.361         	11.7           	0.251
MS.362         	11.675         	0.272
MS.363         	11.653         	0.251
MS.364         	11.63          	0.233
MS.365         	11.605         	0.25
MS.366         	11.582         	0.223
MS.367         	11.56          	0.24
MS.368         	11.537         	0.253
MS.369         	11.512         	0.258
MS.370         	11.49          	0.196
MS.371         	11.467         	0.204
MS.372         	11.445         	0.226
MS.373         	11.422         	0.222
MS.374         	11.398         	0.218
MS.375         	11.375         	0.225
MS.376         	11.352         	0.196
MS.377         	11.33          	0.215
MS.378         	11.307         	0.217
MS.379         	11.285         	0.224
MS.380         	11.262         	0.17
MS.381         	11.24          	0.2
MS.382         	11.217         	0.215
MS.383         	11.195         	0.178
MS.384         	11.172         	0.162
MS.385         	11.15          	0.148
MS.386         	11.127         	0.165
MS.387         	11.105         	0.184
MS.388         	11.085         	0.092
MS.389         	11.062         	0.212
MS.390         	11.04          	0.175
MS.391         	11.017         	0.136
MS.392         	10.995         	0.129
MS.393         	10.972         	0.131
MS.394         	10.952         	0.103
MS.395         	10.93          	0.139
MS.396         	10.907         	0.098
MS.397         	10.885         	0.115
MS.398         	10.865         	0.118
MS.399         	10.842         	0.11
MS.400         	10.82          	0.097
MS.401         	10.8           	0.044
MS.402         	10.778         	0.078
MS.403         	10.757         	0.079
MS.404         	10.735         	0.076
MS.405         	10.712         	0.119
MS.406         	10.693         	0.076
MS.407         	10.67          	0.086
MS.408         	10.65          	0.062
MS.409         	10.627         	0.092
MS.410         	10.608         	0.058
MS.411         	10.585         	0.046
MS.412         	10.565         	0.046
MS.413         	10.542         	0.045
MS.414         	10.523         	0.041
MS.415         	10.502         	0.027
MS.416         	10.48          	0.031
MS.417         	10.46          	0.02
MS.418         	10.438         	0.005
MS.419         	10.417         	0.021
MS.420         	10.398         	0.031
MS.421         	10.375         	0.04
MS.422         	10.355         	0.023
MS.423         	10.335         	0.021
MS.424         	10.315         	0.016
MS.425         	10.292         	0.013
MS.426         	10.273         	0.012
MS.427         	10.252         	0.022
MS.428         	10.233         	0.017
MS.429         	10.212         	0.04
MS.430         	10.19          	0.007
MS.431         	10.17          	0.018
MS.432         	10.15          	0.014
MS.433         	10.13          	-0.007
MS.434         	10.11          	-0.002
MS.435         	10.09          	0.017
MS.436         	10.07          	0.007
MS.437         	10.05          	0.005
MS.438         	10.03          	0.02
MS.439         	10.01          	0.013
MS.440         	9.99           	-0.009
MS.441         	9.97           	0.022
MS.442         	9.95           	-0.003
MS.443         	9.93           	0.017
MS.444         	9.91           	-0.003
MS.445         	9.89           	0.01
MS.446         	9.87           	-0.009
MS.447         	9.85           	-0.012
MS.448         	9.83           	-0.015
MS.449         	9.81           	-0.002
MS.450         	9.792          	-0.025
MS.451         	9.773          	-0.002
MS.452         	9.752          	-0.012
MS.453         	9.733          	-0.01
MS.454         	9.712          	-0.014
MS.455         	9.695          	-0.009
MS.456         	9.675          	-0.015
MS.457         	9.655          	-0.025
MS.458         	9.635          	-0.026
MS.459         	9.617          	-0.012
MS.460         	9.597          	-0.018
MS.461         	9.577          	-0.012
MS.462         	9.56           	-0.023
MS.463         	9.54           	-0.016
MS.464         	9.52           	-0.024
MS.465         	9.502          	-0.018
MS.466         	9.483          	-0.032
MS.467         	9.465          	-0.025
MS.468         	9.445          	-0.021
MS.469         	9.425          	-0.029
MS.470         	9.407          	-0.034
MS.471         	9.387          	-0.029
MS.472         	9.37           	-0.034
MS.473         	9.35           	-0.024
MS.474         	9.332          	-0.029
MS.475         	9.315          	-0.026
MS.476         	9.295          	-0.031
MS.477         	9.278          	-0.029
MS.478         	9.257          	-0.029
MS.479         	9.24           	-0.037
MS.480         	9.22           	-0.029
MS.481         	9.202          	-0.04
MS.482         	9.185          	-0.038
MS.483         	9.165          	-0.037
MS.484         	9.148          	-0.026
MS.485         	9.13           	-0.032
MS.486         	9.11           	-0.038
MS.487         	9.092          	-0.042
MS.488         	9.075          	-0.034
MS.489         	9.057          	-0.034
MS.490         	9.037          	-0.041
MS.491         	9.02           	-0.035
MS.492         	9.002          	-0.037
MS.493         	8.985          	-0.037
MS.494         	8.967          	-0.013
MS.495         	8.948          	-0.038
MS.496         	8.93           	-0.038
MS.497         	8.912          	-0.038
MS.498         	8.895          	-0.039
MS.499         	8.877          	-0.04
MS.500         	8.86           	-0.031
MS.501         	8.842          	-0.038
