File:              	C:\Qtrac\Data\ME2C30630C.QZD
Name:              	 HA08E
Protocol:          	MSCAN-MV
Date:              	30/6/23
Date of birth:     	8/7/04
Age:               	18
Sex:               	F
Temperature:       	31.7
S/R sites:         	Knee CF-TA
NC/disease:        	NC
Operator:          	BY
Comments:
M-SCAN DATA (Repeat 1/3, 16.7-7.6m)
Scanpts: 1, 13, 642, 724
Stim. (mA)     	Amp. (mV)
MS.1           	27.5           	3.737
MS.2           	27.5           	3.729
MS.3           	27.5           	3.74
MS.4           	27.5           	3.718
MS.5           	27.5           	3.718
MS.6           	27.5           	3.721
MS.7           	27.5           	3.736
MS.8           	27.5           	3.727
MS.9           	27.5           	3.724
MS.10          	27.5           	3.699
MS.11          	27.5           	3.73
MS.12          	27.5           	3.735
MS.13          	27.5           	3.72
MS.14          	27.5           	3.736
MS.15          	27.5           	3.701
MS.16          	27.5           	3.729
MS.17          	27.5           	3.737
MS.18          	27.5           	3.75
MS.19          	27.5           	3.721
MS.20          	27.5           	3.737
MS.21          	27.5           	3.724
MS.22          	27.5           	3.711
MS.23          	27.5           	3.777
MS.24          	27.39          	3.717
MS.25          	27.335         	3.713
MS.26          	27.28          	3.719
MS.27          	27.227         	3.729
MS.28          	27.172         	3.716
MS.29          	27.118         	3.687
MS.30          	27.062         	3.707
MS.31          	27.01          	3.729
MS.32          	26.955         	3.699
MS.33          	26.903         	3.689
MS.34          	26.847         	3.702
MS.35          	26.795         	3.694
MS.36          	26.74          	3.684
MS.37          	26.688         	3.67
MS.38          	26.635         	3.676
MS.39          	26.58          	3.707
MS.40          	26.528         	3.686
MS.41          	26.475         	3.664
MS.42          	26.422         	3.704
MS.43          	26.37          	3.7
MS.44          	26.315         	3.699
MS.45          	26.262         	3.655
MS.46          	26.21          	3.669
MS.47          	26.157         	3.69
MS.48          	26.108         	3.713
MS.49          	26.055         	3.665
MS.50          	26.002         	3.651
MS.51          	25.95          	3.66
MS.52          	25.897         	3.655
MS.53          	25.847         	3.645
MS.54          	25.795         	3.665
MS.55          	25.743         	3.646
MS.56          	25.692         	3.634
MS.57          	25.64          	3.626
MS.58          	25.59          	3.648
MS.59          	25.538         	3.642
MS.60          	25.487         	3.634
MS.61          	25.438         	3.624
MS.62          	25.385         	3.63
MS.63          	25.335         	3.643
MS.64          	25.285         	3.616
MS.65          	25.233         	3.616
MS.66          	25.182         	3.616
MS.67          	25.132         	3.616
MS.68          	25.082         	3.615
MS.69          	25.032         	3.613
MS.70          	24.983         	3.622
MS.71          	24.932         	3.597
MS.72          	24.882         	3.611
MS.73          	24.832         	3.6
MS.74          	24.782         	3.611
MS.75          	24.735         	3.567
MS.76          	24.685         	3.608
MS.77          	24.635         	3.56
MS.78          	24.585         	3.568
MS.79          	24.538         	3.582
MS.80          	24.487         	3.541
MS.81          	24.44          	3.542
MS.82          	24.39          	3.558
MS.83          	24.342         	3.555
MS.84          	24.292         	3.567
MS.85          	24.245         	3.563
MS.86          	24.195         	3.568
MS.87          	24.147         	3.551
MS.88          	24.1           	3.521
MS.89          	24.05          	3.539
MS.90          	24.002         	3.546
MS.91          	23.955         	3.521
MS.92          	23.907         	3.51
MS.93          	23.86          	3.489
MS.94          	23.812         	3.529
MS.95          	23.765         	3.536
MS.96          	23.717         	3.453
MS.97          	23.67          	3.463
MS.98          	23.622         	3.482
MS.99          	23.575         	3.45
MS.100         	23.528         	3.456
MS.101         	23.48          	3.448
MS.102         	23.435         	3.436
MS.103         	23.387         	3.44
MS.104         	23.34          	3.439
MS.105         	23.292         	3.474
MS.106         	23.247         	3.465
MS.107         	23.2           	3.439
MS.108         	23.155         	3.439
MS.109         	23.108         	3.414
MS.110         	23.062         	3.451
MS.111         	23.015         	3.445
MS.112         	22.97          	3.415
MS.113         	22.925         	3.419
MS.114         	22.877         	3.417
MS.115         	22.832         	3.411
MS.116         	22.788         	3.391
MS.117         	22.743         	3.391
MS.118         	22.695         	3.389
MS.119         	22.65          	3.386
MS.120         	22.605         	3.359
MS.121         	22.56          	3.372
MS.122         	22.515         	3.352
MS.123         	22.47          	3.377
MS.124         	22.425         	3.353
MS.125         	22.38          	3.355
MS.126         	22.335         	3.365
MS.127         	22.29          	3.342
MS.128         	22.247         	3.277
MS.129         	22.202         	3.347
MS.130         	22.157         	3.325
MS.131         	22.112         	3.286
MS.132         	22.07          	3.198
MS.133         	22.025         	3.351
MS.134         	21.98          	3.319
MS.135         	21.938         	3.314
MS.136         	21.892         	3.257
MS.137         	21.85          	3.283
MS.138         	21.805         	3.309
MS.139         	21.762         	3.258
MS.140         	21.72          	3.217
MS.141         	21.675         	3.281
MS.142         	21.632         	3.215
MS.143         	21.59          	3.194
MS.144         	21.545         	3.227
MS.145         	21.502         	3.052
MS.146         	21.46          	3.188
MS.147         	21.417         	3.141
MS.148         	21.375         	3.148
MS.149         	21.333         	3.163
MS.150         	21.29          	3.11
MS.151         	21.247         	3.135
MS.152         	21.205         	3.181
MS.153         	21.163         	3.198
MS.154         	21.12          	3.033
MS.155         	21.077         	3.099
MS.156         	21.035         	3.003
MS.157         	20.993         	3.066
MS.158         	20.95          	3.088
MS.159         	20.91          	3.033
MS.160         	20.868         	3.017
MS.161         	20.825         	3.101
MS.162         	20.785         	2.981
MS.163         	20.743         	2.984
MS.164         	20.7           	2.989
MS.165         	20.66          	2.919
MS.166         	20.618         	2.925
MS.167         	20.577         	2.823
MS.168         	20.535         	2.809
MS.169         	20.495         	2.914
MS.170         	20.455         	2.896
MS.171         	20.413         	2.852
MS.172         	20.372         	2.856
MS.173         	20.333         	2.941
MS.174         	20.29          	2.941
MS.175         	20.25          	2.847
MS.176         	20.21          	2.831
MS.177         	20.17          	2.811
MS.178         	20.13          	2.773
MS.179         	20.09          	2.769
MS.180         	20.05          	2.759
MS.181         	20.01          	2.78
MS.182         	19.97          	2.709
MS.183         	19.93          	2.722
MS.184         	19.89          	2.753
MS.185         	19.85          	2.77
MS.186         	19.81          	2.705
MS.187         	19.77          	2.692
MS.188         	19.73          	2.681
MS.189         	19.692         	2.682
MS.190         	19.653         	2.664
MS.191         	19.612         	2.675
MS.192         	19.573         	2.664
MS.193         	19.535         	2.637
MS.194         	19.495         	2.665
MS.195         	19.458         	2.578
MS.196         	19.417         	2.667
MS.197         	19.38          	2.554
MS.198         	19.34          	2.596
MS.199         	19.302         	2.537
MS.200         	19.262         	2.535
MS.201         	19.225         	2.555
MS.202         	19.185         	2.535
MS.203         	19.147         	2.559
MS.204         	19.11          	2.505
MS.205         	19.07          	2.497
MS.206         	19.032         	2.483
MS.207         	18.995         	2.46
MS.208         	18.958         	2.473
MS.209         	18.92          	2.463
MS.210         	18.882         	2.519
MS.211         	18.845         	2.483
MS.212         	18.805         	2.493
MS.213         	18.767         	2.521
MS.214         	18.73          	2.48
MS.215         	18.692         	2.468
MS.216         	18.657         	2.484
MS.217         	18.62          	2.424
MS.218         	18.583         	2.442
MS.219         	18.545         	2.443
MS.220         	18.507         	2.433
MS.221         	18.47          	2.423
MS.222         	18.432         	2.404
MS.223         	18.397         	2.393
MS.224         	18.36          	2.395
MS.225         	18.323         	2.358
MS.226         	18.288         	2.384
MS.227         	18.25          	2.371
MS.228         	18.215         	2.355
MS.229         	18.177         	2.357
MS.230         	18.14          	2.298
MS.231         	18.105         	2.289
MS.232         	18.067         	2.226
MS.233         	18.032         	2.276
MS.234         	17.997         	2.263
MS.235         	17.96          	2.243
MS.236         	17.925         	2.266
MS.237         	17.89          	2.257
MS.238         	17.852         	2.234
MS.239         	17.817         	2.258
MS.240         	17.782         	2.236
MS.241         	17.747         	2.242
MS.242         	17.71          	2.21
MS.243         	17.675         	2.16
MS.244         	17.64          	2.194
MS.245         	17.605         	2.187
MS.246         	17.57          	2.134
MS.247         	17.535         	2.12
MS.248         	17.5           	2.179
MS.249         	17.465         	2.191
MS.250         	17.43          	2.166
MS.251         	17.395         	2.141
MS.252         	17.36          	2.159
MS.253         	17.325         	2.13
MS.254         	17.29          	2.067
MS.255         	17.257         	2.088
MS.256         	17.222         	2.085
MS.257         	17.188         	2.069
MS.258         	17.153         	2.081
MS.259         	17.12          	2.048
MS.260         	17.085         	2.061
MS.261         	17.05          	2.059
MS.262         	17.017         	1.999
MS.263         	16.983         	2
MS.264         	16.948         	2.009
MS.265         	16.915         	1.996
MS.266         	16.88          	1.942
MS.267         	16.847         	1.958
MS.268         	16.812         	1.965
MS.269         	16.78          	2.001
MS.270         	16.747         	1.949
MS.271         	16.712         	1.945
MS.272         	16.68          	1.996
MS.273         	16.645         	1.964
MS.274         	16.612         	1.966
MS.275         	16.58          	1.924
MS.276         	16.547         	1.921
MS.277         	16.512         	1.961
MS.278         	16.48          	1.915
MS.279         	16.448         	1.871
MS.280         	16.415         	1.917
MS.281         	16.382         	1.921
MS.282         	16.35          	1.854
MS.283         	16.317         	1.824
MS.284         	16.285         	1.824
MS.285         	16.253         	1.833
MS.286         	16.22          	1.787
MS.287         	16.188         	1.892
MS.288         	16.155         	1.847
MS.289         	16.122         	1.766
MS.290         	16.09          	1.744
MS.291         	16.057         	1.683
MS.292         	16.025         	1.754
MS.293         	15.992         	1.693
MS.294         	15.962         	1.69
MS.295         	15.93          	1.694
MS.296         	15.898         	1.77
MS.297         	15.865         	1.689
MS.298         	15.835         	1.777
MS.299         	15.802         	1.667
MS.300         	15.77          	1.57
MS.301         	15.74          	1.657
MS.302         	15.707         	1.588
MS.303         	15.677         	1.585
MS.304         	15.645         	1.602
MS.305         	15.615         	1.569
MS.306         	15.582         	1.494
MS.307         	15.552         	1.482
MS.308         	15.52          	1.475
MS.309         	15.49          	1.487
MS.310         	15.46          	1.464
MS.311         	15.427         	1.464
MS.312         	15.398         	1.461
MS.313         	15.367         	1.411
MS.314         	15.335         	1.43
MS.315         	15.305         	1.4
MS.316         	15.275         	1.308
MS.317         	15.245         	1.401
MS.318         	15.212         	1.373
MS.319         	15.182         	1.36
MS.320         	15.152         	1.349
MS.321         	15.122         	1.312
MS.322         	15.092         	1.376
MS.323         	15.062         	1.287
MS.324         	15.032         	1.238
MS.325         	15.002         	1.251
MS.326         	14.972         	1.24
MS.327         	14.943         	1.182
MS.328         	14.912         	1.236
MS.329         	14.882         	1.265
MS.330         	14.852         	1.156
MS.331         	14.822         	1.179
MS.332         	14.792         	1.154
MS.333         	14.765         	1.083
MS.334         	14.735         	1.102
MS.335         	14.705         	1.172
MS.336         	14.675         	1.031
MS.337         	14.645         	1.098
MS.338         	14.617         	1.036
MS.339         	14.587         	1.008
MS.340         	14.557         	0.986
MS.341         	14.53          	0.958
MS.342         	14.5           	0.959
MS.343         	14.472         	0.999
MS.344         	14.443         	0.904
MS.345         	14.412         	0.931
MS.346         	14.385         	0.878
MS.347         	14.355         	0.965
MS.348         	14.327         	0.87
MS.349         	14.3           	0.83
MS.350         	14.27          	0.823
MS.351         	14.242         	0.807
MS.352         	14.212         	0.838
MS.353         	14.185         	0.801
MS.354         	14.157         	0.829
MS.355         	14.127         	0.826
MS.356         	14.1           	0.841
MS.357         	14.072         	0.75
MS.358         	14.045         	0.726
MS.359         	14.015         	0.679
MS.360         	13.987         	0.711
MS.361         	13.96          	0.744
MS.362         	13.932         	0.738
MS.363         	13.905         	0.684
MS.364         	13.877         	0.69
MS.365         	13.847         	0.71
MS.366         	13.82          	0.649
MS.367         	13.792         	0.718
MS.368         	13.765         	0.679
MS.369         	13.737         	0.638
MS.370         	13.71          	0.611
MS.371         	13.682         	0.546
MS.372         	13.655         	0.617
MS.373         	13.63          	0.553
MS.374         	13.602         	0.607
MS.375         	13.575         	0.532
MS.376         	13.547         	0.549
MS.377         	13.52          	0.502
MS.378         	13.492         	0.595
MS.379         	13.465         	0.531
MS.380         	13.44          	0.507
MS.381         	13.412         	0.565
MS.382         	13.385         	0.563
MS.383         	13.36          	0.527
MS.384         	13.332         	0.566
MS.385         	13.305         	0.505
MS.386         	13.28          	0.455
MS.387         	13.252         	0.46
MS.388         	13.225         	0.472
MS.389         	13.2           	0.458
MS.390         	13.172         	0.443
MS.391         	13.148         	0.447
MS.392         	13.12          	0.436
MS.393         	13.095         	0.432
MS.394         	13.068         	0.449
MS.395         	13.042         	0.432
MS.396         	13.015         	0.432
MS.397         	12.99          	0.49
MS.398         	12.965         	0.375
MS.399         	12.938         	0.389
MS.400         	12.912         	0.383
MS.401         	12.887         	0.372
MS.402         	12.86          	0.372
MS.403         	12.835         	0.451
MS.404         	12.81          	0.373
MS.405         	12.785         	0.31
MS.406         	12.757         	0.367
MS.407         	12.733         	0.317
MS.408         	12.707         	0.379
MS.409         	12.682         	0.358
MS.410         	12.657         	0.341
MS.411         	12.632         	0.289
MS.412         	12.605         	0.336
MS.413         	12.58          	0.301
MS.414         	12.555         	0.303
MS.415         	12.53          	0.317
MS.416         	12.505         	0.287
MS.417         	12.48          	0.272
MS.418         	12.455         	0.264
MS.419         	12.43          	0.296
MS.420         	12.405         	0.295
MS.421         	12.38          	0.291
MS.422         	12.358         	0.287
MS.423         	12.332         	0.237
MS.424         	12.307         	0.261
MS.425         	12.282         	0.27
MS.426         	12.257         	0.248
MS.427         	12.233         	0.23
MS.428         	12.21          	0.2
MS.429         	12.185         	0.233
MS.430         	12.16          	0.203
MS.431         	12.135         	0.208
MS.432         	12.113         	0.199
MS.433         	12.087         	0.203
MS.434         	12.062         	0.198
MS.435         	12.04          	0.169
MS.436         	12.015         	0.206
MS.437         	11.992         	0.2
MS.438         	11.967         	0.167
MS.439         	11.943         	0.164
MS.440         	11.92          	0.152
MS.441         	11.895         	0.173
MS.442         	11.872         	0.175
MS.443         	11.847         	0.154
MS.444         	11.825         	0.175
MS.445         	11.8           	0.157
MS.446         	11.778         	0.165
MS.447         	11.755         	0.151
MS.448         	11.73          	0.2
MS.449         	11.707         	0.157
MS.450         	11.682         	0.127
MS.451         	11.66          	0.121
MS.452         	11.637         	0.148
MS.453         	11.613         	0.148
MS.454         	11.59          	0.126
MS.455         	11.568         	0.137
MS.456         	11.545         	0.129
MS.457         	11.52          	0.135
MS.458         	11.497         	0.123
MS.459         	11.475         	0.106
MS.460         	11.452         	0.135
MS.461         	11.43          	0.1
MS.462         	11.407         	0.109
MS.463         	11.382         	0.118
MS.464         	11.36          	0.121
MS.465         	11.337         	0.112
MS.466         	11.315         	0.115
MS.467         	11.292         	0.112
MS.468         	11.27          	0.112
MS.469         	11.247         	0.128
MS.470         	11.225         	0.098
MS.471         	11.202         	0.099
MS.472         	11.18          	0.109
MS.473         	11.157         	0.109
MS.474         	11.135         	0.106
MS.475         	11.113         	0.108
MS.476         	11.092         	0.082
MS.477         	11.07          	0.101
MS.478         	11.047         	0.091
MS.479         	11.025         	0.081
MS.480         	11.002         	0.074
MS.481         	10.98          	0.101
MS.482         	10.96          	0.107
MS.483         	10.938         	0.08
MS.484         	10.915         	0.092
MS.485         	10.892         	0.086
MS.486         	10.872         	0.075
MS.487         	10.85          	0.085
MS.488         	10.827         	0.079
MS.489         	10.807         	0.068
MS.490         	10.785         	0.078
MS.491         	10.762         	0.09
MS.492         	10.742         	0.078
MS.493         	10.72          	0.063
MS.494         	10.7           	0.086
MS.495         	10.677         	0.068
MS.496         	10.657         	0.06
MS.497         	10.635         	0.077
MS.498         	10.615         	0.088
MS.499         	10.592         	0.063
MS.500         	10.573         	0.069
MS.501         	10.55          	0.073
MS.502         	10.53          	0.067
MS.503         	10.507         	0.077
