File:              	.QZD
Name:              	 LL19N
Protocol:          	MSCAN-R2
Date:              	12/6/23
Date of birth:     	19/1/96
Age:               	27
Sex:               	M
Temperature:       	31.4
S/R sites:         	Knee CF-TA
NC/disease:        	NC
Operator:          	BY
Comments:          	 KJ remeasured peak with Tim Howells help
M-SCAN DATA (Repeat 1/3, 16.7-9.9m)
Scanpts: 43, 57, 480, 510
Stim. (mA)     	Amp. (mV)
MS.1           	15             	5.806
MS.2           	15             	5.775
MS.3           	14.94          	5.739
MS.4           	14.91          	5.687
MS.5           	14.88          	5.743
MS.6           	14.85          	5.717
MS.7           	14.82          	5.759
MS.8           	14.792         	5.803
MS.9           	14.762         	5.812
MS.10          	14.733         	5.621
MS.11          	14.702         	5.74
MS.12          	14.672         	5.685
MS.13          	14.645         	5.746
MS.14          	14.615         	5.767
MS.15          	14.585         	5.765
MS.16          	14.557         	5.798
MS.17          	14.527         	5.806
MS.18          	14.497         	5.662
MS.19          	14.47          	5.698
MS.20          	14.44          	5.632
MS.21          	14.412         	5.705
MS.22          	14.382         	5.793
MS.23          	14.355         	5.728
MS.24          	14.325         	5.77
MS.25          	14.297         	5.78
MS.26          	14.267         	5.729
MS.27          	14.24          	5.751
MS.28          	14.212         	5.743
MS.29          	14.182         	5.728
MS.30          	14.155         	5.809
MS.31          	14.127         	5.707
MS.32          	14.097         	5.767
MS.33          	14.07          	5.801
MS.34          	14.042         	5.723
MS.35          	14.015         	5.803
MS.36          	13.985         	5.783
MS.37          	13.957         	5.765
MS.38          	13.93          	5.781
MS.39          	13.903         	5.657
MS.40          	13.875         	5.801
MS.41          	13.847         	5.803
MS.42          	13.82          	5.815
MS.43          	13.792         	5.746
MS.44          	13.765         	5.736
MS.45          	13.737         	5.694
MS.46          	13.71          	5.812
MS.47          	13.682         	5.753
MS.48          	13.655         	5.77
MS.49          	13.627         	5.835
MS.50          	13.6           	5.775
MS.51          	13.572         	5.751
MS.52          	13.545         	5.715
MS.53          	13.517         	5.802
MS.54          	13.492         	5.797
MS.55          	13.465         	5.784
MS.56          	13.438         	5.741
MS.57          	13.41          	5.841
MS.58          	13.385         	5.635
MS.59          	13.358         	5.746
MS.60          	13.33          	5.75
MS.61          	13.305         	5.799
MS.62          	13.278         	5.756
MS.63          	13.25          	5.821
MS.64          	13.225         	5.762
MS.65          	13.197         	5.609
MS.66          	13.172         	5.872
MS.67          	13.145         	5.698
MS.68          	13.12          	5.645
MS.69          	13.092         	5.819
MS.70          	13.068         	5.779
MS.71          	13.04          	5.729
MS.72          	13.015         	5.812
MS.73          	12.987         	5.679
MS.74          	12.962         	5.828
MS.75          	12.938         	5.688
MS.76          	12.91          	5.791
MS.77          	12.885         	5.671
MS.78          	12.86          	5.771
MS.79          	12.832         	5.73
MS.80          	12.807         	5.678
MS.81          	12.782         	5.687
MS.82          	12.757         	5.69
MS.83          	12.73          	5.713
MS.84          	12.705         	5.652
MS.85          	12.68          	5.694
MS.86          	12.655         	5.789
MS.87          	12.63          	5.747
MS.88          	12.605         	5.563
MS.89          	12.58          	5.65
MS.90          	12.555         	5.67
MS.91          	12.53          	5.759
MS.92          	12.505         	5.723
MS.93          	12.48          	5.656
MS.94          	12.455         	5.712
MS.95          	12.43          	5.679
MS.96          	12.405         	5.587
MS.97          	12.38          	5.604
MS.98          	12.355         	5.799
MS.99          	12.33          	5.742
MS.100         	12.305         	5.704
MS.101         	12.28          	5.699
MS.102         	12.257         	5.744
MS.103         	12.233         	5.781
MS.104         	12.207         	5.726
MS.105         	12.182         	5.626
MS.106         	12.157         	5.655
MS.107         	12.135         	5.699
MS.108         	12.11          	5.746
MS.109         	12.085         	5.714
MS.110         	12.062         	5.839
MS.111         	12.037         	5.723
MS.112         	12.012         	5.822
MS.113         	11.99          	5.654
MS.114         	11.965         	5.727
MS.115         	11.943         	5.702
MS.116         	11.917         	5.69
MS.117         	11.895         	5.604
MS.118         	11.87          	5.573
MS.119         	11.847         	5.702
MS.120         	11.822         	5.742
MS.121         	11.8           	5.606
MS.122         	11.775         	5.641
MS.123         	11.752         	5.611
MS.124         	11.73          	5.753
MS.125         	11.705         	5.711
MS.126         	11.682         	5.648
MS.127         	11.657         	5.71
MS.128         	11.635         	5.636
MS.129         	11.613         	5.654
MS.130         	11.59          	5.788
MS.131         	11.565         	5.668
MS.132         	11.542         	5.71
MS.133         	11.52          	5.708
MS.134         	11.497         	5.518
MS.135         	11.472         	5.646
MS.136         	11.45          	5.669
MS.137         	11.427         	5.601
MS.138         	11.405         	5.615
MS.139         	11.382         	5.623
MS.140         	11.36          	5.654
MS.141         	11.337         	5.563
MS.142         	11.315         	5.652
MS.143         	11.292         	5.54
MS.144         	11.27          	5.677
MS.145         	11.247         	5.611
MS.146         	11.225         	5.587
MS.147         	11.202         	5.714
MS.148         	11.18          	5.734
MS.149         	11.157         	5.566
MS.150         	11.135         	5.604
MS.151         	11.113         	5.63
MS.152         	11.09          	5.6
MS.153         	11.068         	5.719
MS.154         	11.045         	5.541
MS.155         	11.023         	5.464
MS.156         	11.002         	5.628
MS.157         	10.98          	5.553
MS.158         	10.957         	5.717
MS.159         	10.935         	5.706
MS.160         	10.915         	5.632
MS.161         	10.892         	5.51
MS.162         	10.87          	5.602
MS.163         	10.847         	5.55
MS.164         	10.827         	5.532
MS.165         	10.805         	5.361
MS.166         	10.785         	5.53
MS.167         	10.762         	5.637
MS.168         	10.74          	5.536
MS.169         	10.72          	5.444
MS.170         	10.698         	5.472
MS.171         	10.677         	5.399
MS.172         	10.655         	5.487
MS.173         	10.635         	5.254
MS.174         	10.613         	5.335
MS.175         	10.592         	5.472
MS.176         	10.57          	5.492
MS.177         	10.55          	5.44
MS.178         	10.528         	5.364
MS.179         	10.507         	5.524
MS.180         	10.485         	5.379
MS.181         	10.465         	5.225
MS.182         	10.445         	5.186
MS.183         	10.422         	5.117
MS.184         	10.403         	5.219
MS.185         	10.382         	5.356
MS.186         	10.36          	5.231
MS.187         	10.34          	5.272
MS.188         	10.32          	5.125
MS.189         	10.3           	5.095
MS.190         	10.278         	5.342
MS.191         	10.257         	5.139
MS.192         	10.238         	5.384
MS.193         	10.217         	5.196
MS.194         	10.198         	5.273
MS.195         	10.175         	5.199
MS.196         	10.155         	5.06
MS.197         	10.135         	5.267
MS.198         	10.115         	5.084
MS.199         	10.095         	5.001
MS.200         	10.075         	4.952
MS.201         	10.055         	4.806
MS.202         	10.035         	4.791
MS.203         	10.015         	4.965
MS.204         	9.995          	4.749
MS.205         	9.975          	4.688
MS.206         	9.955          	4.89
MS.207         	9.935          	4.963
MS.208         	9.915          	4.659
MS.209         	9.895          	4.798
MS.210         	9.875          	4.422
MS.211         	9.855          	4.586
MS.212         	9.835          	4.493
MS.213         	9.818          	4.659
MS.214         	9.797          	4.667
MS.215         	9.778          	4.432
MS.216         	9.757          	4.753
MS.217         	9.738          	4.763
MS.218         	9.717          	4.631
MS.219         	9.7            	4.515
MS.220         	9.68           	4.483
MS.221         	9.66           	4.39
MS.222         	9.64           	4.473
MS.223         	9.622          	4.325
MS.224         	9.602          	4.438
MS.225         	9.582          	4.275
MS.226         	9.565          	4.315
MS.227         	9.545          	4.086
MS.228         	9.525          	4.186
MS.229         	9.507          	4.485
MS.230         	9.488          	4.174
MS.231         	9.47           	4.124
MS.232         	9.45           	4.073
MS.233         	9.432          	4.086
MS.234         	9.412          	4.308
MS.235         	9.395          	4.349
MS.236         	9.375          	4.333
MS.237         	9.358          	4.289
MS.238         	9.337          	4.229
MS.239         	9.32           	4.129
MS.240         	9.3            	4.028
MS.241         	9.283          	4.077
MS.242         	9.262          	4.133
MS.243         	9.245          	4.028
MS.244         	9.225          	4.091
MS.245         	9.207          	3.974
MS.246         	9.19           	3.936
MS.247         	9.17           	3.898
MS.248         	9.153          	3.987
MS.249         	9.135          	3.904
MS.250         	9.115          	3.925
MS.251         	9.097          	3.81
MS.252         	9.08           	3.724
MS.253         	9.062          	3.769
MS.254         	9.042          	3.664
MS.255         	9.025          	3.598
MS.256         	9.007          	3.499
MS.257         	8.99           	3.668
MS.258         	8.972          	3.666
MS.259         	8.952          	3.743
MS.260         	8.935          	3.69
MS.261         	8.917          	3.636
MS.262         	8.9            	3.793
MS.263         	8.882          	3.706
MS.264         	8.865          	3.497
MS.265         	8.847          	3.577
MS.266         	8.83           	3.318
MS.267         	8.812          	3.558
MS.268         	8.795          	3.423
MS.269         	8.775          	3.425
MS.270         	8.757          	3.389
MS.271         	8.74           	3.412
MS.272         	8.722          	3.319
MS.273         	8.707          	3.443
MS.274         	8.69           	3.506
MS.275         	8.672          	3.217
MS.276         	8.655          	3.326
MS.277         	8.637          	3.26
MS.278         	8.62           	3.056
MS.279         	8.602          	2.974
MS.280         	8.585          	3.022
MS.281         	8.568          	2.943
MS.282         	8.55           	3.144
MS.283         	8.535          	3.04
MS.284         	8.517          	3.064
MS.285         	8.5            	2.872
MS.286         	8.483          	2.938
MS.287         	8.465          	2.859
MS.288         	8.45           	2.853
MS.289         	8.432          	2.689
MS.290         	8.415          	2.738
MS.291         	8.398          	2.831
MS.292         	8.382          	2.614
MS.293         	8.365          	2.608
MS.294         	8.347          	2.877
MS.295         	8.332          	2.413
MS.296         	8.315          	2.632
MS.297         	8.297          	2.495
MS.298         	8.283          	2.576
MS.299         	8.265          	2.581
MS.300         	8.247          	2.435
MS.301         	8.233          	2.46
MS.302         	8.215          	2.286
MS.303         	8.2            	2.294
MS.304         	8.182          	2.187
MS.305         	8.167          	2.325
MS.306         	8.15           	2.124
MS.307         	8.135          	2.115
MS.308         	8.117          	2.081
MS.309         	8.102          	2.23
MS.310         	8.085          	2.271
MS.311         	8.07           	2.124
MS.312         	8.052          	2.07
MS.313         	8.037          	2.05
MS.314         	8.02           	2.005
MS.315         	8.005          	2.21
MS.316         	7.99           	1.93
MS.317         	7.972          	2.061
MS.318         	7.957          	1.998
MS.319         	7.94           	1.941
MS.320         	7.925          	1.891
MS.321         	7.91           	1.871
MS.322         	7.892          	1.916
MS.323         	7.878          	1.882
MS.324         	7.862          	1.817
MS.325         	7.847          	1.955
MS.326         	7.83           	1.959
MS.327         	7.815          	1.719
MS.328         	7.8            	1.572
MS.329         	7.785          	1.807
MS.330         	7.767          	1.627
MS.331         	7.753          	1.558
MS.332         	7.737          	1.745
MS.333         	7.722          	1.552
MS.334         	7.707          	1.567
MS.335         	7.69           	1.467
MS.336         	7.675          	1.58
MS.337         	7.66           	1.552
MS.338         	7.645          	1.163
MS.339         	7.63           	1.264
MS.340         	7.615          	1.403
MS.341         	7.6            	1.311
MS.342         	7.585          	1.107
MS.343         	7.57           	1.194
MS.344         	7.555          	1.079
MS.345         	7.537          	1.148
MS.346         	7.523          	1.047
MS.347         	7.507          	1.03
MS.348         	7.492          	1.023
MS.349         	7.477          	1.024
MS.350         	7.462          	0.978
MS.351         	7.447          	1.064
MS.352         	7.435          	0.915
MS.353         	7.42           	1
MS.354         	7.405          	0.842
MS.355         	7.39           	0.898
MS.356         	7.375          	0.844
MS.357         	7.36           	0.883
MS.358         	7.345          	0.831
MS.359         	7.33           	0.798
MS.360         	7.315          	0.842
MS.361         	7.302          	0.731
MS.362         	7.287          	0.77
MS.363         	7.273          	0.713
MS.364         	7.257          	0.74
MS.365         	7.242          	0.652
MS.366         	7.227          	0.739
MS.367         	7.215          	0.593
MS.368         	7.2            	0.593
MS.369         	7.185          	0.609
MS.370         	7.17           	0.621
MS.371         	7.157          	0.567
MS.372         	7.142          	0.588
MS.373         	7.128          	0.427
MS.374         	7.115          	0.573
MS.375         	7.1            	0.517
MS.376         	7.085          	0.441
MS.377         	7.072          	0.585
MS.378         	7.057          	0.579
MS.379         	7.043          	0.44
MS.380         	7.03           	0.453
MS.381         	7.015          	0.509
MS.382         	7              	0.51
MS.383         	6.987          	0.416
MS.384         	6.972          	0.418
MS.385         	6.96           	0.392
MS.386         	6.945          	0.428
MS.387         	6.932          	0.422
MS.388         	6.918          	0.34
MS.389         	6.902          	0.348
MS.390         	6.89           	0.308
MS.391         	6.875          	0.325
MS.392         	6.862          	0.274
MS.393         	6.847          	0.342
MS.394         	6.835          	0.312
MS.395         	6.822          	0.268
MS.396         	6.807          	0.24
MS.397         	6.795          	0.262
MS.398         	6.78           	0.272
MS.399         	6.767          	0.187
MS.400         	6.753          	0.226
MS.401         	6.74           	0.236
MS.402         	6.727          	0.22
MS.403         	6.712          	0.204
MS.404         	6.7            	0.189
MS.405         	6.685          	0.186
MS.406         	6.672          	0.218
MS.407         	6.66           	0.226
MS.408         	6.645          	0.225
MS.409         	6.632          	0.178
MS.410         	6.62           	0.179
MS.411         	6.608          	0.242
MS.412         	6.592          	0.162
MS.413         	6.58           	0.142
MS.414         	6.567          	0.155
MS.415         	6.555          	0.19
MS.416         	6.54           	0.185
MS.417         	6.527          	0.123
MS.418         	6.515          	0.182
MS.419         	6.503          	0.146
MS.420         	6.487          	0.181
MS.421         	6.475          	0.109
MS.422         	6.462          	0.215
MS.423         	6.45           	0.085
MS.424         	6.438          	0.128
MS.425         	6.425          	0.158
MS.426         	6.41           	0.107
MS.427         	6.398          	0.179
MS.428         	6.385          	0.162
MS.429         	6.372          	0.111
MS.430         	6.36           	0.095
MS.431         	6.347          	0.031
MS.432         	6.335          	0.097
MS.433         	6.322          	0.084
MS.434         	6.31           	0.11
MS.435         	6.297          	0.028
MS.436         	6.285          	0.048
MS.437         	6.273          	0.095
MS.438         	6.26           	0.089
MS.439         	6.247          	0.085
MS.440         	6.235          	0.038
MS.441         	6.222          	0.071
MS.442         	6.21           	0.079
MS.443         	6.197          	0.019
MS.444         	6.185          	0.035
MS.445         	6.172          	0.037
MS.446         	6.16           	0.042
MS.447         	6.148          	0.038
MS.448         	6.135          	0.043
MS.449         	6.122          	0.021
MS.450         	6.11           	0.064
MS.451         	6.097          	0.05
MS.452         	6.088          	0.04
MS.453         	6.075          	-0.005
MS.454         	6.062          	0.01
MS.455         	6.05           	0.044
MS.456         	6.037          	0.046
MS.457         	6.025          	0.053
MS.458         	6.012          	0.027
MS.459         	6.003          	0.018
MS.460         	5.99           	0.023
MS.461         	5.977          	-0.001
MS.462         	5.965          	-0.001
MS.463         	5.955          	-0.004
MS.464         	5.942          	-0.006
MS.465         	5.93           	0.015
MS.466         	5.918          	-0.007
MS.467         	5.907          	-0.004
MS.468         	5.895          	-0.004
MS.469         	5.882          	-0.005
MS.470         	5.87           	-0.005
MS.471         	5.86           	-0.001
MS.472         	5.847          	0.001
MS.473         	5.835          	-0.006
MS.474         	5.825          	-0.005
MS.475         	5.812          	-0.005
MS.476         	5.8            	-0.002
MS.477         	5.79           	0.014
MS.478         	5.777          	-0.004
MS.479         	5.767          	-0.004
MS.480         	5.755          	-0.007
MS.481         	5.742          	-0.007
MS.482         	5.733          	-0.004
MS.483         	5.72           	-0.005
MS.484         	5.71           	-0.005
MS.485         	5.697          	-0.005
MS.486         	5.685          	-0.003
MS.487         	5.675          	-0.005
MS.488         	5.662          	-0.004
MS.489         	5.652          	-0.004
MS.490         	5.64           	-0.001
MS.491         	5.63           	-0.007
MS.492         	5.617          	-0.004
MS.493         	5.608          	-0.009
MS.494         	5.595          	-0.006
MS.495         	5.585          	-0.004
MS.496         	5.572          	-0.002
MS.497         	5.562          	-0.001
MS.498         	5.552          	-0.004
MS.499         	5.54           	-0.007
MS.500         	5.53           	-0.006
MS.501         	5.517          	-0.003
