File:              	C:\Qtrac\Data\ME2C30612A.QZD
Name:              	 LL19N
Protocol:          	MSCAN-R2
Date:              	12/6/23
Date of birth:     	19/1/96
Age:               	27
Sex:               	M
Temperature:       	31.4
S/R sites:         	Knee CF-TA
NC/disease:        	NC
Operator:          	BY
Comments:
M-SCAN DATA (Repeat 2/3, 27.9-20.6m)
Scanpts: 57, 85, 482, 544
Stim. (mA)     	Amp. (mV)
MS.1           	15             	9.707
MS.2           	15             	9.735
MS.3           	14.97          	9.698
MS.4           	14.94          	9.73
MS.5           	14.91          	9.726
MS.6           	14.88          	9.763
MS.7           	14.85          	9.74
MS.8           	14.82          	9.708
MS.9           	14.792         	9.689
MS.10          	14.762         	9.69
MS.11          	14.733         	9.747
MS.12          	14.702         	9.727
MS.13          	14.672         	9.709
MS.14          	14.645         	9.729
MS.15          	14.615         	9.697
MS.16          	14.585         	9.75
MS.17          	14.557         	9.677
MS.18          	14.527         	9.755
MS.19          	14.497         	9.756
MS.20          	14.47          	9.731
MS.21          	14.44          	9.74
MS.22          	14.412         	9.688
MS.23          	14.382         	9.712
MS.24          	14.355         	9.721
MS.25          	14.325         	9.692
MS.26          	14.297         	9.716
MS.27          	14.267         	9.753
MS.28          	14.24          	9.716
MS.29          	14.212         	9.711
MS.30          	14.182         	9.744
MS.31          	14.155         	9.702
MS.32          	14.127         	9.717
MS.33          	14.097         	9.739
MS.34          	14.07          	9.762
MS.35          	14.042         	9.733
MS.36          	14.015         	9.747
MS.37          	13.985         	9.728
MS.38          	13.957         	9.78
MS.39          	13.93          	9.734
MS.40          	13.903         	9.75
MS.41          	13.875         	9.754
MS.42          	13.847         	9.782
MS.43          	13.82          	9.785
MS.44          	13.792         	9.788
MS.45          	13.765         	9.747
MS.46          	13.737         	9.696
MS.47          	13.71          	9.764
MS.48          	13.682         	9.745
MS.49          	13.655         	9.81
MS.50          	13.627         	9.758
MS.51          	13.6           	9.755
MS.52          	13.572         	9.733
MS.53          	13.545         	9.756
MS.54          	13.517         	9.81
MS.55          	13.492         	9.792
MS.56          	13.465         	9.752
MS.57          	13.438         	9.847
MS.58          	13.41          	9.754
MS.59          	13.385         	9.771
MS.60          	13.358         	9.76
MS.61          	13.33          	9.749
MS.62          	13.305         	9.783
MS.63          	13.278         	9.82
MS.64          	13.25          	9.776
MS.65          	13.225         	9.765
MS.66          	13.197         	9.747
MS.67          	13.172         	9.798
MS.68          	13.145         	9.782
MS.69          	13.12          	9.777
MS.70          	13.092         	9.783
MS.71          	13.068         	9.738
MS.72          	13.04          	9.819
MS.73          	13.015         	9.755
MS.74          	12.987         	9.789
MS.75          	12.962         	9.791
MS.76          	12.938         	9.785
MS.77          	12.91          	9.758
MS.78          	12.885         	9.797
MS.79          	12.86          	9.783
MS.80          	12.832         	9.822
MS.81          	12.807         	9.799
MS.82          	12.782         	9.827
MS.83          	12.757         	9.789
MS.84          	12.73          	9.807
MS.85          	12.705         	9.826
MS.86          	12.68          	9.776
MS.87          	12.655         	9.813
MS.88          	12.63          	9.778
MS.89          	12.605         	9.759
MS.90          	12.58          	9.841
MS.91          	12.555         	9.809
MS.92          	12.53          	9.744
MS.93          	12.505         	9.886
MS.94          	12.48          	9.761
MS.95          	12.455         	9.84
MS.96          	12.43          	9.755
MS.97          	12.405         	9.683
MS.98          	12.38          	9.798
MS.99          	12.355         	9.725
MS.100         	12.33          	9.836
MS.101         	12.305         	9.815
MS.102         	12.28          	9.784
MS.103         	12.257         	9.707
MS.104         	12.233         	9.668
MS.105         	12.207         	9.827
MS.106         	12.182         	9.728
MS.107         	12.16          	9.664
MS.108         	12.135         	9.727
MS.109         	12.11          	9.653
MS.110         	12.085         	9.699
MS.111         	12.062         	9.656
MS.112         	12.037         	9.565
MS.113         	12.012         	9.659
MS.114         	11.99          	9.691
MS.115         	11.965         	9.639
MS.116         	11.943         	9.758
MS.117         	11.917         	9.539
MS.118         	11.895         	9.622
MS.119         	11.87          	9.527
MS.120         	11.847         	9.689
MS.121         	11.822         	9.669
MS.122         	11.8           	9.56
MS.123         	11.775         	9.551
MS.124         	11.752         	9.658
MS.125         	11.73          	9.529
MS.126         	11.705         	9.545
MS.127         	11.682         	9.536
MS.128         	11.657         	9.532
MS.129         	11.635         	9.546
MS.130         	11.613         	9.5
MS.131         	11.59          	9.524
MS.132         	11.565         	9.596
MS.133         	11.542         	9.521
MS.134         	11.52          	9.51
MS.135         	11.497         	9.542
MS.136         	11.472         	9.445
MS.137         	11.45          	9.514
MS.138         	11.427         	9.423
MS.139         	11.405         	9.571
MS.140         	11.382         	9.512
MS.141         	11.36          	9.478
MS.142         	11.337         	9.565
MS.143         	11.315         	9.47
MS.144         	11.292         	9.405
MS.145         	11.27          	9.472
MS.146         	11.247         	9.395
MS.147         	11.225         	9.515
MS.148         	11.202         	9.374
MS.149         	11.18          	9.425
MS.150         	11.157         	9.378
MS.151         	11.135         	9.434
MS.152         	11.113         	9.529
MS.153         	11.09          	9.446
MS.154         	11.068         	9.394
MS.155         	11.045         	9.353
MS.156         	11.023         	9.376
MS.157         	11.002         	9.286
MS.158         	10.98          	9.434
MS.159         	10.957         	9.388
MS.160         	10.935         	9.301
MS.161         	10.915         	9.359
MS.162         	10.892         	9.301
MS.163         	10.87          	9.36
MS.164         	10.85          	9.254
MS.165         	10.827         	9.271
MS.166         	10.805         	9.243
MS.167         	10.785         	9.348
MS.168         	10.762         	9.165
MS.169         	10.74          	9.271
MS.170         	10.72          	9.147
MS.171         	10.698         	9.305
MS.172         	10.677         	9.264
MS.173         	10.655         	9.324
MS.174         	10.635         	9.212
MS.175         	10.613         	9.227
MS.176         	10.592         	9.236
MS.177         	10.57          	9.307
MS.178         	10.55          	9.189
MS.179         	10.528         	9.106
MS.180         	10.507         	9.193
MS.181         	10.485         	9.265
MS.182         	10.465         	9.098
MS.183         	10.445         	8.901
MS.184         	10.422         	8.87
MS.185         	10.403         	9.048
MS.186         	10.382         	8.947
MS.187         	10.36          	9.054
MS.188         	10.34          	9.117
MS.189         	10.32          	9.062
MS.190         	10.3           	8.774
MS.191         	10.278         	9.078
MS.192         	10.257         	8.947
MS.193         	10.238         	8.873
MS.194         	10.217         	8.799
MS.195         	10.198         	8.687
MS.196         	10.175         	8.815
MS.197         	10.155         	8.633
MS.198         	10.135         	8.632
MS.199         	10.115         	8.672
MS.200         	10.095         	8.62
MS.201         	10.075         	8.604
MS.202         	10.055         	8.768
MS.203         	10.035         	8.544
MS.204         	10.015         	8.535
MS.205         	9.995          	8.413
MS.206         	9.975          	8.412
MS.207         	9.955          	8.484
MS.208         	9.935          	8.621
MS.209         	9.915          	8.252
MS.210         	9.895          	8.388
MS.211         	9.875          	8.245
MS.212         	9.855          	7.947
MS.213         	9.835          	8.076
MS.214         	9.818          	8.043
MS.215         	9.797          	8.157
MS.216         	9.778          	7.947
MS.217         	9.757          	7.989
MS.218         	9.738          	7.797
MS.219         	9.717          	8.085
MS.220         	9.7            	7.911
MS.221         	9.68           	7.789
MS.222         	9.66           	7.873
MS.223         	9.64           	7.661
MS.224         	9.622          	7.901
MS.225         	9.602          	7.615
MS.226         	9.582          	7.497
MS.227         	9.565          	7.565
MS.228         	9.545          	7.552
MS.229         	9.525          	7.375
MS.230         	9.507          	7.329
MS.231         	9.488          	7.437
MS.232         	9.47           	7.492
MS.233         	9.45           	7.382
MS.234         	9.432          	7.368
MS.235         	9.412          	7.604
MS.236         	9.395          	7.568
MS.237         	9.375          	7.065
MS.238         	9.358          	7.227
MS.239         	9.337          	7.278
MS.240         	9.32           	7.19
MS.241         	9.3            	7.065
MS.242         	9.283          	7.287
MS.243         	9.262          	7.183
MS.244         	9.245          	6.852
MS.245         	9.225          	7.048
MS.246         	9.207          	6.758
MS.247         	9.19           	6.967
MS.248         	9.17           	6.892
MS.249         	9.153          	6.81
MS.250         	9.135          	6.904
MS.251         	9.115          	6.716
MS.252         	9.097          	6.634
MS.253         	9.08           	6.857
MS.254         	9.062          	6.832
MS.255         	9.042          	6.674
MS.256         	9.025          	6.379
MS.257         	9.007          	6.529
MS.258         	8.99           	6.525
MS.259         	8.972          	6.17
MS.260         	8.952          	6.453
MS.261         	8.935          	6.15
MS.262         	8.917          	6.144
MS.263         	8.9            	6.119
MS.264         	8.882          	6.141
MS.265         	8.865          	5.886
MS.266         	8.847          	5.9
MS.267         	8.83           	5.834
MS.268         	8.812          	5.978
MS.269         	8.795          	5.844
MS.270         	8.778          	5.881
MS.271         	8.757          	5.836
MS.272         	8.74           	5.742
MS.273         	8.725          	5.493
MS.274         	8.707          	5.724
MS.275         	8.69           	5.681
MS.276         	8.672          	5.533
MS.277         	8.655          	5.379
MS.278         	8.637          	5.565
MS.279         	8.62           	5.454
MS.280         	8.602          	5.371
MS.281         	8.585          	5.264
MS.282         	8.568          	5.506
MS.283         	8.55           	5.362
MS.284         	8.535          	5.236
MS.285         	8.517          	5.234
MS.286         	8.5            	5.091
MS.287         	8.483          	5.557
MS.288         	8.465          	5.298
MS.289         	8.45           	5.123
MS.290         	8.432          	5.234
MS.291         	8.415          	5.092
MS.292         	8.398          	4.993
MS.293         	8.382          	4.908
MS.294         	8.365          	5.078
MS.295         	8.347          	4.926
MS.296         	8.332          	4.833
MS.297         	8.315          	4.708
MS.298         	8.297          	4.628
MS.299         	8.283          	4.515
MS.300         	8.265          	4.749
MS.301         	8.247          	4.633
MS.302         	8.233          	4.513
MS.303         	8.215          	4.489
MS.304         	8.2            	4.506
MS.305         	8.182          	4.4
MS.306         	8.167          	4.447
MS.307         	8.15           	4.288
MS.308         	8.135          	4.172
MS.309         	8.117          	4.041
MS.310         	8.102          	4.255
MS.311         	8.085          	4.108
MS.312         	8.07           	4.112
MS.313         	8.052          	3.955
MS.314         	8.037          	3.9
MS.315         	8.02           	3.973
MS.316         	8.005          	3.782
MS.317         	7.99           	3.742
MS.318         	7.972          	3.796
MS.319         	7.957          	3.719
MS.320         	7.94           	3.806
MS.321         	7.925          	3.557
MS.322         	7.91           	3.571
MS.323         	7.892          	3.559
MS.324         	7.878          	3.719
MS.325         	7.862          	3.384
MS.326         	7.847          	3.364
MS.327         	7.83           	3.278
MS.328         	7.815          	3.344
MS.329         	7.8            	3.266
MS.330         	7.785          	3.017
MS.331         	7.767          	3.046
MS.332         	7.753          	3.104
MS.333         	7.737          	3.15
MS.334         	7.722          	2.817
MS.335         	7.707          	2.793
MS.336         	7.69           	3.008
MS.337         	7.675          	2.995
MS.338         	7.66           	2.938
MS.339         	7.645          	2.84
MS.340         	7.63           	2.578
MS.341         	7.615          	2.635
MS.342         	7.6            	2.48
MS.343         	7.585          	2.538
MS.344         	7.57           	2.373
MS.345         	7.555          	2.27
MS.346         	7.537          	2.467
MS.347         	7.523          	2.378
MS.348         	7.507          	2.422
MS.349         	7.492          	2.272
MS.350         	7.477          	2.223
MS.351         	7.462          	2.191
MS.352         	7.45           	2.215
MS.353         	7.435          	2.029
MS.354         	7.42           	2.239
MS.355         	7.405          	2.092
MS.356         	7.39           	1.956
MS.357         	7.375          	2.015
MS.358         	7.36           	1.79
MS.359         	7.345          	2.061
MS.360         	7.33           	1.741
MS.361         	7.315          	1.749
MS.362         	7.302          	1.835
MS.363         	7.287          	1.764
MS.364         	7.273          	1.559
MS.365         	7.257          	1.606
MS.366         	7.242          	1.566
MS.367         	7.227          	1.37
MS.368         	7.215          	1.676
MS.369         	7.2            	1.519
MS.370         	7.185          	1.435
MS.371         	7.17           	1.352
MS.372         	7.157          	1.45
MS.373         	7.142          	1.309
MS.374         	7.128          	1.343
MS.375         	7.115          	1.211
MS.376         	7.1            	1.247
MS.377         	7.085          	1.199
MS.378         	7.072          	1.104
MS.379         	7.057          	0.955
MS.380         	7.043          	0.995
MS.381         	7.03           	1.007
MS.382         	7.015          	0.928
MS.383         	7              	1.035
MS.384         	6.987          	0.893
MS.385         	6.972          	0.905
MS.386         	6.96           	0.746
MS.387         	6.945          	0.957
MS.388         	6.932          	0.75
MS.389         	6.918          	0.82
MS.390         	6.902          	0.745
MS.391         	6.89           	0.764
MS.392         	6.875          	0.637
MS.393         	6.862          	0.66
MS.394         	6.847          	0.642
MS.395         	6.835          	0.66
MS.396         	6.822          	0.613
MS.397         	6.807          	0.54
MS.398         	6.795          	0.637
MS.399         	6.78           	0.559
MS.400         	6.767          	0.513
MS.401         	6.753          	0.551
MS.402         	6.74           	0.579
MS.403         	6.727          	0.491
MS.404         	6.712          	0.417
MS.405         	6.7            	0.542
MS.406         	6.685          	0.507
MS.407         	6.672          	0.487
MS.408         	6.66           	0.46
MS.409         	6.645          	0.482
MS.410         	6.632          	0.409
MS.411         	6.62           	0.457
MS.412         	6.608          	0.404
MS.413         	6.592          	0.4
MS.414         	6.58           	0.372
MS.415         	6.567          	0.375
MS.416         	6.555          	0.523
MS.417         	6.54           	0.407
MS.418         	6.527          	0.408
MS.419         	6.515          	0.446
MS.420         	6.503          	0.338
MS.421         	6.487          	0.385
MS.422         	6.475          	0.26
MS.423         	6.462          	0.33
MS.424         	6.45           	0.337
MS.425         	6.438          	0.29
MS.426         	6.425          	0.219
MS.427         	6.41           	0.295
MS.428         	6.398          	0.322
MS.429         	6.385          	0.243
MS.430         	6.372          	0.199
MS.431         	6.36           	0.213
MS.432         	6.347          	0.192
MS.433         	6.335          	0.254
MS.434         	6.322          	0.185
MS.435         	6.31           	0.13
MS.436         	6.297          	0.186
MS.437         	6.285          	0.239
MS.438         	6.273          	0.122
MS.439         	6.26           	0.178
MS.440         	6.247          	0.191
MS.441         	6.235          	0.115
MS.442         	6.222          	0.139
MS.443         	6.21           	0.102
MS.444         	6.197          	0.117
MS.445         	6.185          	0.1
MS.446         	6.172          	0.097
MS.447         	6.16           	0.067
MS.448         	6.148          	0.076
MS.449         	6.135          	0.109
MS.450         	6.122          	0.035
MS.451         	6.11           	0.078
MS.452         	6.097          	0.078
MS.453         	6.088          	0.069
MS.454         	6.075          	0.052
MS.455         	6.062          	0.053
MS.456         	6.05           	0.02
MS.457         	6.037          	0.06
MS.458         	6.025          	0.037
MS.459         	6.015          	0.053
MS.460         	6.003          	0.026
MS.461         	5.99           	0.029
MS.462         	5.977          	0.032
MS.463         	5.965          	0.025
MS.464         	5.955          	0.023
MS.465         	5.942          	0.005
MS.466         	5.93           	0.024
MS.467         	5.918          	0.015
MS.468         	5.907          	0.022
MS.469         	5.895          	-0.004
MS.470         	5.882          	0.015
MS.471         	5.87           	0.016
MS.472         	5.86           	-0.007
MS.473         	5.847          	0.007
MS.474         	5.835          	0.005
MS.475         	5.825          	0.001
MS.476         	5.812          	-0.008
MS.477         	5.8            	-0.009
MS.478         	5.79           	-0.008
MS.479         	5.777          	0.000
MS.480         	5.767          	-0.01
MS.481         	5.755          	-0.009
MS.482         	5.742          	-0.01
MS.483         	5.733          	-0.002
MS.484         	5.72           	-0.007
MS.485         	5.71           	-0.011
MS.486         	5.697          	-0.01
MS.487         	5.685          	-0.007
MS.488         	5.675          	-0.005
MS.489         	5.662          	-0.01
MS.490         	5.652          	-0.007
MS.491         	5.64           	-0.009
MS.492         	5.63           	-0.01
MS.493         	5.617          	-0.009
MS.494         	5.608          	-0.009
MS.495         	5.595          	-0.009
MS.496         	5.585          	-0.009
MS.497         	5.572          	-0.009
MS.498         	5.562          	-0.01
MS.499         	5.552          	-0.01
MS.500         	5.54           	-0.008
MS.501         	5.53           	-0.008
MS.502         	5.517          	-0.007
