File:              	C:\Qtrac\Data\ME2C30620A.QZD
Name:              	 ME22I
Protocol:          	MSCAN-MV
Date:              	20/6/23
Date of birth:     	22/2/02
Age:               	21
Sex:               	M
Temperature:       	31.8
S/R sites:         	Knee CF-TA
NC/disease:        	NC
Operator:          	BY
Comments:
M-SCAN DATA (Repeat 3/4, 25.4-14.5m)
Scanpts: 194, 222, 835, 866
Stim. (mA)     	Amp. (mV)
MS.1           	15             	6.502
MS.2           	15             	6.514
MS.3           	15             	6.535
MS.4           	15             	6.579
MS.5           	15             	6.569
MS.6           	15             	6.559
MS.7           	15             	6.601
MS.8           	15             	6.606
MS.9           	15             	6.603
MS.10          	15             	6.639
MS.11          	15             	6.607
MS.12          	15             	6.642
MS.13          	15             	6.647
MS.14          	15             	6.65
MS.15          	15             	6.646
MS.16          	15             	6.657
MS.17          	15             	6.671
MS.18          	15             	6.663
MS.19          	15             	6.681
MS.20          	15             	6.674
MS.21          	15             	6.7
MS.22          	15             	6.701
MS.23          	15             	6.693
MS.24          	14.97          	6.723
MS.25          	14.94          	6.699
MS.26          	14.91          	6.717
MS.27          	14.88          	6.692
MS.28          	14.85          	6.732
MS.29          	14.82          	6.737
MS.30          	14.792         	6.74
MS.31          	14.762         	6.73
MS.32          	14.733         	6.719
MS.33          	14.702         	6.766
MS.34          	14.672         	6.69
MS.35          	14.645         	6.78
MS.36          	14.615         	6.73
MS.37          	14.585         	6.747
MS.38          	14.557         	6.725
MS.39          	14.527         	6.746
MS.40          	14.497         	6.73
MS.41          	14.47          	6.752
MS.42          	14.44          	6.765
MS.43          	14.412         	6.745
MS.44          	14.382         	6.765
MS.45          	14.355         	6.735
MS.46          	14.325         	6.754
MS.47          	14.297         	6.758
MS.48          	14.267         	6.766
MS.49          	14.24          	6.754
MS.50          	14.212         	6.754
MS.51          	14.182         	6.764
MS.52          	14.155         	6.772
MS.53          	14.127         	6.732
MS.54          	14.097         	6.75
MS.55          	14.07          	6.775
MS.56          	14.042         	6.797
MS.57          	14.015         	6.756
MS.58          	13.985         	6.751
MS.59          	13.957         	6.791
MS.60          	13.93          	6.774
MS.61          	13.903         	6.779
MS.62          	13.875         	6.776
MS.63          	13.847         	6.79
MS.64          	13.82          	6.788
MS.65          	13.792         	6.803
MS.66          	13.765         	6.809
MS.67          	13.737         	6.779
MS.68          	13.71          	6.812
MS.69          	13.682         	6.779
MS.70          	13.655         	6.799
MS.71          	13.627         	6.78
MS.72          	13.6           	6.796
MS.73          	13.572         	6.793
MS.74          	13.545         	6.828
MS.75          	13.517         	6.808
MS.76          	13.492         	6.786
MS.77          	13.465         	6.766
MS.78          	13.438         	6.822
MS.79          	13.41          	6.798
MS.80          	13.385         	6.822
MS.81          	13.358         	6.842
MS.82          	13.33          	6.808
MS.83          	13.305         	6.786
MS.84          	13.278         	6.765
MS.85          	13.25          	6.813
MS.86          	13.225         	6.815
MS.87          	13.197         	6.842
MS.88          	13.172         	6.816
MS.89          	13.145         	6.824
MS.90          	13.12          	6.823
MS.91          	13.092         	6.744
MS.92          	13.068         	6.842
MS.93          	13.04          	6.831
MS.94          	13.015         	6.801
MS.95          	12.987         	6.826
MS.96          	12.962         	6.854
MS.97          	12.938         	6.832
MS.98          	12.91          	6.815
MS.99          	12.885         	6.741
MS.100         	12.86          	6.85
MS.101         	12.832         	6.824
MS.102         	12.807         	6.818
MS.103         	12.782         	6.826
MS.104         	12.757         	6.837
MS.105         	12.73          	6.87
MS.106         	12.705         	6.862
MS.107         	12.68          	6.837
MS.108         	12.655         	6.853
MS.109         	12.63          	6.865
MS.110         	12.605         	6.874
MS.111         	12.58          	6.801
MS.112         	12.555         	6.806
MS.113         	12.53          	6.896
MS.114         	12.505         	6.772
MS.115         	12.48          	6.869
MS.116         	12.455         	6.89
MS.117         	12.43          	6.804
MS.118         	12.405         	6.857
MS.119         	12.38          	6.807
MS.120         	12.355         	6.846
MS.121         	12.33          	6.846
MS.122         	12.305         	6.818
MS.123         	12.28          	6.811
MS.124         	12.257         	6.767
MS.125         	12.233         	6.862
MS.126         	12.207         	6.782
MS.127         	12.182         	6.859
MS.128         	12.16          	6.88
MS.129         	12.135         	6.912
MS.130         	12.11          	6.848
MS.131         	12.085         	6.872
MS.132         	12.062         	6.834
MS.133         	12.037         	6.851
MS.134         	12.012         	6.851
MS.135         	11.99          	6.872
MS.136         	11.965         	6.852
MS.137         	11.943         	6.854
MS.138         	11.917         	6.826
MS.139         	11.895         	6.833
MS.140         	11.87          	6.836
MS.141         	11.847         	6.781
MS.142         	11.822         	6.829
MS.143         	11.8           	6.792
MS.144         	11.775         	6.934
MS.145         	11.752         	6.868
MS.146         	11.73          	6.88
MS.147         	11.705         	6.886
MS.148         	11.682         	6.887
MS.149         	11.657         	6.875
MS.150         	11.635         	6.83
MS.151         	11.613         	6.879
MS.152         	11.59          	6.82
MS.153         	11.565         	6.851
MS.154         	11.542         	6.906
MS.155         	11.52          	6.871
MS.156         	11.497         	6.882
MS.157         	11.472         	7.042
MS.158         	11.45          	6.82
MS.159         	11.427         	6.927
MS.160         	11.405         	6.88
MS.161         	11.382         	6.895
MS.162         	11.36          	6.848
MS.163         	11.337         	6.976
MS.164         	11.315         	6.934
MS.165         	11.292         	6.968
MS.166         	11.27          	7.004
MS.167         	11.247         	6.948
MS.168         	11.225         	6.945
MS.169         	11.202         	6.913
MS.170         	11.18          	6.985
MS.171         	11.157         	6.963
MS.172         	11.135         	7.002
MS.173         	11.113         	6.976
MS.174         	11.09          	6.926
MS.175         	11.068         	6.821
MS.176         	11.045         	6.959
MS.177         	11.023         	6.859
MS.178         	11.002         	6.852
MS.179         	10.98          	6.762
MS.180         	10.957         	7.022
MS.181         	10.935         	7.043
MS.182         	10.915         	6.89
MS.183         	10.892         	6.89
MS.184         	10.87          	6.953
MS.185         	10.85          	6.98
MS.186         	10.827         	6.907
MS.187         	10.805         	6.903
MS.188         	10.785         	6.783
MS.189         	10.762         	6.932
MS.190         	10.74          	6.802
MS.191         	10.72          	6.784
MS.192         	10.698         	6.835
MS.193         	10.677         	6.869
MS.194         	10.655         	7.034
MS.195         	10.635         	6.859
MS.196         	10.613         	6.915
MS.197         	10.592         	6.81
MS.198         	10.57          	6.776
MS.199         	10.55          	6.854
MS.200         	10.528         	6.801
MS.201         	10.507         	6.837
MS.202         	10.485         	6.792
MS.203         	10.465         	6.799
MS.204         	10.445         	6.746
MS.205         	10.422         	6.723
MS.206         	10.403         	6.848
MS.207         	10.382         	6.78
MS.208         	10.36          	6.766
MS.209         	10.34          	6.844
MS.210         	10.32          	6.868
MS.211         	10.3           	6.953
MS.212         	10.278         	6.838
MS.213         	10.257         	6.819
MS.214         	10.238         	6.79
MS.215         	10.217         	6.757
MS.216         	10.198         	6.814
MS.217         	10.175         	6.857
MS.218         	10.155         	6.779
MS.219         	10.135         	6.851
MS.220         	10.115         	6.764
MS.221         	10.095         	6.782
MS.222         	10.075         	6.852
MS.223         	10.055         	6.797
MS.224         	10.035         	6.754
MS.225         	10.015         	6.735
MS.226         	9.995          	6.735
MS.227         	9.975          	6.823
MS.228         	9.955          	6.827
MS.229         	9.935          	6.772
MS.230         	9.915          	6.889
MS.231         	9.895          	6.698
MS.232         	9.875          	6.852
MS.233         	9.855          	6.786
MS.234         	9.835          	6.761
MS.235         	9.818          	6.794
MS.236         	9.797          	6.794
MS.237         	9.778          	6.685
MS.238         	9.757          	6.765
MS.239         	9.738          	6.837
MS.240         	9.717          	6.802
MS.241         	9.7            	6.754
MS.242         	9.68           	6.815
MS.243         	9.66           	6.59
MS.244         	9.64           	6.769
MS.245         	9.622          	6.694
MS.246         	9.602          	6.544
MS.247         	9.582          	6.635
MS.248         	9.565          	6.669
MS.249         	9.545          	6.588
MS.250         	9.525          	6.689
MS.251         	9.507          	6.686
MS.252         	9.488          	6.711
MS.253         	9.47           	6.62
MS.254         	9.45           	6.536
MS.255         	9.432          	6.713
MS.256         	9.412          	6.501
MS.257         	9.395          	6.808
MS.258         	9.375          	6.573
MS.259         	9.358          	6.614
MS.260         	9.337          	6.485
MS.261         	9.32           	6.467
MS.262         	9.3            	6.599
MS.263         	9.283          	6.451
MS.264         	9.262          	6.558
MS.265         	9.245          	6.502
MS.266         	9.225          	6.465
MS.267         	9.207          	6.569
MS.268         	9.19           	6.326
MS.269         	9.17           	6.46
MS.270         	9.153          	6.365
MS.271         	9.135          	6.539
MS.272         	9.115          	6.539
MS.273         	9.097          	6.392
MS.274         	9.08           	6.434
MS.275         	9.062          	6.4
MS.276         	9.042          	6.469
MS.277         	9.025          	6.324
MS.278         	9.007          	6.344
MS.279         	8.99           	6.4
MS.280         	8.972          	6.515
MS.281         	8.952          	6.286
MS.282         	8.935          	6.319
MS.283         	8.917          	6.387
MS.284         	8.9            	6.451
MS.285         	8.882          	6.243
MS.286         	8.865          	6.268
MS.287         	8.847          	6.28
MS.288         	8.83           	6.277
MS.289         	8.812          	6.291
MS.290         	8.795          	6.458
MS.291         	8.778          	6.301
MS.292         	8.757          	6.182
MS.293         	8.74           	6.207
MS.294         	8.725          	6.159
MS.295         	8.707          	6.179
MS.296         	8.69           	6.293
MS.297         	8.672          	6.072
MS.298         	8.655          	6.166
MS.299         	8.637          	6.193
MS.300         	8.62           	6.156
MS.301         	8.602          	6.172
MS.302         	8.585          	5.784
MS.303         	8.568          	6.109
MS.304         	8.55           	6.105
MS.305         	8.535          	6.158
MS.306         	8.517          	6.108
MS.307         	8.5            	6.043
MS.308         	8.483          	6.072
MS.309         	8.465          	6.105
MS.310         	8.45           	6.099
MS.311         	8.432          	6.166
MS.312         	8.415          	5.901
MS.313         	8.398          	5.637
MS.314         	8.382          	5.83
MS.315         	8.365          	5.76
MS.316         	8.347          	5.916
MS.317         	8.332          	6
MS.318         	8.315          	5.784
MS.319         	8.297          	5.642
MS.320         	8.283          	5.716
MS.321         	8.265          	5.646
MS.322         	8.247          	5.187
MS.323         	8.233          	5.236
MS.324         	8.215          	5.75
MS.325         	8.2            	5.532
MS.326         	8.182          	5.135
MS.327         	8.167          	5.287
MS.328         	8.15           	5.569
MS.329         	8.135          	5.646
MS.330         	8.117          	5.302
MS.331         	8.102          	4.843
MS.332         	8.085          	5.159
MS.333         	8.07           	4.887
MS.334         	8.052          	5.073
MS.335         	8.037          	5.013
MS.336         	8.02           	5.228
MS.337         	8.005          	5.036
MS.338         	7.99           	5.097
MS.339         	7.972          	4.757
MS.340         	7.957          	4.837
MS.341         	7.94           	4.846
MS.342         	7.925          	4.976
MS.343         	7.91           	5.05
MS.344         	7.892          	4.785
MS.345         	7.878          	5.02
MS.346         	7.862          	4.958
MS.347         	7.847          	4.686
MS.348         	7.83           	4.962
MS.349         	7.815          	4.601
MS.350         	7.8            	4.929
MS.351         	7.785          	4.631
MS.352         	7.767          	5.004
MS.353         	7.753          	4.647
MS.354         	7.737          	4.891
MS.355         	7.722          	4.595
MS.356         	7.707          	4.815
MS.357         	7.69           	4.512
MS.358         	7.675          	4.69
MS.359         	7.66           	4.522
MS.360         	7.645          	4.382
MS.361         	7.63           	4.333
MS.362         	7.615          	4.545
MS.363         	7.6            	4.402
MS.364         	7.585          	4.217
MS.365         	7.57           	4.352
MS.366         	7.555          	4.655
MS.367         	7.537          	4.149
MS.368         	7.523          	4.252
MS.369         	7.507          	4.373
MS.370         	7.492          	4.155
MS.371         	7.477          	4.261
MS.372         	7.462          	3.877
MS.373         	7.45           	4.345
MS.374         	7.435          	3.817
MS.375         	7.42           	3.835
MS.376         	7.405          	3.933
MS.377         	7.39           	3.691
MS.378         	7.375          	3.652
MS.379         	7.36           	3.975
MS.380         	7.345          	3.685
MS.381         	7.33           	3.805
MS.382         	7.315          	3.867
MS.383         	7.302          	3.552
MS.384         	7.287          	3.889
MS.385         	7.273          	3.752
MS.386         	7.257          	3.989
MS.387         	7.242          	3.406
MS.388         	7.227          	3.71
MS.389         	7.215          	3.589
MS.390         	7.2            	3.491
MS.391         	7.185          	3.698
MS.392         	7.17           	3.619
MS.393         	7.157          	3.406
MS.394         	7.142          	3.684
MS.395         	7.128          	3.369
MS.396         	7.115          	3.616
MS.397         	7.1            	3.477
MS.398         	7.085          	3.541
MS.399         	7.072          	3.455
MS.400         	7.057          	3.292
MS.401         	7.043          	3.516
MS.402         	7.03           	3.401
MS.403         	7.015          	3.281
MS.404         	7              	3.337
MS.405         	6.987          	3.444
MS.406         	6.972          	3.442
MS.407         	6.96           	3.347
MS.408         	6.945          	3.371
MS.409         	6.932          	3.358
MS.410         	6.918          	3.301
MS.411         	6.902          	3.157
MS.412         	6.89           	3.203
MS.413         	6.875          	3.221
MS.414         	6.862          	3.124
MS.415         	6.847          	3.26
MS.416         	6.835          	3.123
MS.417         	6.822          	3.137
MS.418         	6.807          	3.082
MS.419         	6.795          	2.746
MS.420         	6.78           	2.742
MS.421         	6.767          	2.864
MS.422         	6.753          	2.868
MS.423         	6.74           	2.371
MS.424         	6.727          	2.674
MS.425         	6.712          	2.771
MS.426         	6.7            	2.554
MS.427         	6.685          	2.587
MS.428         	6.672          	2.541
MS.429         	6.66           	2.375
MS.430         	6.645          	2.507
MS.431         	6.632          	2.371
MS.432         	6.62           	2.297
MS.433         	6.608          	2.241
MS.434         	6.592          	2.292
MS.435         	6.58           	2.496
MS.436         	6.567          	2.242
MS.437         	6.555          	2.142
MS.438         	6.54           	2.003
MS.439         	6.527          	2.077
MS.440         	6.515          	2.114
MS.441         	6.503          	2.2
MS.442         	6.487          	2.186
MS.443         	6.475          	2.251
MS.444         	6.462          	1.949
MS.445         	6.45           	2.009
MS.446         	6.438          	2.018
MS.447         	6.425          	2.021
MS.448         	6.41           	2.034
MS.449         	6.398          	1.932
MS.450         	6.385          	1.738
MS.451         	6.372          	1.755
MS.452         	6.36           	1.715
MS.453         	6.347          	1.674
MS.454         	6.335          	1.578
MS.455         	6.322          	1.659
MS.456         	6.31           	1.691
MS.457         	6.297          	1.455
MS.458         	6.285          	1.534
MS.459         	6.273          	1.503
MS.460         	6.26           	1.598
MS.461         	6.247          	1.462
MS.462         	6.235          	1.588
MS.463         	6.222          	1.451
MS.464         	6.21           	1.461
MS.465         	6.197          	1.674
MS.466         	6.185          	1.495
MS.467         	6.172          	1.398
MS.468         	6.16           	1.467
MS.469         	6.148          	1.426
MS.470         	6.135          	1.508
MS.471         	6.122          	1.282
MS.472         	6.11           	1.332
MS.473         	6.097          	1.425
MS.474         	6.088          	1.129
MS.475         	6.075          	1.107
MS.476         	6.062          	1.113
MS.477         	6.05           	1.134
MS.478         	6.037          	1.132
MS.479         	6.025          	1.097
MS.480         	6.015          	1.119
MS.481         	6.003          	1.061
MS.482         	5.99           	1.097
MS.483         	5.977          	0.939
MS.484         	5.965          	1.194
MS.485         	5.955          	1.08
MS.486         	5.942          	1.066
MS.487         	5.93           	1.091
MS.488         	5.918          	0.984
MS.489         	5.907          	1.062
MS.490         	5.895          	1.06
MS.491         	5.882          	1.01
MS.492         	5.87           	1.003
MS.493         	5.86           	0.812
MS.494         	5.847          	0.964
MS.495         	5.835          	0.965
MS.496         	5.825          	0.948
MS.497         	5.812          	0.94
MS.498         	5.8            	0.916
MS.499         	5.79           	0.825
MS.500         	5.777          	0.938
MS.501         	5.767          	0.851
MS.502         	5.755          	0.874
MS.503         	5.742          	0.836
