File:              	C:\Qtrac\Data\ME2C30629B.QZD
Name:              	 RO11A
Protocol:          	MSCAN-MV
Date:              	29/6/23
Date of birth:     	11/8/01
Age:               	21
Sex:               	F
Temperature:       	33.3
S/R sites:         	Knee CF-TA
NC/disease:        	NC
Operator:          	BY
Comments:
M-SCAN DATA (Repeat 1/3, 10.5-5m)
Scanpts: 10, 18, 374, 389
Stim. (mA)     	Amp. (mV)
MS.1           	19.5           	3.293
MS.2           	19.5           	3.212
MS.3           	19.5           	3.218
MS.4           	19.5           	3.23
MS.5           	19.5           	3.228
MS.6           	19.5           	3.218
MS.7           	19.5           	3.182
MS.8           	19.5           	3.159
MS.9           	19.5           	3.182
MS.10          	19.5           	3.17
MS.11          	19.5           	3.134
MS.12          	19.5           	3.167
MS.13          	19.5           	3.197
MS.14          	19.5           	3.2
MS.15          	19.5           	3.197
MS.16          	19.5           	3.152
MS.17          	19.5           	3.181
MS.18          	19.5           	3.163
MS.19          	19.5           	3.26
MS.20          	19.5           	3.187
MS.21          	19.5           	3.124
MS.22          	19.5           	3.22
MS.23          	19.5           	3.129
MS.24          	19.422         	3.16
MS.25          	19.382         	3.136
MS.26          	19.345         	3.199
MS.27          	19.305         	3.151
MS.28          	19.267         	3.101
MS.29          	19.23          	3.137
MS.30          	19.19          	3.059
MS.31          	19.153         	3.07
MS.32          	19.115         	3.084
MS.33          	19.075         	3.109
MS.34          	19.038         	3.024
MS.35          	19             	3.066
MS.36          	18.962         	3.043
MS.37          	18.922         	3.021
MS.38          	18.885         	3.047
MS.39          	18.847         	3.024
MS.40          	18.81          	3.027
MS.41          	18.772         	3.035
MS.42          	18.735         	3.011
MS.43          	18.698         	3.008
MS.44          	18.66          	2.942
MS.45          	18.622         	3.031
MS.46          	18.585         	2.973
MS.47          	18.55          	2.969
MS.48          	18.512         	2.946
MS.49          	18.475         	2.998
MS.50          	18.438         	2.995
MS.51          	18.4           	2.994
MS.52          	18.365         	2.91
MS.53          	18.327         	2.943
MS.54          	18.29          	2.988
MS.55          	18.255         	2.911
MS.56          	18.217         	2.964
MS.57          	18.182         	2.863
MS.58          	18.145         	2.905
MS.59          	18.11          	2.902
MS.60          	18.073         	2.892
MS.61          	18.038         	2.827
MS.62          	18             	2.791
MS.63          	17.965         	2.768
MS.64          	17.93          	2.778
MS.65          	17.892         	2.834
MS.66          	17.858         	2.814
MS.67          	17.823         	2.736
MS.68          	17.785         	2.739
MS.69          	17.75          	2.757
MS.70          	17.715         	2.776
MS.71          	17.68          	2.771
MS.72          	17.645         	2.704
MS.73          	17.61          	2.667
MS.74          	17.575         	2.648
MS.75          	17.538         	2.654
MS.76          	17.503         	2.638
MS.77          	17.467         	2.678
MS.78          	17.435         	2.668
MS.79          	17.4           	2.719
MS.80          	17.365         	2.604
MS.81          	17.33          	2.612
MS.82          	17.295         	2.625
MS.83          	17.26          	2.63
MS.84          	17.225         	2.607
MS.85          	17.192         	2.639
MS.86          	17.157         	2.563
MS.87          	17.122         	2.607
MS.88          	17.087         	2.596
MS.89          	17.055         	2.548
MS.90          	17.02          	2.626
MS.91          	16.987         	2.548
MS.92          	16.952         	2.498
MS.93          	16.917         	2.485
MS.94          	16.885         	2.543
MS.95          	16.85          	2.605
MS.96          	16.817         	2.481
MS.97          	16.782         	2.5
MS.98          	16.75          	2.494
MS.99          	16.717         	2.474
MS.100         	16.682         	2.515
MS.101         	16.65          	2.508
MS.102         	16.618         	2.476
MS.103         	16.583         	2.459
MS.104         	16.55          	2.436
MS.105         	16.517         	2.442
MS.106         	16.485         	2.4
MS.107         	16.452         	2.432
MS.108         	16.417         	2.502
MS.109         	16.385         	2.38
MS.110         	16.352         	2.417
MS.111         	16.32          	2.355
MS.112         	16.288         	2.424
MS.113         	16.255         	2.307
MS.114         	16.222         	2.396
MS.115         	16.19          	2.328
MS.116         	16.157         	2.303
MS.117         	16.125         	2.267
MS.118         	16.092         	2.338
MS.119         	16.062         	2.286
MS.120         	16.03          	2.278
MS.121         	15.997         	2.264
MS.122         	15.965         	2.246
MS.123         	15.932         	2.292
MS.124         	15.902         	2.257
MS.125         	15.87          	2.233
MS.126         	15.837         	2.149
MS.127         	15.807         	2.216
MS.128         	15.775         	2.188
MS.129         	15.742         	2.133
MS.130         	15.712         	2.149
MS.131         	15.68          	2.228
MS.132         	15.65          	2.083
MS.133         	15.617         	2.087
MS.134         	15.587         	2.04
MS.135         	15.555         	2.072
MS.136         	15.525         	1.959
MS.137         	15.492         	1.991
MS.138         	15.462         	1.946
MS.139         	15.432         	1.824
MS.140         	15.4           	1.891
MS.141         	15.37          	1.943
MS.142         	15.34          	1.88
MS.143         	15.307         	1.819
MS.144         	15.277         	1.866
MS.145         	15.247         	1.742
MS.146         	15.217         	1.738
MS.147         	15.188         	1.821
MS.148         	15.155         	1.781
MS.149         	15.125         	1.628
MS.150         	15.095         	1.673
MS.151         	15.065         	1.651
MS.152         	15.035         	1.674
MS.153         	15.005         	1.685
MS.154         	14.975         	1.68
MS.155         	14.945         	1.687
MS.156         	14.915         	1.689
MS.157         	14.885         	1.639
MS.158         	14.855         	1.594
MS.159         	14.827         	1.592
MS.160         	14.797         	1.511
MS.161         	14.767         	1.592
MS.162         	14.737         	1.449
MS.163         	14.707         	1.497
MS.164         	14.68          	1.457
MS.165         	14.65          	1.401
MS.166         	14.62          	1.478
MS.167         	14.59          	1.449
MS.168         	14.562         	1.35
MS.169         	14.532         	1.38
MS.170         	14.505         	1.286
MS.171         	14.475         	1.414
MS.172         	14.445         	1.372
MS.173         	14.417         	1.378
MS.174         	14.387         	1.274
MS.175         	14.36          	1.273
MS.176         	14.33          	1.164
MS.177         	14.302         	1.304
MS.178         	14.273         	1.234
MS.179         	14.245         	1.283
MS.180         	14.217         	1.154
MS.181         	14.188         	1.146
MS.182         	14.16          	1.166
MS.183         	14.132         	1.106
MS.184         	14.102         	1.11
MS.185         	14.075         	1.052
MS.186         	14.047         	1.101
MS.187         	14.02          	1.056
MS.188         	13.99          	1.039
MS.189         	13.962         	1
MS.190         	13.935         	1.036
MS.191         	13.907         	0.939
MS.192         	13.88          	0.92
MS.193         	13.852         	0.959
MS.194         	13.825         	0.924
MS.195         	13.797         	0.874
MS.196         	13.77          	0.922
MS.197         	13.742         	0.948
MS.198         	13.715         	0.798
MS.199         	13.688         	0.831
MS.200         	13.66          	0.818
MS.201         	13.632         	0.787
MS.202         	13.605         	0.864
MS.203         	13.577         	0.78
MS.204         	13.55          	0.831
MS.205         	13.523         	0.811
MS.206         	13.495         	0.672
MS.207         	13.47          	0.72
MS.208         	13.443         	0.685
MS.209         	13.415         	0.668
MS.210         	13.387         	0.662
MS.211         	13.362         	0.601
MS.212         	13.335         	0.631
MS.213         	13.307         	0.604
MS.214         	13.282         	0.67
MS.215         	13.255         	0.629
MS.216         	13.23          	0.631
MS.217         	13.202         	0.635
MS.218         	13.175         	0.547
MS.219         	13.15          	0.53
MS.220         	13.122         	0.594
MS.221         	13.097         	0.479
MS.222         	13.07          	0.539
MS.223         	13.045         	0.505
MS.224         	13.02          	0.513
MS.225         	12.992         	0.515
MS.226         	12.967         	0.493
MS.227         	12.94          	0.488
MS.228         	12.915         	0.469
MS.229         	12.89          	0.505
MS.230         	12.862         	0.457
MS.231         	12.837         	0.455
MS.232         	12.812         	0.447
MS.233         	12.787         	0.435
MS.234         	12.76          	0.429
MS.235         	12.735         	0.508
MS.236         	12.71          	0.401
MS.237         	12.685         	0.406
MS.238         	12.66          	0.4
MS.239         	12.635         	0.355
MS.240         	12.61          	0.363
MS.241         	12.585         	0.392
MS.242         	12.557         	0.38
MS.243         	12.532         	0.336
MS.244         	12.507         	0.362
MS.245         	12.483         	0.344
MS.246         	12.457         	0.309
MS.247         	12.432         	0.357
MS.248         	12.41          	0.293
MS.249         	12.385         	0.363
MS.250         	12.36          	0.356
MS.251         	12.335         	0.314
MS.252         	12.31          	0.355
MS.253         	12.285         	0.339
MS.254         	12.26          	0.259
MS.255         	12.238         	0.256
MS.256         	12.212         	0.24
MS.257         	12.188         	0.277
MS.258         	12.162         	0.24
MS.259         	12.14          	0.28
MS.260         	12.115         	0.287
MS.261         	12.09          	0.198
MS.262         	12.065         	0.265
MS.263         	12.042         	0.213
MS.264         	12.017         	0.211
MS.265         	11.995         	0.195
MS.266         	11.97          	0.222
MS.267         	11.945         	0.153
MS.268         	11.922         	0.201
MS.269         	11.898         	0.176
MS.270         	11.875         	0.136
MS.271         	11.85          	0.167
MS.272         	11.827         	0.197
MS.273         	11.802         	0.194
MS.274         	11.78          	0.175
MS.275         	11.757         	0.14
MS.276         	11.733         	0.156
MS.277         	11.71          	0.14
MS.278         	11.685         	0.156
MS.279         	11.662         	0.136
MS.280         	11.64          	0.169
MS.281         	11.617         	0.161
MS.282         	11.592         	0.154
MS.283         	11.57          	0.132
MS.284         	11.547         	0.099
MS.285         	11.525         	0.126
MS.286         	11.5           	0.096
MS.287         	11.477         	0.104
MS.288         	11.455         	0.141
MS.289         	11.432         	0.109
MS.290         	11.41          	0.06
MS.291         	11.387         	0.098
MS.292         	11.363         	0.084
MS.293         	11.34          	0.023
MS.294         	11.318         	0.039
MS.295         	11.295         	0.104
MS.296         	11.273         	0.103
MS.297         	11.25          	0.045
MS.298         	11.227         	0.031
MS.299         	11.205         	0.079
MS.300         	11.182         	0.012
MS.301         	11.16          	-0.01
MS.302         	11.137         	0.04
MS.303         	11.117         	-0.016
MS.304         	11.095         	-0.023
MS.305         	11.073         	0.003
MS.306         	11.05          	-0.014
MS.307         	11.028         	0.034
MS.308         	11.005         	-0.035
MS.309         	10.983         	-0.014
MS.310         	10.962         	0.016
MS.311         	10.94          	-0.016
MS.312         	10.917         	0.027
MS.313         	10.895         	-0.017
MS.314         	10.875         	-0.04
MS.315         	10.852         	-0.021
MS.316         	10.83          	-0.02
MS.317         	10.81          	-0.032
MS.318         	10.787         	-0.045
MS.319         	10.765         	-0.067
MS.320         	10.745         	-0.083
MS.321         	10.722         	-0.07
MS.322         	10.702         	-0.045
MS.323         	10.68          	-0.07
MS.324         	10.66          	-0.065
MS.325         	10.637         	-0.089
MS.326         	10.617         	-0.098
MS.327         	10.595         	-0.074
MS.328         	10.575         	-0.065
MS.329         	10.552         	-0.051
MS.330         	10.532         	-0.056
MS.331         	10.51          	-0.098
MS.332         	10.49          	-0.07
MS.333         	10.47          	-0.092
MS.334         	10.448         	-0.13
MS.335         	10.427         	-0.124
MS.336         	10.407         	-0.089
MS.337         	10.385         	-0.12
MS.338         	10.365         	-0.095
MS.339         	10.345         	-0.098
MS.340         	10.323         	-0.089
MS.341         	10.302         	-0.134
MS.342         	10.282         	-0.104
MS.343         	10.262         	-0.103
MS.344         	10.24          	-0.119
MS.345         	10.22          	-0.107
MS.346         	10.2           	-0.121
MS.347         	10.18          	-0.153
MS.348         	10.16          	-0.126
MS.349         	10.14          	-0.129
MS.350         	10.12          	-0.112
MS.351         	10.097         	-0.093
MS.352         	10.077         	-0.132
MS.353         	10.057         	-0.147
MS.354         	10.037         	-0.106
MS.355         	10.017         	-0.119
MS.356         	9.997          	-0.15
MS.357         	9.977          	-0.142
MS.358         	9.957          	-0.129
MS.359         	9.938          	-0.104
MS.360         	9.917          	-0.118
MS.361         	9.9            	-0.107
MS.362         	9.88           	-0.16
MS.363         	9.86           	-0.095
MS.364         	9.84           	-0.155
MS.365         	9.82           	-0.165
MS.366         	9.8            	-0.164
MS.367         	9.78           	-0.147
MS.368         	9.76           	-0.162
MS.369         	9.742          	-0.168
MS.370         	9.722          	-0.174
MS.371         	9.702          	-0.143
MS.372         	9.682          	-0.133
MS.373         	9.665          	-0.167
MS.374         	9.645          	-0.141
MS.375         	9.625          	-0.151
MS.376         	9.605          	-0.13
MS.377         	9.587          	-0.141
MS.378         	9.568          	-0.143
MS.379         	9.55           	-0.135
MS.380         	9.53           	-0.153
MS.381         	9.51           	-0.173
MS.382         	9.492          	-0.176
MS.383         	9.472          	-0.127
MS.384         	9.452          	-0.128
MS.385         	9.435          	-0.144
MS.386         	9.415          	-0.134
MS.387         	9.398          	-0.172
MS.388         	9.377          	-0.167
MS.389         	9.36           	-0.133
MS.390         	9.34           	-0.166
MS.391         	9.323          	-0.139
MS.392         	9.302          	-0.169
MS.393         	9.285          	-0.132
MS.394         	9.267          	-0.166
MS.395         	9.247          	-0.172
MS.396         	9.23           	-0.17
MS.397         	9.21           	-0.162
MS.398         	9.193          	-0.129
MS.399         	9.175          	-0.13
MS.400         	9.155          	-0.163
MS.401         	9.137          	-0.162
MS.402         	9.12           	-0.129
MS.403         	9.1            	-0.129
MS.404         	9.082          	-0.163
MS.405         	9.065          	-0.169
MS.406         	9.047          	-0.163
MS.407         	9.028          	-0.161
MS.408         	9.01           	-0.156
MS.409         	8.992          	-0.165
MS.410         	8.975          	-0.128
MS.411         	8.957          	-0.16
MS.412         	8.94           	-0.12
MS.413         	8.92           	-0.164
MS.414         	8.903          	-0.161
MS.415         	8.885          	-0.158
MS.416         	8.867          	-0.159
MS.417         	8.85           	-0.165
MS.418         	8.832          	-0.159
MS.419         	8.815          	-0.156
MS.420         	8.797          	-0.161
MS.421         	8.78           	-0.16
MS.422         	8.762          	-0.154
MS.423         	8.745          	-0.157
MS.424         	8.727          	-0.153
MS.425         	8.71           	-0.104
MS.426         	8.693          	-0.155
MS.427         	8.675          	-0.157
MS.428         	8.658          	-0.154
MS.429         	8.64           	-0.154
MS.430         	8.622          	-0.154
MS.431         	8.605          	-0.154
MS.432         	8.587          	-0.153
MS.433         	8.57           	-0.151
MS.434         	8.555          	-0.154
MS.435         	8.537          	-0.147
MS.436         	8.52           	-0.147
MS.437         	8.502          	-0.152
MS.438         	8.485          	-0.146
MS.439         	8.47           	-0.152
MS.440         	8.452          	-0.143
MS.441         	8.435          	-0.148
MS.442         	8.417          	-0.146
MS.443         	8.403          	-0.147
MS.444         	8.385          	-0.146
MS.445         	8.367          	-0.144
MS.446         	8.35           	-0.143
MS.447         	8.335          	-0.147
MS.448         	8.318          	-0.148
MS.449         	8.302          	-0.148
MS.450         	8.285          	-0.145
MS.451         	8.267          	-0.143
MS.452         	8.252          	-0.137
MS.453         	8.235          	-0.142
MS.454         	8.217          	-0.142
MS.455         	8.202          	-0.137
MS.456         	8.185          	-0.138
MS.457         	8.17           	-0.143
MS.458         	8.153          	-0.139
MS.459         	8.137          	-0.143
DERIVED EXCITABILITY VARIABLES
Program = QTracP 27/06/2023
Threshold method = 6 (optimised for CAP, using data for present condition only)
SR method = 1 (using actual data values)
6.                 	0.000               	Peak response\(mV)
9.                 	33.3                	Temperature ( C)
17.                	21                  	Age (years)
18.                	2                   	Sex (M=1, F=2)

EXTRA VARIABLES

MScPeak(mV) = 3.34
MScS5(mA) = 11.81
MScS50(mA) = 15.05
MScS95(mA) = 19.48
MScNSteps = 2
MScSteps(%) = 4.4
MScStepMax(%) = 2.4
MScD50 = 52
MScSlope = 4.76
MScDuration(min) = 6.1
MSFTraces = 380
MSFPeakAmp(mV) = 3.32
MSFNUnits = 139
MSFMeanUnitAmp(uV) = 23.9
MSFHuntTime(m) = 0.98
MSFError(%) = 1.21
MSFNLarge = 55.41
MSFMedianAmp(%) = 0.684
MSFMedianAmp(mV) = 0.0227
MSFHalfAmpAmp(%) = 0.723
MSFHalfAmpAmp(mV) = 0.024
MSFLargestAmp(%) = 1.87
MSFLargestAmp(mV) = 0.0622
MSFMeanRS(%) = 2
MSFSizeLimit(uV) = 11.1
MSFLimitType = 1
MSFSmallestAmp(uV) = 12.4
MSFOpts = 10104222032
MSFSDMax = 22.5
MSFSDMin = 16.8

EXTRA WAVEFORMS


!MScan Model
!139
	1	9.89	0.78	2
	2	10.45	0.83	2
	3	10.62	0.69	2
	4	10.74	0.68	2
	5	10.9	0.74	2
	6	11.06	1.05	2
	7	11.19	0.76	2
	8	11.29	0.7	2
	9	11.39	0.76	2
	10	11.51	0.92	2
	11	11.62	0.6	2
	12	11.77	0.97	2
	13	11.88	0.7	2
	14	11.98	0.57	2
	15	12.05	0.71	2
	16	12.12	0.67	2
	17	12.2	0.53	2
	18	12.29	0.86	2
	19	12.39	0.82	2
	20	12.48	0.89	2
	21	12.57	0.79	2
	22	12.62	0.37	2
	23	12.67	0.39	2
	24	12.72	0.49	2
	25	12.79	0.56	2
	26	12.84	0.51	2
