File:              	C:\Qtrac\Data\ME2C30717B.QZD
Name:              	 ST26P
Protocol:          	MSCAN-MV
Date:              	17/7/23
Date of birth:     	26/5/03
Age:               	20
Sex:               	M
Temperature:       	31.6
S/R sites:         	Knee CF-TA
NC/disease:        	NC
Operator:          	BY
Comments:
M-SCAN DATA (Repeat 1/3, 12.4-4.4m)
Scanpts: 45, 74, 592, 645
Stim. (mA)     	Amp. (mV)
MS.1           	17.5           	8.916
MS.2           	17.5           	8.907
MS.3           	17.5           	8.936
MS.4           	17.5           	8.929
MS.5           	17.5           	8.896
MS.6           	17.5           	8.934
MS.7           	17.5           	8.956
MS.8           	17.5           	8.947
MS.9           	17.5           	8.914
MS.10          	17.5           	8.945
MS.11          	17.5           	8.932
MS.12          	17.5           	8.959
MS.13          	17.5           	8.948
MS.14          	17.5           	8.934
MS.15          	17.5           	8.917
MS.16          	17.5           	8.942
MS.17          	17.5           	8.947
MS.18          	17.5           	8.924
MS.19          	17.5           	8.932
MS.20          	17.5           	8.921
MS.21          	17.5           	8.945
MS.22          	17.5           	8.989
MS.23          	17.5           	8.959
MS.24          	17.43          	8.942
MS.25          	17.395         	8.948
MS.26          	17.36          	8.997
MS.27          	17.325         	8.958
MS.28          	17.29          	8.968
MS.29          	17.257         	8.957
MS.30          	17.222         	8.9
MS.31          	17.188         	8.953
MS.32          	17.153         	8.946
MS.33          	17.12          	8.984
MS.34          	17.085         	8.943
MS.35          	17.05          	8.943
MS.36          	17.017         	8.958
MS.37          	16.983         	8.956
MS.38          	16.95          	8.972
MS.39          	16.915         	8.926
MS.40          	16.88          	8.964
MS.41          	16.847         	8.92
MS.42          	16.812         	8.911
MS.43          	16.78          	8.982
MS.44          	16.747         	8.931
MS.45          	16.712         	8.996
MS.46          	16.68          	8.951
MS.47          	16.647         	8.933
MS.48          	16.612         	8.933
MS.49          	16.58          	8.939
MS.50          	16.547         	8.889
MS.51          	16.515         	8.918
MS.52          	16.48          	8.937
MS.53          	16.448         	8.927
MS.54          	16.415         	8.932
MS.55          	16.382         	8.885
MS.56          	16.35          	8.943
MS.57          	16.317         	8.893
MS.58          	16.285         	8.918
MS.59          	16.253         	8.962
MS.60          	16.22          	8.949
MS.61          	16.188         	8.931
MS.62          	16.155         	8.95
MS.63          	16.122         	8.941
MS.64          	16.09          	8.926
MS.65          	16.057         	8.961
MS.66          	16.025         	8.936
MS.67          	15.992         	8.897
MS.68          	15.962         	8.965
MS.69          	15.93          	8.901
MS.70          	15.898         	8.932
MS.71          	15.867         	8.94
MS.72          	15.835         	8.91
MS.73          	15.802         	8.888
MS.74          	15.773         	8.906
MS.75          	15.74          	8.928
MS.76          	15.707         	8.913
MS.77          	15.677         	8.909
MS.78          	15.645         	8.94
MS.79          	15.615         	8.931
MS.80          	15.582         	8.932
MS.81          	15.552         	8.888
MS.82          	15.52          	8.906
MS.83          	15.49          	8.916
MS.84          	15.46          	8.95
MS.85          	15.427         	8.925
MS.86          	15.398         	8.951
MS.87          	15.367         	8.91
MS.88          	15.335         	8.926
MS.89          	15.305         	8.885
MS.90          	15.275         	8.911
MS.91          	15.245         	8.949
MS.92          	15.212         	8.943
MS.93          	15.182         	8.943
MS.94          	15.152         	8.981
MS.95          	15.122         	8.94
MS.96          	15.092         	8.961
MS.97          	15.062         	8.927
MS.98          	15.032         	8.931
MS.99          	15.002         	8.916
MS.100         	14.972         	8.947
MS.101         	14.943         	8.893
MS.102         	14.912         	8.913
MS.103         	14.882         	8.93
MS.104         	14.852         	8.959
MS.105         	14.822         	8.915
MS.106         	14.792         	8.928
MS.107         	14.765         	8.908
MS.108         	14.735         	8.937
MS.109         	14.705         	8.889
MS.110         	14.675         	8.911
MS.111         	14.648         	8.909
MS.112         	14.617         	8.891
MS.113         	14.587         	8.907
MS.114         	14.56          	8.904
MS.115         	14.53          	8.932
MS.116         	14.5           	8.895
MS.117         	14.472         	8.976
MS.118         	14.443         	8.879
MS.119         	14.415         	8.922
MS.120         	14.385         	8.87
MS.121         	14.358         	8.911
MS.122         	14.327         	8.878
MS.123         	14.3           	8.944
MS.124         	14.27          	8.918
MS.125         	14.242         	8.891
MS.126         	14.212         	8.904
MS.127         	14.185         	8.929
MS.128         	14.157         	8.81
MS.129         	14.127         	8.868
MS.130         	14.1           	8.842
MS.131         	14.072         	8.87
MS.132         	14.045         	8.891
MS.133         	14.015         	8.842
MS.134         	13.987         	8.913
MS.135         	13.96          	8.865
MS.136         	13.932         	8.879
MS.137         	13.905         	8.857
MS.138         	13.877         	8.866
MS.139         	13.85          	8.871
MS.140         	13.82          	8.918
MS.141         	13.792         	8.859
MS.142         	13.765         	8.861
MS.143         	13.737         	8.869
MS.144         	13.71          	8.893
MS.145         	13.682         	8.917
MS.146         	13.655         	8.886
MS.147         	13.63          	8.914
MS.148         	13.602         	8.865
MS.149         	13.575         	8.9
MS.150         	13.547         	8.881
MS.151         	13.52          	8.889
MS.152         	13.492         	8.893
MS.153         	13.467         	8.904
MS.154         	13.44          	8.916
MS.155         	13.412         	8.85
MS.156         	13.385         	8.924
MS.157         	13.36          	8.856
MS.158         	13.332         	8.887
MS.159         	13.305         	8.911
MS.160         	13.28          	8.91
MS.161         	13.252         	8.878
MS.162         	13.225         	8.909
MS.163         	13.2           	8.915
MS.164         	13.172         	8.871
MS.165         	13.148         	8.885
MS.166         	13.12          	8.94
MS.167         	13.095         	8.865
MS.168         	13.068         	8.892
MS.169         	13.042         	8.898
MS.170         	13.015         	8.909
MS.171         	12.99          	8.918
MS.172         	12.965         	8.901
MS.173         	12.938         	8.879
MS.174         	12.912         	8.956
MS.175         	12.887         	8.95
MS.176         	12.86          	8.876
MS.177         	12.835         	8.912
MS.178         	12.81          	8.917
MS.179         	12.785         	8.891
MS.180         	12.757         	8.873
MS.181         	12.733         	8.825
MS.182         	12.707         	8.889
MS.183         	12.682         	8.882
MS.184         	12.657         	8.808
MS.185         	12.632         	8.916
MS.186         	12.608         	8.895
MS.187         	12.58          	8.932
MS.188         	12.555         	8.88
MS.189         	12.53          	8.851
MS.190         	12.505         	8.881
MS.191         	12.48          	8.861
MS.192         	12.455         	8.958
MS.193         	12.43          	8.923
MS.194         	12.405         	8.955
MS.195         	12.382         	8.912
MS.196         	12.358         	8.912
MS.197         	12.332         	8.925
MS.198         	12.307         	8.907
MS.199         	12.282         	8.823
MS.200         	12.257         	8.73
MS.201         	12.233         	8.832
MS.202         	12.21          	8.894
MS.203         	12.185         	8.717
MS.204         	12.16          	8.704
MS.205         	12.135         	8.774
MS.206         	12.113         	8.772
MS.207         	12.087         	8.903
MS.208         	12.062         	8.625
MS.209         	12.04          	8.608
MS.210         	12.015         	8.645
MS.211         	11.992         	8.713
MS.212         	11.967         	8.575
MS.213         	11.943         	8.642
MS.214         	11.92          	8.722
MS.215         	11.895         	8.576
MS.216         	11.872         	8.735
MS.217         	11.847         	8.852
MS.218         	11.825         	8.717
MS.219         	11.8           	8.5
MS.220         	11.778         	8.586
MS.221         	11.755         	8.453
MS.222         	11.73          	8.524
MS.223         	11.707         	8.406
MS.224         	11.682         	8.618
MS.225         	11.66          	8.553
MS.226         	11.637         	8.528
MS.227         	11.615         	8.464
MS.228         	11.59          	8.509
MS.229         	11.568         	8.495
MS.230         	11.545         	8.378
MS.231         	11.523         	8.517
MS.232         	11.497         	8.596
MS.233         	11.475         	8.403
MS.234         	11.452         	8.268
MS.235         	11.43          	8.489
MS.236         	11.407         	8.448
MS.237         	11.385         	8.517
MS.238         	11.36          	8.381
MS.239         	11.337         	8.354
MS.240         	11.315         	8.375
MS.241         	11.292         	8.32
MS.242         	11.27          	8.525
MS.243         	11.247         	8.414
MS.244         	11.225         	8.387
MS.245         	11.202         	8.448
MS.246         	11.18          	8.514
MS.247         	11.157         	8.298
MS.248         	11.135         	8.514
MS.249         	11.115         	8.355
MS.250         	11.092         	8.258
MS.251         	11.07          	8.35
MS.252         	11.047         	8.395
MS.253         	11.025         	8.409
MS.254         	11.002         	8.38
MS.255         	10.983         	8.311
MS.256         	10.96          	8.306
MS.257         	10.938         	8.259
MS.258         	10.915         	8.241
MS.259         	10.895         	8.185
MS.260         	10.872         	8.204
MS.261         	10.85          	8.206
MS.262         	10.827         	8.059
MS.263         	10.807         	8.029
MS.264         	10.785         	8.214
MS.265         	10.765         	8.193
MS.266         	10.742         	8.08
MS.267         	10.72          	7.987
MS.268         	10.7           	7.944
MS.269         	10.677         	8.044
MS.270         	10.657         	7.978
MS.271         	10.635         	7.926
MS.272         	10.615         	7.914
MS.273         	10.592         	7.964
MS.274         	10.573         	7.962
MS.275         	10.55          	7.733
MS.276         	10.53          	7.77
MS.277         	10.507         	7.722
MS.278         	10.488         	7.925
MS.279         	10.467         	7.75
MS.280         	10.445         	7.716
MS.281         	10.425         	7.679
MS.282         	10.405         	7.706
MS.283         	10.382         	7.556
MS.284         	10.363         	7.562
MS.285         	10.342         	7.709
MS.286         	10.32          	7.628
MS.287         	10.3           	7.67
MS.288         	10.28          	7.583
MS.289         	10.26          	7.457
MS.290         	10.24          	7.544
MS.291         	10.217         	7.536
MS.292         	10.198         	7.679
MS.293         	10.177         	7.64
MS.294         	10.157         	7.493
MS.295         	10.137         	7.434
MS.296         	10.117         	7.325
MS.297         	10.097         	7.337
MS.298         	10.077         	7.365
MS.299         	10.057         	7.208
MS.300         	10.035         	7.238
MS.301         	10.015         	7.236
MS.302         	9.995          	7.341
MS.303         	9.975          	7.078
MS.304         	9.955          	7.109
MS.305         	9.938          	7.075
MS.306         	9.917          	7.241
MS.307         	9.898          	7.005
MS.308         	9.877          	7.013
MS.309         	9.858          	7.007
MS.310         	9.837          	7.084
MS.311         	9.818          	6.994
MS.312         	9.797          	6.642
MS.313         	9.778          	6.871
MS.314         	9.76           	6.805
MS.315         	9.74           	6.776
MS.316         	9.72           	6.87
MS.317         	9.7            	6.755
MS.318         	9.682          	6.677
MS.319         	9.662          	6.705
MS.320         	9.642          	6.607
MS.321         	9.622          	6.553
MS.322         	9.605          	6.637
MS.323         	9.585          	6.635
MS.324         	9.565          	6.373
MS.325         	9.547          	6.465
MS.326         	9.528          	6.355
MS.327         	9.507          	6.412
MS.328         	9.49           	6.392
MS.329         	9.47           	6.278
MS.330         	9.452          	6.396
MS.331         	9.432          	6.132
MS.332         	9.415          	6.256
MS.333         	9.395          	6.227
MS.334         	9.377          	6.088
MS.335         	9.358          	5.978
MS.336         	9.34           	6.036
MS.337         	9.32           	6.068
MS.338         	9.302          	5.88
MS.339         	9.283          	5.947
MS.340         	9.265          	5.645
MS.341         	9.245          	5.953
MS.342         	9.227          	5.944
MS.343         	9.21           	5.85
MS.344         	9.19           	5.823
MS.345         	9.172          	5.643
MS.346         	9.155          	5.547
MS.347         	9.135          	5.694
MS.348         	9.117          	5.789
MS.349         	9.1            	5.29
MS.350         	9.08           	5.337
MS.351         	9.062          	5.428
MS.352         	9.045          	5.423
MS.353         	9.028          	5.562
MS.354         	9.01           	5.389
MS.355         	8.99           	5.325
MS.356         	8.972          	5.083
MS.357         	8.955          	5.124
MS.358         	8.938          	5.077
MS.359         	8.92           	5.33
MS.360         	8.903          	5.163
MS.361         	8.882          	4.996
MS.362         	8.865          	4.839
MS.363         	8.847          	4.837
MS.364         	8.83           	4.667
MS.365         	8.812          	4.775
MS.366         	8.795          	4.813
MS.367         	8.778          	4.736
MS.368         	8.76           	4.638
MS.369         	8.742          	4.686
MS.370         	8.725          	4.708
MS.371         	8.707          	4.626
MS.372         	8.69           	4.615
MS.373         	8.672          	4.614
MS.374         	8.655          	4.378
MS.375         	8.637          	4.354
MS.376         	8.62           	4.103
MS.377         	8.602          	4.09
MS.378         	8.587          	4.168
MS.379         	8.57           	4.299
MS.380         	8.552          	3.947
MS.381         	8.535          	4.164
MS.382         	8.517          	3.787
MS.383         	8.5            	3.994
MS.384         	8.485          	4.049
MS.385         	8.467          	3.84
MS.386         	8.45           	3.77
MS.387         	8.432          	3.906
MS.388         	8.417          	3.799
MS.389         	8.4            	3.81
MS.390         	8.382          	3.778
MS.391         	8.365          	3.707
MS.392         	8.35           	3.759
MS.393         	8.332          	3.602
MS.394         	8.315          	3.558
MS.395         	8.3            	3.553
MS.396         	8.283          	3.607
MS.397         	8.267          	3.43
MS.398         	8.25           	3.531
MS.399         	8.233          	3.363
MS.400         	8.217          	3.06
MS.401         	8.2            	3.311
MS.402         	8.185          	3.339
MS.403         	8.167          	3.126
MS.404         	8.153          	3.283
MS.405         	8.135          	3.188
MS.406         	8.12           	3.248
MS.407         	8.102          	3.041
MS.408         	8.087          	3.127
MS.409         	8.07           	2.818
MS.410         	8.055          	2.966
MS.411         	8.037          	2.98
MS.412         	8.023          	2.662
MS.413         	8.005          	2.868
MS.414         	7.99           	2.768
MS.415         	7.975          	2.802
MS.416         	7.957          	2.56
MS.417         	7.942          	2.493
MS.418         	7.927          	2.511
MS.419         	7.91           	2.474
MS.420         	7.895          	2.31
MS.421         	7.88           	2.236
MS.422         	7.862          	2.435
MS.423         	7.847          	2.23
MS.424         	7.832          	2.357
MS.425         	7.815          	2.218
MS.426         	7.8            	2.203
MS.427         	7.785          	2.254
MS.428         	7.77           	2.153
MS.429         	7.755          	2.188
MS.430         	7.737          	2.07
MS.431         	7.722          	1.866
MS.432         	7.707          	1.946
MS.433         	7.692          	1.96
MS.434         	7.677          	1.916
MS.435         	7.662          	1.924
MS.436         	7.645          	1.652
MS.437         	7.63           	1.707
MS.438         	7.615          	1.677
MS.439         	7.6            	1.51
MS.440         	7.585          	1.541
MS.441         	7.57           	1.467
MS.442         	7.555          	1.443
MS.443         	7.54           	1.465
MS.444         	7.525          	1.442
MS.445         	7.51           	1.429
MS.446         	7.495          	1.246
MS.447         	7.48           	1.385
MS.448         	7.465          	1.412
MS.449         	7.45           	1.351
MS.450         	7.435          	1.205
MS.451         	7.42           	1.089
MS.452         	7.405          	1.159
MS.453         	7.39           	1.146
MS.454         	7.375          	1.083
MS.455         	7.36           	1.134
MS.456         	7.347          	1.097
MS.457         	7.332          	1.103
MS.458         	7.317          	1.04
MS.459         	7.302          	1.104
MS.460         	7.287          	1.039
MS.461         	7.273          	0.875
MS.462         	7.257          	0.969
MS.463         	7.245          	0.878
MS.464         	7.23           	0.842
MS.465         	7.215          	0.891
MS.466         	7.2            	0.939
MS.467         	7.188          	0.895
MS.468         	7.172          	0.928
MS.469         	7.157          	0.756
MS.470         	7.142          	0.763
MS.471         	7.13           	0.771
MS.472         	7.115          	0.851
MS.473         	7.1            	0.845
MS.474         	7.087          	0.677
MS.475         	7.072          	0.664
MS.476         	7.057          	0.664
MS.477         	7.045          	0.712
MS.478         	7.03           	0.662
MS.479         	7.015          	0.621
MS.480         	7.003          	0.576
MS.481         	6.987          	0.521
MS.482         	6.975          	0.516
MS.483         	6.96           	0.624
MS.484         	6.945          	0.557
MS.485         	6.932          	0.585
MS.486         	6.918          	0.483
MS.487         	6.905          	0.535
MS.488         	6.89           	0.467
MS.489         	6.878          	0.483
MS.490         	6.862          	0.417
MS.491         	6.85           	0.52
MS.492         	6.835          	0.51
MS.493         	6.822          	0.463
MS.494         	6.807          	0.485
MS.495         	6.795          	0.464
MS.496         	6.782          	0.411
MS.497         	6.767          	0.438
MS.498         	6.755          	0.406
MS.499         	6.74           	0.391
MS.500         	6.727          	0.406
MS.501         	6.715          	0.302
MS.502         	6.7            	0.298
MS.503         	6.688          	0.355
