File:              	C:\Qtrac\Data\ME2C30614A.QZD
Name:              	 AR18E
Protocol:          	MSCAN-MV
Date:              	14/6/23
Date of birth:     	18/10/02
Age:               	20
Sex:               	M
Temperature:       	33.4
S/R sites:         	Knee CF-TA
NC/disease:        	NC
Operator:          	KJ
Comments:
M-SCAN DATA (Repeat 2/3, 18.6-11.2m)
Scanpts: 11, 40, 507, 526
Stim. (mA)     	Amp. (mV)
MS.1           	29.5           	4.895
MS.2           	29.5           	4.859
MS.3           	29.5           	4.849
MS.4           	29.5           	4.88
MS.5           	29.5           	4.869
MS.6           	29.5           	4.938
MS.7           	29.5           	4.825
MS.8           	29.5           	4.843
MS.9           	29.5           	4.868
MS.10          	29.5           	4.831
MS.11          	29.5           	4.829
MS.12          	29.5           	4.825
MS.13          	29.5           	4.86
MS.14          	29.5           	4.844
MS.15          	29.5           	4.849
MS.16          	29.5           	4.861
MS.17          	29.5           	4.848
MS.18          	29.5           	4.845
MS.19          	29.5           	4.886
MS.20          	29.5           	4.831
MS.21          	29.5           	4.841
MS.22          	29.5           	4.827
MS.23          	29.5           	4.879
MS.24          	29.44          	4.846
MS.25          	29.382         	4.854
MS.26          	29.323         	4.835
MS.27          	29.265         	4.874
MS.28          	29.207         	4.833
MS.29          	29.147         	4.891
MS.30          	29.09          	4.856
MS.31          	29.032         	4.843
MS.32          	28.975         	4.871
MS.33          	28.915         	4.875
MS.34          	28.858         	4.837
MS.35          	28.8           	4.875
MS.36          	28.743         	4.83
MS.37          	28.685         	4.838
MS.38          	28.627         	4.852
MS.39          	28.57          	4.837
MS.40          	28.515         	4.888
MS.41          	28.457         	4.875
MS.42          	28.4           	4.857
MS.43          	28.342         	4.838
MS.44          	28.287         	4.857
MS.45          	28.23          	4.845
MS.46          	28.172         	4.893
MS.47          	28.118         	4.845
MS.48          	28.062         	4.783
MS.49          	28.005         	4.836
MS.50          	27.95          	4.812
MS.51          	27.892         	4.866
MS.52          	27.837         	4.83
MS.53          	27.782         	4.802
MS.54          	27.727         	4.825
MS.55          	27.67          	4.795
MS.56          	27.615         	4.756
MS.57          	27.56          	4.786
MS.58          	27.505         	4.83
MS.59          	27.45          	4.79
MS.60          	27.395         	4.788
MS.61          	27.34          	4.732
MS.62          	27.287         	4.739
MS.63          	27.233         	4.758
MS.64          	27.177         	4.765
MS.65          	27.122         	4.705
MS.66          	27.07          	4.72
MS.67          	27.015         	4.726
MS.68          	26.96          	4.73
MS.69          	26.907         	4.755
MS.70          	26.852         	4.742
MS.71          	26.8           	4.702
MS.72          	26.745         	4.737
MS.73          	26.692         	4.764
MS.74          	26.64          	4.736
MS.75          	26.585         	4.702
MS.76          	26.532         	4.727
MS.77          	26.48          	4.704
MS.78          	26.427         	4.68
MS.79          	26.375         	4.717
MS.80          	26.323         	4.682
MS.81          	26.27          	4.702
MS.82          	26.217         	4.702
MS.83          	26.165         	4.71
MS.84          	26.112         	4.743
MS.85          	26.06          	4.7
MS.86          	26.007         	4.615
MS.87          	25.955         	4.663
MS.88          	25.905         	4.669
MS.89          	25.852         	4.694
MS.90          	25.8           	4.757
MS.91          	25.75          	4.733
MS.92          	25.698         	4.706
MS.93          	25.645         	4.706
MS.94          	25.595         	4.637
MS.95          	25.542         	4.717
MS.96          	25.493         	4.662
MS.97          	25.442         	4.691
MS.98          	25.39          	4.691
MS.99          	25.34          	4.659
MS.100         	25.29          	4.7
MS.101         	25.24          	4.64
MS.102         	25.188         	4.642
MS.103         	25.137         	4.651
MS.104         	25.087         	4.691
MS.105         	25.038         	4.62
MS.106         	24.987         	4.612
MS.107         	24.938         	4.615
MS.108         	24.887         	4.656
MS.109         	24.837         	4.623
MS.110         	24.79          	4.67
MS.111         	24.74          	4.63
MS.112         	24.69          	4.613
MS.113         	24.64          	4.557
MS.114         	24.59          	4.651
MS.115         	24.542         	4.634
MS.116         	24.493         	4.597
MS.117         	24.445         	4.649
MS.118         	24.395         	4.632
MS.119         	24.347         	4.615
MS.120         	24.297         	4.657
MS.121         	24.25          	4.597
MS.122         	24.2           	4.583
MS.123         	24.153         	4.546
MS.124         	24.105         	4.567
MS.125         	24.055         	4.578
MS.126         	24.007         	4.525
MS.127         	23.96          	4.55
MS.128         	23.913         	4.576
MS.129         	23.865         	4.569
MS.130         	23.817         	4.583
MS.131         	23.77          	4.554
MS.132         	23.722         	4.48
MS.133         	23.675         	4.462
MS.134         	23.627         	4.438
MS.135         	23.58          	4.506
MS.136         	23.532         	4.474
MS.137         	23.485         	4.503
MS.138         	23.438         	4.499
MS.139         	23.392         	4.476
MS.140         	23.345         	4.467
MS.141         	23.297         	4.424
MS.142         	23.252         	4.468
MS.143         	23.205         	4.351
MS.144         	23.16          	4.426
MS.145         	23.112         	4.265
MS.146         	23.067         	4.431
MS.147         	23.02          	4.373
MS.148         	22.975         	4.251
MS.149         	22.927         	4.235
MS.150         	22.882         	4.301
MS.151         	22.837         	4.269
MS.152         	22.792         	4.411
MS.153         	22.745         	4.202
MS.154         	22.7           	4.205
MS.155         	22.655         	4.121
MS.156         	22.61          	4.127
MS.157         	22.565         	4.158
MS.158         	22.52          	4.229
MS.159         	22.475         	4.117
MS.160         	22.43          	4.241
MS.161         	22.385         	4.168
MS.162         	22.34          	4.176
MS.163         	22.295         	4.166
MS.164         	22.25          	4.079
MS.165         	22.207         	4.067
MS.166         	22.163         	4.096
MS.167         	22.118         	4.033
MS.168         	22.075         	4.024
MS.169         	22.03          	4.033
MS.170         	21.985         	4.169
MS.171         	21.942         	4.026
MS.172         	21.897         	4.028
MS.173         	21.855         	4.007
MS.174         	21.81          	3.913
MS.175         	21.767         	4.006
MS.176         	21.722         	3.958
MS.177         	21.68          	3.836
MS.178         	21.637         	3.814
MS.179         	21.592         	3.758
MS.180         	21.55          	3.854
MS.181         	21.507         	3.853
MS.182         	21.465         	3.847
MS.183         	21.422         	3.856
MS.184         	21.377         	3.801
MS.185         	21.335         	3.774
MS.186         	21.292         	3.633
MS.187         	21.25          	3.642
MS.188         	21.208         	3.576
MS.189         	21.165         	3.589
MS.190         	21.122         	3.628
MS.191         	21.083         	3.48
MS.192         	21.04          	3.638
MS.193         	20.997         	3.393
MS.194         	20.955         	3.466
MS.195         	20.913         	3.496
MS.196         	20.872         	3.348
MS.197         	20.83          	3.342
MS.198         	20.788         	3.384
MS.199         	20.747         	3.346
MS.200         	20.705         	3.336
MS.201         	20.665         	3.348
MS.202         	20.622         	3.29
MS.203         	20.583         	3.289
MS.204         	20.54          	3.276
MS.205         	20.5           	3.335
MS.206         	20.458         	3.283
MS.207         	20.417         	3.333
MS.208         	20.377         	3.151
MS.209         	20.335         	3.135
MS.210         	20.295         	3.069
MS.211         	20.255         	3.138
MS.212         	20.215         	3.13
MS.213         	20.175         	3.138
MS.214         	20.132         	3.116
MS.215         	20.092         	3.105
MS.216         	20.052         	3.032
MS.217         	20.012         	3.046
MS.218         	19.972         	3.074
MS.219         	19.932         	3.021
MS.220         	19.892         	3.001
MS.221         	19.852         	2.894
MS.222         	19.815         	3.018
MS.223         	19.775         	2.842
MS.224         	19.735         	2.838
MS.225         	19.695         	2.875
MS.226         	19.655         	3.006
MS.227         	19.618         	2.966
MS.228         	19.577         	2.778
MS.229         	19.538         	2.848
MS.230         	19.5           	2.778
MS.231         	19.46          	2.811
MS.232         	19.422         	2.83
MS.233         	19.382         	2.747
MS.234         	19.345         	2.714
MS.235         	19.305         	2.567
MS.236         	19.267         	2.798
MS.237         	19.227         	2.65
MS.238         	19.19          	2.628
MS.239         	19.153         	2.659
MS.240         	19.112         	2.576
MS.241         	19.075         	2.683
MS.242         	19.038         	2.607
MS.243         	19             	2.604
MS.244         	18.96          	2.646
MS.245         	18.922         	2.62
MS.246         	18.885         	2.52
MS.247         	18.847         	2.336
MS.248         	18.81          	2.491
MS.249         	18.772         	2.382
MS.250         	18.735         	2.398
MS.251         	18.698         	2.36
MS.252         	18.66          	2.397
MS.253         	18.622         	2.587
MS.254         	18.585         	2.734
MS.255         	18.547         	2.589
MS.256         	18.512         	2.665
MS.257         	18.475         	2.549
MS.258         	18.438         	2.504
MS.259         	18.4           	2.533
MS.260         	18.365         	2.418
MS.261         	18.327         	2.314
MS.262         	18.29          	2.451
MS.263         	18.255         	2.302
MS.264         	18.217         	2.431
MS.265         	18.18          	2.271
MS.266         	18.145         	2.272
MS.267         	18.108         	2.345
MS.268         	18.073         	2.302
MS.269         	18.038         	2.209
MS.270         	18             	2.361
MS.271         	17.965         	2.135
MS.272         	17.927         	2.265
MS.273         	17.892         	2.228
MS.274         	17.858         	2.261
MS.275         	17.82          	2.205
MS.276         	17.785         	2.114
MS.277         	17.75          	2.136
MS.278         	17.715         	2.023
MS.279         	17.68          	2.153
MS.280         	17.645         	2.015
MS.281         	17.608         	1.973
MS.282         	17.573         	1.982
MS.283         	17.538         	1.897
MS.284         	17.503         	1.921
MS.285         	17.467         	1.876
MS.286         	17.432         	1.865
MS.287         	17.397         	1.799
MS.288         	17.365         	1.843
MS.289         	17.33          	1.847
MS.290         	17.295         	1.743
MS.291         	17.26          	1.678
MS.292         	17.225         	1.608
MS.293         	17.19          	1.746
MS.294         	17.157         	1.688
MS.295         	17.122         	1.578
MS.296         	17.087         	1.626
MS.297         	17.055         	1.588
MS.298         	17.02          	1.5
MS.299         	16.985         	1.504
MS.300         	16.952         	1.487
MS.301         	16.917         	1.486
MS.302         	16.885         	1.44
MS.303         	16.85          	1.352
MS.304         	16.817         	1.283
MS.305         	16.782         	1.282
MS.306         	16.75          	1.265
MS.307         	16.717         	1.266
MS.308         	16.682         	1.257
MS.309         	16.65          	1.232
MS.310         	16.618         	1.276
MS.311         	16.583         	1.207
MS.312         	16.55          	1.179
MS.313         	16.517         	1.165
MS.314         	16.485         	1.117
MS.315         	16.45          	1.132
MS.316         	16.417         	1.113
MS.317         	16.385         	1.142
MS.318         	16.352         	0.968
MS.319         	16.32          	0.978
MS.320         	16.288         	1.069
MS.321         	16.255         	0.969
MS.322         	16.222         	0.922
MS.323         	16.19          	0.868
MS.324         	16.157         	0.882
MS.325         	16.125         	0.963
MS.326         	16.092         	0.868
MS.327         	16.06          	0.887
MS.328         	16.03          	0.831
MS.329         	15.997         	0.88
MS.330         	15.965         	0.804
MS.331         	15.932         	0.812
MS.332         	15.9           	0.76
MS.333         	15.87          	0.818
MS.334         	15.837         	0.772
MS.335         	15.805         	0.853
MS.336         	15.775         	0.847
MS.337         	15.742         	0.761
MS.338         	15.712         	0.747
MS.339         	15.68          	0.771
MS.340         	15.648         	0.78
MS.341         	15.617         	0.723
MS.342         	15.587         	0.817
MS.343         	15.555         	0.725
MS.344         	15.525         	0.666
MS.345         	15.492         	0.708
MS.346         	15.462         	0.692
MS.347         	15.43          	0.638
MS.348         	15.4           	0.663
MS.349         	15.37          	0.596
MS.350         	15.34          	0.601
MS.351         	15.307         	0.551
MS.352         	15.277         	0.643
MS.353         	15.247         	0.67
MS.354         	15.217         	0.573
MS.355         	15.185         	0.535
MS.356         	15.155         	0.558
MS.357         	15.125         	0.549
MS.358         	15.095         	0.485
MS.359         	15.065         	0.558
MS.360         	15.035         	0.599
MS.361         	15.005         	0.538
MS.362         	14.975         	0.549
MS.363         	14.945         	0.473
MS.364         	14.915         	0.488
MS.365         	14.885         	0.527
MS.366         	14.855         	0.476
MS.367         	14.825         	0.439
MS.368         	14.797         	0.484
MS.369         	14.767         	0.474
MS.370         	14.737         	0.476
MS.371         	14.707         	0.521
MS.372         	14.677         	0.473
MS.373         	14.65          	0.422
MS.374         	14.62          	0.464
MS.375         	14.59          	0.461
MS.376         	14.562         	0.453
MS.377         	14.532         	0.512
MS.378         	14.502         	0.421
MS.379         	14.475         	0.459
MS.380         	14.445         	0.423
MS.381         	14.417         	0.427
MS.382         	14.387         	0.46
MS.383         	14.36          	0.48
MS.384         	14.33          	0.39
MS.385         	14.302         	0.491
MS.386         	14.273         	0.376
MS.387         	14.245         	0.455
MS.388         	14.217         	0.456
MS.389         	14.188         	0.385
MS.390         	14.16          	0.427
MS.391         	14.132         	0.414
MS.392         	14.102         	0.4
MS.393         	14.075         	0.403
MS.394         	14.047         	0.409
MS.395         	14.017         	0.41
MS.396         	13.99          	0.38
MS.397         	13.962         	0.349
MS.398         	13.935         	0.419
MS.399         	13.907         	0.392
MS.400         	13.88          	0.337
MS.401         	13.852         	0.333
MS.402         	13.825         	0.378
MS.403         	13.795         	0.427
MS.404         	13.767         	0.403
MS.405         	13.74          	0.396
MS.406         	13.712         	0.389
MS.407         	13.685         	0.371
MS.408         	13.66          	0.356
MS.409         	13.632         	0.336
MS.410         	13.605         	0.384
MS.411         	13.577         	0.384
MS.412         	13.55          	0.332
MS.413         	13.523         	0.343
MS.414         	13.495         	0.367
MS.415         	13.47          	0.367
MS.416         	13.443         	0.364
MS.417         	13.415         	0.332
MS.418         	13.387         	0.321
MS.419         	13.362         	0.377
MS.420         	13.335         	0.294
MS.421         	13.307         	0.353
MS.422         	13.282         	0.338
MS.423         	13.255         	0.319
MS.424         	13.227         	0.325
MS.425         	13.202         	0.332
MS.426         	13.175         	0.349
MS.427         	13.15          	0.339
MS.428         	13.122         	0.306
MS.429         	13.097         	0.304
MS.430         	13.07          	0.35
MS.431         	13.045         	0.309
MS.432         	13.017         	0.367
MS.433         	12.992         	0.318
MS.434         	12.967         	0.332
MS.435         	12.94          	0.327
MS.436         	12.915         	0.32
MS.437         	12.89          	0.35
MS.438         	12.862         	0.3
MS.439         	12.837         	0.311
MS.440         	12.812         	0.327
MS.441         	12.787         	0.361
MS.442         	12.76          	0.343
MS.443         	12.735         	0.289
MS.444         	12.71          	0.274
MS.445         	12.685         	0.333
MS.446         	12.66          	0.298
MS.447         	12.635         	0.251
MS.448         	12.608         	0.231
MS.449         	12.582         	0.287
MS.450         	12.557         	0.248
MS.451         	12.532         	0.317
MS.452         	12.507         	0.256
MS.453         	12.483         	0.289
MS.454         	12.457         	0.318
MS.455         	12.432         	0.306
MS.456         	12.407         	0.252
MS.457         	12.385         	0.26
MS.458         	12.36          	0.28
MS.459         	12.335         	0.254
MS.460         	12.31          	0.276
MS.461         	12.285         	0.289
MS.462         	12.26          	0.302
MS.463         	12.235         	0.239
MS.464         	12.212         	0.243
MS.465         	12.188         	0.296
MS.466         	12.162         	0.284
MS.467         	12.137         	0.265
MS.468         	12.115         	0.291
MS.469         	12.09          	0.279
MS.470         	12.065         	0.257
MS.471         	12.042         	0.256
MS.472         	12.017         	0.256
MS.473         	11.995         	0.239
MS.474         	11.97          	0.245
MS.475         	11.945         	0.258
MS.476         	11.922         	0.272
MS.477         	11.898         	0.276
MS.478         	11.875         	0.247
MS.479         	11.85          	0.258
MS.480         	11.827         	0.254
MS.481         	11.802         	0.27
MS.482         	11.78          	0.294
MS.483         	11.757         	0.255
MS.484         	11.733         	0.265
MS.485         	11.71          	0.308
MS.486         	11.685         	0.239
MS.487         	11.662         	0.278
MS.488         	11.64          	0.269
MS.489         	11.615         	0.266
MS.490         	11.592         	0.268
MS.491         	11.57          	0.276
MS.492         	11.547         	0.25
MS.493         	11.523         	0.241
MS.494         	11.5           	0.237
MS.495         	11.477         	0.286
MS.496         	11.455         	0.238
MS.497         	11.432         	0.233
MS.498         	11.41          	0.22
MS.499         	11.385         	0.276
MS.500         	11.363         	0.251
MS.501         	11.34          	0.266
MS.502         	11.318         	0.258
MS.503         	11.295         	0.309
