File:              	C:\Qtrac\Data\ME2C30613A.QZD
Name:              	 HU17A
Protocol:          	MSCAN-R2
Date:              	13/6/23
Date of birth:     	17/9/88
Age:               	34
Sex:               	F
Temperature:       	32.0
S/R sites:         	Knee CF-TA
NC/disease:        	NC
Operator:          	BY
Comments:
M-SCAN DATA (Repeat 1/3, 19.2-10.4m)
Scanpts: 1, 30, 654, 702
Stim. (mA)     	Amp. (mV)
MS.1           	31             	5.252
MS.2           	31             	5.255
MS.3           	31             	5.254
MS.4           	31             	5.218
MS.5           	31             	5.181
MS.6           	31             	5.245
MS.7           	31             	5.25
MS.8           	31             	5.192
MS.9           	31             	5.218
MS.10          	31             	5.225
MS.11          	31             	5.244
MS.12          	31             	5.189
MS.13          	31             	5.212
MS.14          	31             	5.23
MS.15          	31             	5.204
MS.16          	31             	5.24
MS.17          	31             	5.251
MS.18          	31             	5.226
MS.19          	31             	5.235
MS.20          	31             	5.261
MS.21          	31             	5.236
MS.22          	31             	5.202
MS.23          	31             	5.287
MS.24          	30.875         	5.208
MS.25          	30.815         	5.287
MS.26          	30.752         	5.236
MS.27          	30.692         	5.238
MS.28          	30.63          	5.256
MS.29          	30.57          	5.258
MS.30          	30.507         	5.222
MS.31          	30.448         	5.212
MS.32          	30.385         	5.242
MS.33          	30.325         	5.192
MS.34          	30.265         	5.22
MS.35          	30.205         	5.226
MS.36          	30.145         	5.185
MS.37          	30.082         	5.231
MS.38          	30.022         	5.208
MS.39          	29.962         	5.164
MS.40          	29.903         	5.18
MS.41          	29.845         	5.173
MS.42          	29.785         	5.147
MS.43          	29.725         	5.148
MS.44          	29.665         	5.214
MS.45          	29.605         	5.248
MS.46          	29.547         	5.203
MS.47          	29.487         	5.156
MS.48          	29.43          	5.141
MS.49          	29.37          	5.19
MS.50          	29.312         	5.205
MS.51          	29.252         	5.155
MS.52          	29.195         	5.16
MS.53          	29.137         	5.134
MS.54          	29.077         	5.131
MS.55          	29.02          	5.132
MS.56          	28.962         	5.12
MS.57          	28.905         	5.149
MS.58          	28.847         	5.132
MS.59          	28.787         	5.206
MS.60          	28.73          	5.15
MS.61          	28.675         	5.157
MS.62          	28.618         	5.128
MS.63          	28.56          	5.138
MS.64          	28.502         	5.121
MS.65          	28.445         	5.126
MS.66          	28.387         	5.143
MS.67          	28.332         	5.119
MS.68          	28.275         	5.114
MS.69          	28.217         	5.119
MS.70          	28.162         	5.084
MS.71          	28.105         	5.129
MS.72          	28.05          	5.139
MS.73          	27.995         	5.121
MS.74          	27.938         	5.109
MS.75          	27.882         	5.106
MS.76          	27.827         	5.106
MS.77          	27.77          	5.107
MS.78          	27.715         	5.107
MS.79          	27.66          	5.107
MS.80          	27.605         	5.101
MS.81          	27.55          	5.093
MS.82          	27.495         	5.094
MS.83          	27.44          	5.093
MS.84          	27.385         	5.084
MS.85          	27.33          	5.052
MS.86          	27.275         	5.051
MS.87          	27.22          	5.061
MS.88          	27.167         	5.096
MS.89          	27.112         	5.076
MS.90          	27.057         	5.045
MS.91          	27.005         	5.078
MS.92          	26.95          	5.043
MS.93          	26.895         	5.054
MS.94          	26.842         	5.049
MS.95          	26.79          	5.09
MS.96          	26.735         	5.082
MS.97          	26.682         	5.032
MS.98          	26.627         	5.047
MS.99          	26.575         	5.031
MS.100         	26.522         	5.056
MS.101         	26.47          	5.056
MS.102         	26.417         	5.032
MS.103         	26.362         	5.008
MS.104         	26.31          	5.015
MS.105         	26.257         	5.031
MS.106         	26.205         	4.991
MS.107         	26.153         	5.013
MS.108         	26.1           	5.02
MS.109         	26.05          	5.003
MS.110         	25.997         	5.004
MS.111         	25.945         	5.059
MS.112         	25.892         	5.009
MS.113         	25.842         	4.97
MS.114         	25.79          	4.995
MS.115         	25.737         	5.042
MS.116         	25.688         	5.026
MS.117         	25.635         	5.003
MS.118         	25.585         	4.998
MS.119         	25.532         	4.996
MS.120         	25.483         	4.962
MS.121         	25.432         	4.988
MS.122         	25.38          	4.942
MS.123         	25.33          	5.013
MS.124         	25.28          	4.951
MS.125         	25.227         	4.938
MS.126         	25.177         	4.957
MS.127         	25.127         	4.953
MS.128         	25.077         	4.899
MS.129         	25.028         	4.956
MS.130         	24.977         	4.897
MS.131         	24.927         	4.897
MS.132         	24.877         	4.881
MS.133         	24.827         	4.888
MS.134         	24.778         	4.897
MS.135         	24.73          	4.813
MS.136         	24.68          	4.873
MS.137         	24.63          	4.826
MS.138         	24.58          	4.877
MS.139         	24.532         	4.858
MS.140         	24.483         	4.85
MS.141         	24.435         	4.89
MS.142         	24.385         	4.891
MS.143         	24.337         	4.774
MS.144         	24.288         	4.844
MS.145         	24.24          	4.737
MS.146         	24.19          	4.771
MS.147         	24.142         	4.796
MS.148         	24.095         	4.786
MS.149         	24.047         	4.802
MS.150         	23.997         	4.797
MS.151         	23.95          	4.753
MS.152         	23.903         	4.811
MS.153         	23.855         	4.725
MS.154         	23.807         	4.74
MS.155         	23.76          	4.738
MS.156         	23.712         	4.725
MS.157         	23.665         	4.714
MS.158         	23.618         	4.702
MS.159         	23.57          	4.739
MS.160         	23.522         	4.643
MS.161         	23.475         	4.736
MS.162         	23.43          	4.711
MS.163         	23.382         	4.666
MS.164         	23.335         	4.595
MS.165         	23.29          	4.678
MS.166         	23.243         	4.695
MS.167         	23.195         	4.622
MS.168         	23.15          	4.515
MS.169         	23.102         	4.622
MS.170         	23.057         	4.592
MS.171         	23.01          	4.565
MS.172         	22.965         	4.526
MS.173         	22.92          	4.495
MS.174         	22.872         	4.526
MS.175         	22.827         	4.588
MS.176         	22.782         	4.54
MS.177         	22.737         	4.525
MS.178         	22.692         	4.506
MS.179         	22.645         	4.438
MS.180         	22.6           	4.47
MS.181         	22.555         	4.481
MS.182         	22.51          	4.5
MS.183         	22.465         	4.468
MS.184         	22.42          	4.443
MS.185         	22.375         	4.468
MS.186         	22.33          	4.407
MS.187         	22.288         	4.384
MS.188         	22.243         	4.407
MS.189         	22.198         	4.439
MS.190         	22.153         	4.366
MS.191         	22.11          	4.368
MS.192         	22.065         	4.473
MS.193         	22.02          	4.334
MS.194         	21.977         	4.376
MS.195         	21.932         	4.328
MS.196         	21.89          	4.365
MS.197         	21.845         	4.277
MS.198         	21.802         	4.339
MS.199         	21.757         	4.296
MS.200         	21.715         	4.332
MS.201         	21.67          	4.199
MS.202         	21.627         	4.288
MS.203         	21.585         	4.291
MS.204         	21.542         	4.222
MS.205         	21.497         	4.225
MS.206         	21.455         	4.221
MS.207         	21.413         	4.195
MS.208         	21.37          	4.188
MS.209         	21.327         	4.185
MS.210         	21.285         	4.048
MS.211         	21.243         	4.196
MS.212         	21.2           	4.138
MS.213         	21.157         	4.12
MS.214         	21.115         	4.167
MS.215         	21.073         	4.139
MS.216         	21.03          	4.07
MS.217         	20.987         	4.09
MS.218         	20.948         	4.03
MS.219         	20.905         	4.094
MS.220         	20.862         	4.108
MS.221         	20.823         	3.999
MS.222         	20.78          	4.004
MS.223         	20.737         	4.077
MS.224         	20.698         	4.041
MS.225         	20.655         	4.005
MS.226         	20.615         	3.978
MS.227         	20.573         	4.025
MS.228         	20.532         	3.987
MS.229         	20.49          	3.961
MS.230         	20.45          	3.986
MS.231         	20.41          	3.854
MS.232         	20.368         	3.842
MS.233         	20.327         	3.837
MS.234         	20.288         	3.841
MS.235         	20.247         	3.796
MS.236         	20.205         	3.905
MS.237         	20.165         	3.752
MS.238         	20.125         	3.893
MS.239         	20.085         	3.771
MS.240         	20.045         	3.784
MS.241         	20.005         	3.854
MS.242         	19.965         	3.86
MS.243         	19.925         	3.802
MS.244         	19.885         	3.81
MS.245         	19.845         	3.728
MS.246         	19.805         	3.685
MS.247         	19.767         	3.698
MS.248         	19.727         	3.678
MS.249         	19.688         	3.541
MS.250         	19.647         	3.676
MS.251         	19.61          	3.607
MS.252         	19.57          	3.659
MS.253         	19.53          	3.678
MS.254         	19.493         	3.576
MS.255         	19.452         	3.5
MS.256         	19.415         	3.503
MS.257         	19.375         	3.458
MS.258         	19.337         	3.4
MS.259         	19.297         	3.463
MS.260         	19.26          	3.41
MS.261         	19.22          	3.521
MS.262         	19.182         	3.343
MS.263         	19.145         	3.353
MS.264         	19.105         	3.411
MS.265         	19.067         	3.276
MS.266         	19.03          	3.363
MS.267         	18.993         	3.274
MS.268         	18.952         	3.242
MS.269         	18.915         	3.323
MS.270         	18.877         	3.239
MS.271         	18.84          	3.298
MS.272         	18.802         	3.137
MS.273         	18.765         	3.118
MS.274         	18.727         	3.179
MS.275         	18.69          	3.151
MS.276         	18.653         	3.181
MS.277         	18.615         	3.087
MS.278         	18.577         	3.089
MS.279         	18.54          	3.109
MS.280         	18.505         	3.086
MS.281         	18.467         	3.013
MS.282         	18.43          	3.132
MS.283         	18.392         	3.074
MS.284         	18.358         	2.885
MS.285         	18.32          	2.985
MS.286         	18.282         	3.03
MS.287         	18.247         	2.973
MS.288         	18.21          	2.891
MS.289         	18.175         	2.806
MS.290         	18.137         	2.878
MS.291         	18.102         	2.838
MS.292         	18.065         	2.764
MS.293         	18.03          	2.763
MS.294         	17.993         	2.765
MS.295         	17.958         	2.823
MS.296         	17.92          	2.802
MS.297         	17.885         	2.689
MS.298         	17.85          	2.741
MS.299         	17.815         	2.713
MS.300         	17.778         	2.696
MS.301         	17.743         	2.71
MS.302         	17.708         	2.683
MS.303         	17.672         	2.658
MS.304         	17.637         	2.688
MS.305         	17.602         	2.602
MS.306         	17.567         	2.516
MS.307         	17.53          	2.514
MS.308         	17.495         	2.534
MS.309         	17.46          	2.512
MS.310         	17.427         	2.56
MS.311         	17.392         	2.534
MS.312         	17.358         	2.543
MS.313         	17.323         	2.475
MS.314         	17.288         	2.457
MS.315         	17.253         	2.438
MS.316         	17.217         	2.449
MS.317         	17.185         	2.441
MS.318         	17.15          	2.386
MS.319         	17.115         	2.391
MS.320         	17.083         	2.378
MS.321         	17.047         	2.332
MS.322         	17.012         	2.354
MS.323         	16.98          	2.33
MS.324         	16.945         	2.343
MS.325         	16.913         	2.328
MS.326         	16.878         	2.292
MS.327         	16.845         	2.271
MS.328         	16.81          	2.249
MS.329         	16.778         	2.216
MS.330         	16.743         	2.261
MS.331         	16.71          	2.26
MS.332         	16.675         	2.25
MS.333         	16.642         	2.17
MS.334         	16.61          	2.176
MS.335         	16.577         	2.122
MS.336         	16.542         	2.073
MS.337         	16.51          	2.142
MS.338         	16.477         	2.177
MS.339         	16.445         	2.065
MS.340         	16.413         	2.142
MS.341         	16.378         	2.079
MS.342         	16.345         	2.034
MS.343         	16.312         	2.133
MS.344         	16.28          	1.982
MS.345         	16.247         	2.222
MS.346         	16.215         	2.078
MS.347         	16.182         	2.097
MS.348         	16.15          	2.116
MS.349         	16.118         	1.967
MS.350         	16.087         	1.957
MS.351         	16.055         	1.996
MS.352         	16.022         	1.982
MS.353         	15.99          	1.893
MS.354         	15.957         	1.952
MS.355         	15.927         	1.808
MS.356         	15.895         	1.94
MS.357         	15.862         	1.958
MS.358         	15.83          	2.031
MS.359         	15.8           	1.885
MS.360         	15.767         	1.895
MS.361         	15.737         	1.772
MS.362         	15.705         	1.866
MS.363         	15.672         	1.741
MS.364         	15.642         	1.746
MS.365         	15.61          	1.709
MS.366         	15.58          	1.783
MS.367         	15.55          	1.87
MS.368         	15.517         	1.724
MS.369         	15.487         	1.749
MS.370         	15.455         	1.683
MS.371         	15.425         	1.638
MS.372         	15.395         	1.64
MS.373         	15.362         	1.747
MS.374         	15.332         	1.71
MS.375         	15.302         	1.707
MS.376         	15.273         	1.655
MS.377         	15.24          	1.539
MS.378         	15.21          	1.575
MS.379         	15.18          	1.605
MS.380         	15.15          	1.522
MS.381         	15.12          	1.508
MS.382         	15.09          	1.542
MS.383         	15.06          	1.508
MS.384         	15.03          	1.575
MS.385         	15             	1.456
MS.386         	14.97          	1.518
MS.387         	14.94          	1.472
MS.388         	14.91          	1.456
MS.389         	14.88          	1.436
MS.390         	14.85          	1.489
MS.391         	14.82          	1.453
MS.392         	14.79          	1.406
MS.393         	14.76          	1.45
MS.394         	14.733         	1.462
MS.395         	14.702         	1.453
MS.396         	14.672         	1.37
MS.397         	14.642         	1.34
MS.398         	14.615         	1.525
MS.399         	14.585         	1.426
MS.400         	14.555         	1.353
MS.401         	14.527         	1.356
MS.402         	14.497         	1.386
MS.403         	14.467         	1.348
MS.404         	14.44          	1.348
MS.405         	14.41          	1.398
MS.406         	14.382         	1.227
MS.407         	14.352         	1.326
MS.408         	14.325         	1.315
MS.409         	14.295         	1.223
MS.410         	14.267         	1.309
MS.411         	14.24          	1.191
MS.412         	14.21          	1.339
MS.413         	14.182         	1.26
MS.414         	14.155         	1.331
MS.415         	14.125         	1.245
MS.416         	14.097         	1.291
MS.417         	14.07          	1.228
MS.418         	14.04          	1.178
MS.419         	14.012         	1.128
MS.420         	13.985         	1.159
MS.421         	13.957         	1.285
MS.422         	13.93          	1.147
MS.423         	13.903         	1.148
MS.424         	13.872         	1.209
MS.425         	13.845         	1.125
MS.426         	13.818         	1.125
MS.427         	13.79          	1.186
MS.428         	13.762         	1.116
MS.429         	13.735         	1.096
MS.430         	13.707         	1.083
MS.431         	13.68          	1.084
MS.432         	13.653         	1.162
MS.433         	13.625         	1.124
MS.434         	13.6           	1.086
MS.435         	13.572         	1.069
MS.436         	13.545         	1.105
MS.437         	13.517         	1.06
MS.438         	13.49          	1.072
MS.439         	13.462         	0.997
MS.440         	13.438         	1.024
MS.441         	13.41          	1.048
MS.442         	13.382         	1.055
MS.443         	13.355         	1.051
MS.444         	13.33          	1.047
MS.445         	13.302         	1.036
MS.446         	13.278         	1.006
MS.447         	13.25          	1.008
MS.448         	13.222         	0.999
MS.449         	13.197         	0.986
MS.450         	13.17          	1.014
MS.451         	13.145         	1.028
MS.452         	13.117         	0.945
MS.453         	13.092         	0.973
MS.454         	13.065         	1.016
MS.455         	13.04          	0.943
MS.456         	13.012         	0.973
MS.457         	12.987         	0.938
MS.458         	12.962         	0.969
MS.459         	12.935         	0.9
MS.460         	12.91          	0.946
MS.461         	12.885         	0.944
MS.462         	12.858         	0.911
MS.463         	12.832         	0.9
MS.464         	12.807         	0.915
MS.465         	12.782         	0.923
MS.466         	12.755         	0.85
MS.467         	12.73          	0.878
MS.468         	12.705         	0.789
MS.469         	12.68          	0.818
MS.470         	12.655         	0.857
MS.471         	12.63          	0.871
MS.472         	12.602         	0.812
MS.473         	12.577         	0.843
MS.474         	12.552         	0.82
MS.475         	12.528         	0.824
MS.476         	12.502         	0.817
MS.477         	12.477         	0.757
MS.478         	12.452         	0.781
MS.479         	12.427         	0.783
MS.480         	12.403         	0.74
MS.481         	12.38          	0.729
MS.482         	12.355         	0.721
MS.483         	12.33          	0.742
MS.484         	12.305         	0.734
MS.485         	12.28          	0.728
MS.486         	12.255         	0.704
MS.487         	12.23          	0.798
MS.488         	12.207         	0.697
MS.489         	12.182         	0.702
MS.490         	12.157         	0.728
MS.491         	12.132         	0.745
MS.492         	12.11          	0.676
MS.493         	12.085         	0.695
MS.494         	12.06          	0.693
MS.495         	12.037         	0.612
MS.496         	12.012         	0.646
MS.497         	11.99          	0.624
MS.498         	11.965         	0.638
MS.499         	11.94          	0.562
MS.500         	11.917         	0.671
MS.501         	11.892         	0.612
MS.502         	11.87          	0.582
MS.503         	11.845         	0.62
