File:              	C:\Qtrac\Data\ME2C30621A.QZD
Name:              	 RO11A
Protocol:          	MSCAN-MV
Date:              	21/6/23
Date of birth:     	11/8/01
Age:               	21
Sex:               	F
Temperature:       	33.0
S/R sites:         	Knee CF-TA
NC/disease:        	NC
Operator:          	BY
Comments:
M-SCAN DATA (Repeat 4/4, 33.8-28.9m)
Scanpts: 36, 44, 367, 413
Stim. (mA)     	Amp. (mV)
MS.1           	22.5           	3.232
MS.2           	22.5           	3.177
MS.3           	22.5           	3.326
MS.4           	22.5           	3.245
MS.5           	22.5           	3.283
MS.6           	22.5           	3.171
MS.7           	22.5           	3.292
MS.8           	22.5           	3.285
MS.9           	22.5           	3.242
MS.10          	22.5           	3.238
MS.11          	22.5           	3.271
MS.12          	22.5           	3.302
MS.13          	22.5           	3.218
MS.14          	22.5           	3.207
MS.15          	22.5           	3.24
MS.16          	22.5           	3.239
MS.17          	22.5           	3.209
MS.18          	22.5           	3.289
MS.19          	22.5           	3.193
MS.20          	22.5           	3.235
MS.21          	22.5           	3.249
MS.22          	22.5           	3.287
MS.23          	22.5           	3.278
MS.24          	22.455         	3.253
MS.25          	22.41          	3.217
MS.26          	22.365         	3.287
MS.27          	22.32          	3.196
MS.28          	22.275         	3.186
MS.29          	22.233         	3.245
MS.30          	22.188         	3.173
MS.31          	22.142         	3.21
MS.32          	22.097         	3.218
MS.33          	22.055         	3.235
MS.34          	22.01          	3.218
MS.35          	21.967         	3.193
MS.36          	21.922         	3.209
MS.37          	21.877         	3.198
MS.38          	21.835         	3.11
MS.39          	21.792         	3.2
MS.40          	21.747         	3.177
MS.41          	21.705         	3.196
MS.42          	21.66          	3.169
MS.43          	21.618         	3.194
MS.44          	21.575         	3.156
MS.45          	21.532         	3.178
MS.46          	21.487         	3.121
MS.47          	21.445         	3.122
MS.48          	21.403         	3.207
MS.49          	21.36          	3.094
MS.50          	21.317         	3.051
MS.51          	21.275         	3.087
MS.52          	21.233         	3.002
MS.53          	21.19          	3.018
MS.54          	21.147         	3.021
MS.55          	21.105         	3.085
MS.56          	21.062         	2.939
MS.57          	21.02          	2.979
MS.58          	20.98          	3.014
MS.59          	20.938         	2.979
MS.60          	20.895         	2.968
MS.61          	20.852         	2.95
MS.62          	20.812         	2.984
MS.63          	20.77          	2.977
MS.64          	20.727         	2.977
MS.65          	20.688         	2.945
MS.66          	20.645         	2.986
MS.67          	20.605         	2.902
MS.68          	20.562         	2.972
MS.69          	20.522         	2.955
MS.70          	20.483         	2.932
MS.71          	20.44          	2.84
MS.72          	20.4           	2.911
MS.73          	20.36          	2.897
MS.74          	20.317         	2.766
MS.75          	20.278         	2.8
MS.76          	20.237         	2.798
MS.77          	20.198         	2.874
MS.78          	20.157         	2.726
MS.79          	20.115         	2.796
MS.80          	20.075         	2.709
MS.81          	20.035         	2.629
MS.82          	19.995         	2.799
MS.83          	19.955         	2.745
MS.84          	19.915         	2.754
MS.85          	19.875         	2.641
MS.86          	19.837         	2.567
MS.87          	19.797         	2.694
MS.88          	19.757         	2.627
MS.89          	19.717         	2.64
MS.90          	19.677         	2.52
MS.91          	19.64          	2.483
MS.92          	19.6           	2.491
MS.93          	19.56          	2.464
MS.94          	19.522         	2.364
MS.95          	19.483         	2.446
MS.96          	19.442         	2.291
MS.97          	19.405         	2.513
MS.98          	19.365         	2.494
MS.99          	19.327         	2.476
MS.100         	19.288         	2.44
MS.101         	19.25          	2.315
MS.102         	19.212         	2.327
MS.103         	19.172         	2.405
MS.104         	19.135         	2.255
MS.105         	19.097         	2.309
MS.106         	19.057         	2.285
MS.107         	19.02          	2.267
MS.108         	18.983         	2.212
MS.109         	18.945         	2.209
MS.110         	18.907         	2.098
MS.111         	18.87          	2.26
MS.112         	18.83          	2.145
MS.113         	18.792         	2.166
MS.114         	18.755         	2.091
MS.115         	18.717         	2.068
MS.116         	18.68          	2.25
MS.117         	18.645         	2.183
MS.118         	18.608         	2.144
MS.119         	18.57          	2.199
MS.120         	18.532         	2.073
MS.121         	18.495         	2.016
MS.122         	18.458         	2.07
MS.123         	18.422         	1.981
MS.124         	18.385         	1.998
MS.125         	18.347         	1.904
MS.126         	18.312         	2.064
MS.127         	18.275         	1.927
MS.128         	18.237         	1.926
MS.129         	18.202         	2.009
MS.130         	18.165         	1.852
MS.131         	18.13          	1.995
MS.132         	18.092         	1.869
MS.133         	18.057         	1.742
MS.134         	18.02          	1.862
MS.135         	17.985         	1.83
MS.136         	17.948         	1.81
MS.137         	17.913         	1.812
MS.138         	17.878         	1.685
MS.139         	17.842         	1.741
MS.140         	17.805         	1.712
MS.141         	17.77          	1.621
MS.142         	17.735         	1.71
MS.143         	17.7           	1.599
MS.144         	17.665         	1.672
MS.145         	17.628         	1.565
MS.146         	17.592         	1.622
MS.147         	17.557         	1.443
MS.148         	17.522         	1.613
MS.149         	17.487         	1.512
MS.150         	17.452         	1.507
MS.151         	17.417         	1.473
MS.152         	17.382         	1.443
MS.153         	17.347         	1.505
MS.154         	17.315         	1.591
MS.155         	17.28          	1.459
MS.156         	17.245         	1.396
MS.157         	17.21          	1.368
MS.158         	17.175         	1.379
MS.159         	17.142         	1.368
MS.160         	17.108         	1.342
MS.161         	17.073         	1.298
MS.162         	17.04          	1.437
MS.163         	17.005         	1.248
MS.164         	16.97          	1.152
MS.165         	16.938         	1.283
MS.166         	16.903         	1.16
MS.167         	16.87          	1.153
MS.168         	16.835         	1.158
MS.169         	16.802         	1.143
MS.170         	16.767         	0.983
MS.171         	16.735         	1.04
MS.172         	16.702         	1.267
MS.173         	16.667         	1.105
MS.174         	16.635         	1.045
MS.175         	16.602         	1.064
MS.176         	16.567         	0.987
MS.177         	16.535         	1.123
MS.178         	16.503         	1.012
MS.179         	16.47          	1.079
MS.180         	16.438         	0.97
MS.181         	16.405         	0.974
MS.182         	16.37          	1.049
MS.183         	16.337         	1.057
MS.184         	16.305         	0.983
MS.185         	16.272         	0.912
MS.186         	16.24          	0.918
MS.187         	16.208         	0.936
MS.188         	16.175         	0.84
MS.189         	16.142         	0.832
MS.190         	16.11          	0.859
MS.191         	16.08          	0.843
MS.192         	16.047         	0.833
MS.193         	16.015         	0.841
MS.194         	15.983         	0.764
MS.195         	15.95          	0.774
MS.196         	15.92          	0.786
MS.197         	15.887         	0.779
MS.198         	15.855         	0.776
MS.199         	15.825         	0.698
MS.200         	15.792         	0.703
MS.201         	15.76          	0.71
MS.202         	15.73          	0.634
MS.203         	15.697         	0.599
MS.204         	15.667         	0.541
MS.205         	15.635         	0.492
MS.206         	15.605         	0.624
MS.207         	15.572         	0.492
MS.208         	15.542         	0.573
MS.209         	15.51          	0.567
MS.210         	15.48          	0.412
MS.211         	15.447         	0.48
MS.212         	15.417         	0.386
MS.213         	15.387         	0.446
MS.214         	15.355         	0.35
MS.215         	15.325         	0.32
MS.216         	15.295         	0.295
MS.217         	15.265         	0.372
MS.218         	15.235         	0.286
MS.219         	15.202         	0.274
MS.220         	15.172         	0.311
MS.221         	15.142         	0.262
MS.222         	15.112         	0.393
MS.223         	15.082         	0.307
MS.224         	15.052         	0.338
MS.225         	15.023         	0.244
MS.226         	14.992         	0.153
MS.227         	14.962         	0.203
MS.228         	14.932         	0.151
MS.229         	14.902         	0.22
MS.230         	14.872         	0.054
MS.231         	14.842         	0.099
MS.232         	14.812         	0.084
MS.233         	14.782         	0.054
MS.234         	14.755         	0.046
MS.235         	14.725         	0.013
MS.236         	14.695         	0.048
MS.237         	14.665         	-0.031
MS.238         	14.637         	-0.04
MS.239         	14.608         	-0.052
MS.240         	14.577         	-0.032
MS.241         	14.55          	-0.027
MS.242         	14.52          	-0.03
MS.243         	14.49          	-0.067
MS.244         	14.462         	-0.065
MS.245         	14.432         	-0.101
MS.246         	14.405         	-0.085
MS.247         	14.375         	-0.095
MS.248         	14.347         	-0.13
MS.249         	14.318         	-0.184
MS.250         	14.29          	-0.12
MS.251         	14.26          	-0.146
MS.252         	14.233         	-0.092
MS.253         	14.205         	-0.136
MS.254         	14.175         	-0.15
MS.255         	14.148         	-0.195
MS.256         	14.12          	-0.135
MS.257         	14.09          	-0.21
MS.258         	14.062         	-0.212
MS.259         	14.035         	-0.173
MS.260         	14.007         	-0.259
MS.261         	13.977         	-0.204
MS.262         	13.95          	-0.285
MS.263         	13.922         	-0.297
MS.264         	13.895         	-0.241
MS.265         	13.867         	-0.289
MS.266         	13.84          	-0.305
MS.267         	13.812         	-0.279
MS.268         	13.785         	-0.37
MS.269         	13.757         	-0.253
MS.270         	13.73          	-0.317
MS.271         	13.702         	-0.333
MS.272         	13.675         	-0.383
MS.273         	13.648         	-0.396
MS.274         	13.62          	-0.398
MS.275         	13.592         	-0.472
MS.276         	13.565         	-0.424
MS.277         	13.537         	-0.45
MS.278         	13.51          	-0.414
MS.279         	13.485         	-0.433
MS.280         	13.457         	-0.477
MS.281         	13.43          	-0.475
MS.282         	13.403         	-0.496
MS.283         	13.377         	-0.526
MS.284         	13.35          	-0.513
MS.285         	13.322         	-0.427
MS.286         	13.297         	-0.504
MS.287         	13.27          	-0.511
MS.288         	13.242         	-0.58
MS.289         	13.217         	-0.479
MS.290         	13.19          	-0.519
MS.291         	13.165         	-0.56
MS.292         	13.137         	-0.583
MS.293         	13.112         	-0.624
MS.294         	13.085         	-0.565
MS.295         	13.06          	-0.625
MS.296         	13.032         	-0.604
MS.297         	13.007         	-0.657
MS.298         	12.983         	-0.627
MS.299         	12.955         	-0.654
MS.300         	12.93          	-0.61
MS.301         	12.903         	-0.637
MS.302         	12.877         	-0.696
MS.303         	12.852         	-0.668
MS.304         	12.827         	-0.629
MS.305         	12.8           	-0.68
MS.306         	12.775         	-0.737
MS.307         	12.75          	-0.695
MS.308         	12.725         	-0.679
MS.309         	12.7           	-0.731
MS.310         	12.672         	-0.721
MS.311         	12.648         	-0.725
MS.312         	12.622         	-0.75
MS.313         	12.597         	-0.774
MS.314         	12.572         	-0.769
MS.315         	12.547         	-0.793
MS.316         	12.523         	-0.872
MS.317         	12.497         	-0.777
MS.318         	12.472         	-0.831
MS.319         	12.447         	-0.851
MS.320         	12.422         	-0.87
MS.321         	12.398         	-0.852
MS.322         	12.372         	-0.867
MS.323         	12.347         	-0.848
MS.324         	12.322         	-0.858
MS.325         	12.3           	-0.872
MS.326         	12.275         	-0.889
MS.327         	12.25          	-0.861
MS.328         	12.225         	-0.807
MS.329         	12.2           	-0.85
MS.330         	12.177         	-0.839
MS.331         	12.153         	-0.903
MS.332         	12.127         	-0.884
MS.333         	12.102         	-0.919
MS.334         	12.08          	-0.908
MS.335         	12.055         	-0.929
MS.336         	12.032         	-0.948
MS.337         	12.007         	-0.926
MS.338         	11.983         	-0.959
MS.339         	11.96          	-0.92
MS.340         	11.935         	-0.957
MS.341         	11.912         	-0.979
MS.342         	11.887         	-0.913
MS.343         	11.865         	-0.965
MS.344         	11.84          	-0.933
MS.345         	11.818         	-0.957
MS.346         	11.792         	-0.944
MS.347         	11.77          	-0.956
MS.348         	11.745         	-0.912
MS.349         	11.722         	-0.928
MS.350         	11.7           	-0.953
MS.351         	11.675         	-0.955
MS.352         	11.653         	-1.021
MS.353         	11.63          	-0.972
MS.354         	11.605         	-0.999
MS.355         	11.582         	-0.949
MS.356         	11.56          	-0.992
MS.357         	11.537         	-0.969
MS.358         	11.512         	-0.975
MS.359         	11.49          	-0.995
MS.360         	11.467         	-0.984
MS.361         	11.445         	-1.008
MS.362         	11.422         	-0.981
MS.363         	11.4           	-1.028
MS.364         	11.375         	-1.008
MS.365         	11.352         	-0.988
MS.366         	11.33          	-1.014
MS.367         	11.307         	-0.979
MS.368         	11.285         	-1.031
MS.369         	11.262         	-1.006
MS.370         	11.24          	-1.031
MS.371         	11.217         	-1.027
MS.372         	11.195         	-1.022
MS.373         	11.172         	-1.001
MS.374         	11.15          	-1.044
MS.375         	11.127         	-1.019
MS.376         	11.108         	-1.015
MS.377         	11.085         	-1.033
MS.378         	11.062         	-1.022
MS.379         	11.04          	-1.041
MS.380         	11.017         	-0.991
MS.381         	10.995         	-1.031
MS.382         	10.975         	-1.048
MS.383         	10.952         	-1.028
MS.384         	10.93          	-1.029
MS.385         	10.907         	-0.993
MS.386         	10.887         	-0.994
MS.387         	10.865         	-1.046
MS.388         	10.842         	-1.017
MS.389         	10.823         	-1.038
MS.390         	10.8           	-1.03
MS.391         	10.778         	-1.053
MS.392         	10.757         	-1.078
MS.393         	10.735         	-1.042
MS.394         	10.712         	-1.055
MS.395         	10.693         	-1.028
MS.396         	10.67          	-1.048
MS.397         	10.65          	-1.031
MS.398         	10.627         	-1.041
MS.399         	10.608         	-1.03
MS.400         	10.585         	-1.049
MS.401         	10.565         	-1.035
MS.402         	10.542         	-1.028
MS.403         	10.523         	-1.006
MS.404         	10.502         	-0.989
MS.405         	10.48          	-1.034
MS.406         	10.46          	-1.045
MS.407         	10.438         	-1.036
MS.408         	10.417         	-1.034
MS.409         	10.398         	-1.038
MS.410         	10.375         	-1.016
MS.411         	10.355         	-1.023
MS.412         	10.335         	-1
MS.413         	10.315         	-1.055
DERIVED EXCITABILITY VARIABLES
Program = QTracP 05/05/2023
Threshold method = 6 (optimised for CAP, using data for present condition only)
SR method = 1 (using actual data values)
6.                 	0.000               	Peak response\(mV)
9.                 	33                  	Temperature ( C)
17.                	21                  	Age (years)
18.                	2                   	Sex (M=1, F=2)

EXTRA VARIABLES

MScPeak(mV) = 4.28
MScS5(mA) = 14.94
MScS50(mA) = 18.77
MScNSteps = 1
MScSteps(%) = 2
MScStepMax(%) = 2
MScD50 = 59
MScSlope = 3.24
MScDuration(min) = 5.5
MSFTraces = 378
MSFPeakAmp(mV) = 4.21
MSFNUnits = 134
MSFMeanUnitAmp(uV) = 31.4
MSFHuntTime(m) = 1.36
MSFError(%) = 1.27
MSFNLarge = 43.47
MSFMedianAmp(%) = 0.656
MSFMedianAmp(mV) = 0.0276
MSFHalfAmpAmp(%) = 0.765
MSFHalfAmpAmp(mV) = 0.0322
MSFLargestAmp(%) = 2.06
MSFLargestAmp(mV) = 0.0867
MSFMeanRS(%) = 2
MSFSizeLimit(uV) = 14
MSFLimitType = 1
MSFSmallestAmp(uV) = 14.2
MSFOpts = 10104222032
MSFSDMax = 30.8
MSFSDMin = 20

EXTRA WAVEFORMS


!MScan Model
!134
	1	11.35	0.51	2
	2	11.58	0.65	2
	3	11.94	0.97	2
	4	12.05	0.78	2
	5	12.32	1.17	2
	6	12.43	0.56	2
	7	12.52	0.71	2
	8	12.58	0.67	2
	9	12.65	0.66	2
	10	12.69	0.44	2
	11	12.75	0.57	2
	12	12.8	0.39	2
	13	12.88	0.7	2
	14	12.99	0.76	2
	15	13.04	0.44	2
	16	13.09	0.48	2
	17	13.15	0.44	2
	18	13.21	0.59	2
	19	13.28	0.63	2
	20	13.35	0.58	2
	21	13.42	0.44	2
	22	13.5	0.69	2
	23	13.53	0.34	2
	24	13.57	0.36	2
	25	13.6	0.41	2
	26	13.64	0.69	2
	27	13.73	0.63	2
	28	13.78	0.49	2
	29	13.83	0.72	2
	30	13.9	0.69	2
	31	13.96	0.5	2
	32	13.99	0.34	2
	33	14.03	0.48	2
	34	14.15	0.83	2
	35	14.2	0.42	2
	36	14.25	0.52	2
	37	14.3	0.4	2
	38	14.37	0.5	2
	39	14.43	0.41	2
	40	14.51	0.6	2
	41	14.56	0.54	2
	42	14.61	0.41	2
	43	14.65	0.54	2
	44	14.7	0.62	2
	45	14.75	0.65	2
	46	14.78	0.37	2
	47	14.83	0.74	2
	48	14.86	0.5	2
	49	14.89	0.63	2
	50	14.98	1.08	2
	51	15.03	0.76	2
	52	15.14	1.58	2
	53	15.23	0.86	2
	54	15.28	0.67	2
	55	15.34	0.81	2
	56	15.38	0.66	2
	57	15.46	0.8	2
	58	15.5	0.71	2
	59	15.53	0.54	2
	60	15.56	0.49	2
	61	15.59	0.59	2
	62	15.62	0.56	2
	63	15.65	0.52	2
	64	15.68	0.46	2
	65	15.7	0.4	2
	66	15.77	0.69	2
	67	15.79	0.45	2
	68	15.81	0.35	2
	69	15.84	0.41	2
	70	15.87	0.45	2
	71	15.9	0.47	2
	72	15.92	0.53	2
	73	15.98	0.63	2
	74	16.01	0.51	2
	75	16.08	0.74	2
	76	16.11	0.38	2
	77	16.14	0.4	2
	78	16.19	0.69	2
	79	16.25	0.36	2
	80	16.3	0.67	2
	81	16.47	1.88	2
	82	16.71	1.71	2
	83	16.83	1.67	2
	84	16.92	1.03	2
	85	16.99	1.06	2
	86	17.04	0.72	2
	87	17.09	0.85	2
	88	17.14	0.75	2
	89	17.27	1.99	2
	90	17.38	1.03	2
	91	17.47	1.1	2
	92	17.52	0.51	2
	93	17.55	0.55	2
	94	17.63	0.65	2
	95	17.66	0.53	2
	96	17.71	0.61	2
	97	17.79	0.99	2
	98	17.83	0.69	2
	99	17.87	0.71	2
	100	17.92	0.7	2
	101	17.96	0.58	2
	102	18.01	0.66	2
	103	18.1	1.27	2
	104	18.21	1.05	2
	105	18.28	0.86	2
	106	18.36	1.33	2
	107	18.46	1.33	2
	108	18.57	0.49	2
	109	18.78	1.86	2
	110	18.91	1.14	2
	111	19.02	0.92	2
	112	19.12	1.2	2
	113	19.33	2.06	2
	114	19.47	1.54	2
	115	19.57	1.03	2
	116	19.64	0.5	2
	117	19.72	1.14	2
	118	19.79	1	2
	119	19.86	0.88	2
	120	19.94	0.97	2
	121	20.07	1.38	2
	122	20.17	0.83	2
	123	20.25	0.77	2
	124	20.33	0.82	2
	125	20.44	0.91	2
