File:              	C:\Qtrac\Data\ME2C30619A.QZD
Name:              	 ME18D
Protocol:          	MSCAN-MV
Date:              	19/6/23
Date of birth:     	18/11/01
Age:               	21
Sex:               	M
Temperature:       	32.7
S/R sites:         	Knee CF-TA
NC/disease:        	NC
Operator:          	BY
Comments:
M-SCAN DATA (Repeat 2/3, 20.3-12.9m)
Scanpts: 2, 61, 564, 598
Stim. (mA)     	Amp. (mV)
MS.1           	6              	4.043
MS.2           	6              	4.036
MS.3           	6              	4.044
MS.4           	6              	4.036
MS.5           	6              	4.032
MS.6           	6              	4.029
MS.7           	6              	4.026
MS.8           	6              	4.024
MS.9           	6              	4.032
MS.10          	6              	4.028
MS.11          	6              	4.031
MS.12          	6              	4.03
MS.13          	6              	4.039
MS.14          	6              	4.027
MS.15          	6              	4.028
MS.16          	6              	4.025
MS.17          	6              	4.024
MS.18          	6              	4.025
MS.19          	6              	4.03
MS.20          	6              	4.028
MS.21          	6              	4.027
MS.22          	6              	4.027
MS.23          	6              	4.014
MS.24          	5.987          	4.025
MS.25          	5.975          	4.026
MS.26          	5.965          	4.022
MS.27          	5.952          	4.028
MS.28          	5.94           	4.025
MS.29          	5.927          	4.026
MS.30          	5.918          	4.026
MS.31          	5.905          	4.017
MS.32          	5.892          	4.02
MS.33          	5.88           	4.028
MS.34          	5.87           	4.024
MS.35          	5.858          	4.026
MS.36          	5.845          	4.025
MS.37          	5.835          	4.023
MS.38          	5.822          	4.018
MS.39          	5.81           	4.03
MS.40          	5.8            	4.029
MS.41          	5.787          	4.023
MS.42          	5.777          	4.026
MS.43          	5.765          	4.025
MS.44          	5.753          	4.03
MS.45          	5.742          	4.016
MS.46          	5.73           	4.014
MS.47          	5.72           	4.021
MS.48          	5.707          	4.02
MS.49          	5.695          	4.025
MS.50          	5.685          	4.024
MS.51          	5.672          	4.017
MS.52          	5.662          	4.015
MS.53          	5.65           	4.014
MS.54          	5.64           	4.021
MS.55          	5.628          	4.023
MS.56          	5.617          	4.023
MS.57          	5.605          	4.022
MS.58          	5.595          	4.022
MS.59          	5.582          	4.02
MS.60          	5.572          	4.025
MS.61          	5.56           	4.02
MS.62          	5.55           	4.02
MS.63          	5.537          	4.028
MS.64          	5.527          	4.022
MS.65          	5.517          	4.018
MS.66          	5.505          	4.011
MS.67          	5.495          	4.016
MS.68          	5.483          	4.018
MS.69          	5.472          	4.022
MS.70          	5.463          	4.008
MS.71          	5.45           	4.019
MS.72          	5.44           	4.015
MS.73          	5.43           	4.017
MS.74          	5.418          	4.019
MS.75          	5.407          	4.012
MS.76          	5.398          	4.02
MS.77          	5.385          	4.003
MS.78          	5.375          	4.014
MS.79          	5.365          	3.999
MS.80          	5.352          	4.006
MS.81          	5.342          	4.009
MS.82          	5.332          	4.008
MS.83          	5.322          	4.01
MS.84          	5.31           	3.997
MS.85          	5.3            	3.997
MS.86          	5.29           	4.003
MS.87          	5.28           	4.003
MS.88          	5.267          	4.006
MS.89          	5.257          	3.993
MS.90          	5.247          	3.992
MS.91          	5.237          	3.996
MS.92          	5.227          	3.997
MS.93          	5.215          	3.997
MS.94          	5.205          	4.001
MS.95          	5.195          	3.993
MS.96          	5.185          	3.994
MS.97          	5.175          	3.996
MS.98          	5.165          	3.992
MS.99          	5.155          	4
MS.100         	5.142          	3.996
MS.101         	5.132          	3.99
MS.102         	5.122          	3.992
MS.103         	5.112          	3.991
MS.104         	5.102          	3.981
MS.105         	5.092          	3.987
MS.106         	5.082          	3.99
MS.107         	5.072          	3.98
MS.108         	5.062          	3.972
MS.109         	5.052          	3.984
MS.110         	5.043          	3.995
MS.111         	5.032          	3.977
MS.112         	5.023          	3.967
MS.113         	5.012          	3.976
MS.114         	5.003          	3.972
MS.115         	4.992          	3.965
MS.116         	4.983          	3.973
MS.117         	4.972          	3.967
MS.118         	4.963          	3.951
MS.119         	4.952          	3.964
MS.120         	4.943          	3.959
MS.121         	4.932          	3.97
MS.122         	4.922          	3.97
MS.123         	4.912          	3.956
MS.124         	4.902          	3.959
MS.125         	4.892          	3.956
MS.126         	4.882          	3.954
MS.127         	4.872          	3.95
MS.128         	4.862          	3.95
MS.129         	4.855          	3.958
MS.130         	4.845          	3.953
MS.131         	4.835          	3.976
MS.132         	4.825          	3.916
MS.133         	4.815          	3.965
MS.134         	4.805          	3.9
MS.135         	4.795          	3.96
MS.136         	4.787          	3.955
MS.137         	4.777          	3.956
MS.138         	4.767          	3.956
MS.139         	4.757          	3.945
MS.140         	4.747          	3.941
MS.141         	4.737          	3.938
MS.142         	4.73           	3.94
MS.143         	4.72           	3.912
MS.144         	4.71           	3.895
MS.145         	4.7            	3.943
MS.146         	4.693          	3.937
MS.147         	4.682          	3.863
MS.148         	4.673          	3.926
MS.149         	4.662          	3.882
MS.150         	4.655          	3.881
MS.151         	4.645          	3.912
MS.152         	4.635          	3.88
MS.153         	4.628          	3.915
MS.154         	4.617          	3.908
MS.155         	4.608          	3.848
MS.156         	4.597          	3.866
MS.157         	4.59           	3.821
MS.158         	4.58           	3.88
MS.159         	4.57           	3.793
MS.160         	4.562          	3.785
MS.161         	4.552          	3.867
MS.162         	4.545          	3.859
MS.163         	4.535          	3.816
MS.164         	4.525          	3.807
MS.165         	4.517          	3.83
MS.166         	4.507          	3.824
MS.167         	4.497          	3.805
MS.168         	4.49           	3.781
MS.169         	4.48           	3.76
MS.170         	4.472          	3.751
MS.171         	4.463          	3.817
MS.172         	4.455          	3.717
MS.173         	4.445          	3.796
MS.174         	4.435          	3.845
MS.175         	4.427          	3.743
MS.176         	4.418          	3.713
MS.177         	4.41           	3.749
MS.178         	4.4            	3.704
MS.179         	4.392          	3.713
MS.180         	4.382          	3.702
MS.181         	4.375          	3.714
MS.182         	4.365          	3.708
MS.183         	4.358          	3.712
MS.184         	4.347          	3.711
MS.185         	4.34           	3.682
MS.186         	4.33           	3.642
MS.187         	4.322          	3.682
MS.188         	4.312          	3.661
MS.189         	4.305          	3.653
MS.190         	4.298          	3.63
MS.191         	4.287          	3.625
MS.192         	4.28           	3.682
MS.193         	4.27           	3.676
MS.194         	4.262          	3.625
MS.195         	4.253          	3.617
MS.196         	4.245          	3.541
MS.197         	4.237          	3.58
MS.198         	4.227          	3.564
MS.199         	4.22           	3.524
MS.200         	4.213          	3.607
MS.201         	4.202          	3.511
MS.202         	4.195          	3.607
MS.203         	4.185          	3.548
MS.204         	4.177          	3.513
MS.205         	4.17           	3.495
MS.206         	4.16           	3.502
MS.207         	4.152          	3.519
MS.208         	4.145          	3.505
MS.209         	4.135          	3.539
MS.210         	4.128          	3.45
MS.211         	4.12           	3.502
MS.212         	4.112          	3.434
MS.213         	4.102          	3.449
MS.214         	4.095          	3.361
MS.215         	4.088          	3.365
MS.216         	4.077          	3.375
MS.217         	4.07           	3.405
MS.218         	4.062          	3.45
MS.219         	4.055          	3.3
MS.220         	4.045          	3.395
MS.221         	4.037          	3.355
MS.222         	4.03           	3.408
MS.223         	4.023          	3.335
MS.224         	4.015          	3.274
MS.225         	4.005          	3.21
MS.226         	3.997          	3.2
MS.227         	3.99           	3.215
MS.228         	3.982          	3.224
MS.229         	3.975          	3.173
MS.230         	3.965          	3.145
MS.231         	3.957          	3.212
MS.232         	3.95           	3.154
MS.233         	3.942          	3.254
MS.234         	3.935          	3.224
MS.235         	3.928          	3.17
MS.236         	3.918          	3.082
MS.237         	3.91           	3.065
MS.238         	3.902          	3.133
MS.239         	3.895          	2.932
MS.240         	3.887          	3.067
MS.241         	3.88           	3.049
MS.242         	3.872          	3.015
MS.243         	3.865          	2.883
MS.244         	3.857          	2.966
MS.245         	3.85           	2.928
MS.246         	3.84           	3.005
MS.247         	3.832          	2.908
MS.248         	3.825          	2.922
MS.249         	3.817          	2.868
MS.250         	3.81           	2.834
MS.251         	3.803          	2.833
MS.252         	3.795          	2.892
MS.253         	3.787          	2.851
MS.254         	3.78           	2.753
MS.255         	3.772          	2.802
MS.256         	3.765          	2.717
MS.257         	3.757          	2.62
MS.258         	3.75           	2.686
MS.259         	3.742          	2.69
MS.260         	3.735          	2.715
MS.261         	3.727          	2.662
MS.262         	3.72           	2.66
MS.263         	3.712          	2.534
MS.264         	3.705          	2.484
MS.265         	3.697          	2.559
MS.266         	3.69           	2.554
MS.267         	3.682          	2.535
MS.268         	3.675          	2.527
MS.269         	3.668          	2.586
MS.270         	3.66           	2.46
MS.271         	3.655          	2.386
MS.272         	3.647          	2.366
MS.273         	3.64           	2.399
MS.274         	3.632          	2.365
MS.275         	3.625          	2.458
MS.276         	3.617          	2.413
MS.277         	3.61           	2.24
MS.278         	3.602          	2.314
MS.279         	3.595          	2.275
MS.280         	3.587          	2.297
MS.281         	3.582          	2.346
MS.282         	3.575          	2.195
MS.283         	3.567          	2.175
MS.284         	3.56           	2.142
MS.285         	3.553          	2.17
MS.286         	3.545          	2.188
MS.287         	3.537          	2.231
MS.288         	3.533          	2.235
MS.289         	3.525          	2.03
MS.290         	3.517          	2.197
MS.291         	3.51           	2.078
MS.292         	3.502          	2.076
MS.293         	3.497          	2.136
MS.294         	3.49           	2
MS.295         	3.482          	2.084
MS.296         	3.475          	2.024
MS.297         	3.467          	2
MS.298         	3.462          	1.957
MS.299         	3.455          	1.886
MS.300         	3.447          	2.066
MS.301         	3.44           	1.907
MS.302         	3.435          	1.929
MS.303         	3.428          	1.933
MS.304         	3.42           	1.828
MS.305         	3.412          	1.899
MS.306         	3.408          	1.856
MS.307         	3.4            	1.833
MS.308         	3.392          	1.89
MS.309         	3.387          	1.797
MS.310         	3.38           	1.776
MS.311         	3.372          	1.778
MS.312         	3.365          	1.793
MS.313         	3.36           	1.853
MS.314         	3.352          	1.774
MS.315         	3.345          	1.819
MS.316         	3.34           	1.746
MS.317         	3.332          	1.723
MS.318         	3.325          	1.715
MS.319         	3.32           	1.75
MS.320         	3.312          	1.66
MS.321         	3.305          	1.691
MS.322         	3.3            	1.755
MS.323         	3.293          	1.774
MS.324         	3.287          	1.641
MS.325         	3.28           	1.693
MS.326         	3.273          	1.655
MS.327         	3.267          	1.649
MS.328         	3.26           	1.705
MS.329         	3.252          	1.589
MS.330         	3.247          	1.58
MS.331         	3.24           	1.588
MS.332         	3.235          	1.56
MS.333         	3.227          	1.588
MS.334         	3.22           	1.543
MS.335         	3.215          	1.554
MS.336         	3.207          	1.495
MS.337         	3.202          	1.548
MS.338         	3.195          	1.568
MS.339         	3.19           	1.534
MS.340         	3.182          	1.473
MS.341         	3.178          	1.442
MS.342         	3.17           	1.485
MS.343         	3.165          	1.47
MS.344         	3.158          	1.389
MS.345         	3.15           	1.424
MS.346         	3.145          	1.442
MS.347         	3.138          	1.399
MS.348         	3.132          	1.422
MS.349         	3.125          	1.387
MS.350         	3.12           	1.29
MS.351         	3.112          	1.302
MS.352         	3.107          	1.251
MS.353         	3.1            	1.348
MS.354         	3.095          	1.254
MS.355         	3.087          	1.264
MS.356         	3.082          	1.257
MS.357         	3.077          	1.147
MS.358         	3.07           	1.18
MS.359         	3.065          	1.161
MS.360         	3.057          	1.089
MS.361         	3.053          	1.03
MS.362         	3.045          	1.074
MS.363         	3.04           	1.152
MS.364         	3.033          	1.11
MS.365         	3.027          	1.03
MS.366         	3.023          	1.014
MS.367         	3.015          	0.966
MS.368         	3.01           	0.936
MS.369         	3.002          	1.003
MS.370         	2.997          	0.952
MS.371         	2.992          	0.923
MS.372         	2.985          	0.962
MS.373         	2.98           	0.859
MS.374         	2.972          	0.901
MS.375         	2.967          	0.948
MS.376         	2.962          	0.86
MS.377         	2.955          	0.818
MS.378         	2.95           	0.884
MS.379         	2.945          	0.828
MS.380         	2.938          	0.876
MS.381         	2.932          	0.732
MS.382         	2.928          	0.761
MS.383         	2.92           	0.763
MS.384         	2.915          	0.785
MS.385         	2.91           	0.823
MS.386         	2.902          	0.728
MS.387         	2.898          	0.757
MS.388         	2.892          	0.704
MS.389         	2.885          	0.704
MS.390         	2.88           	0.714
MS.391         	2.875          	0.693
MS.392         	2.867          	0.574
MS.393         	2.862          	0.683
MS.394         	2.857          	0.67
MS.395         	2.852          	0.665
MS.396         	2.845          	0.626
MS.397         	2.84           	0.622
MS.398         	2.835          	0.649
MS.399         	2.827          	0.615
MS.400         	2.822          	0.623
MS.401         	2.817          	0.662
MS.402         	2.812          	0.604
MS.403         	2.805          	0.591
MS.404         	2.8            	0.592
MS.405         	2.795          	0.505
MS.406         	2.79           	0.522
MS.407         	2.783          	0.667
MS.408         	2.777          	0.542
MS.409         	2.773          	0.526
MS.410         	2.767          	0.49
MS.411         	2.763          	0.436
MS.412         	2.755          	0.488
MS.413         	2.75           	0.425
MS.414         	2.745          	0.552
MS.415         	2.74           	0.504
MS.416         	2.735          	0.469
MS.417         	2.727          	0.532
MS.418         	2.722          	0.426
MS.419         	2.717          	0.379
MS.420         	2.712          	0.355
MS.421         	2.707          	0.372
MS.422         	2.702          	0.449
MS.423         	2.695          	0.365
MS.424         	2.69           	0.366
MS.425         	2.685          	0.408
MS.426         	2.68           	0.353
MS.427         	2.675          	0.279
MS.428         	2.67           	0.345
MS.429         	2.665          	0.304
MS.430         	2.658          	0.27
MS.431         	2.652          	0.324
MS.432         	2.648          	0.231
MS.433         	2.642          	0.306
MS.434         	2.638          	0.276
MS.435         	2.632          	0.22
MS.436         	2.628          	0.281
MS.437         	2.622          	0.277
MS.438         	2.617          	0.247
MS.439         	2.61           	0.254
MS.440         	2.605          	0.303
MS.441         	2.6            	0.178
MS.442         	2.595          	0.186
MS.443         	2.59           	0.216
MS.444         	2.585          	0.201
MS.445         	2.58           	0.172
MS.446         	2.575          	0.219
MS.447         	2.57           	0.105
MS.448         	2.565          	0.15
MS.449         	2.56           	0.185
MS.450         	2.555          	0.125
MS.451         	2.55           	0.192
MS.452         	2.545          	0.125
MS.453         	2.54           	0.13
MS.454         	2.535          	0.112
MS.455         	2.53           	0.163
MS.456         	2.525          	0.194
MS.457         	2.517          	0.103
MS.458         	2.513          	0.09
MS.459         	2.507          	0.134
MS.460         	2.503          	0.112
MS.461         	2.497          	0.088
MS.462         	2.492          	0.117
MS.463         	2.487          	0.099
MS.464         	2.482          	0.099
MS.465         	2.48           	0.085
MS.466         	2.475          	0.064
MS.467         	2.47           	0.06
MS.468         	2.465          	0.06
MS.469         	2.46           	0.063
MS.470         	2.455          	0.052
MS.471         	2.45           	0.073
MS.472         	2.445          	0.038
MS.473         	2.44           	0.057
MS.474         	2.435          	0.053
MS.475         	2.43           	0.045
MS.476         	2.425          	0.039
MS.477         	2.42           	0.035
MS.478         	2.415          	0.033
MS.479         	2.41           	0.032
MS.480         	2.405          	0.031
MS.481         	2.4            	0.035
MS.482         	2.395          	0.036
MS.483         	2.39           	0.019
MS.484         	2.388          	0.029
MS.485         	2.382          	0.027
MS.486         	2.378          	0.021
MS.487         	2.372          	0.029
MS.488         	2.367          	0.011
MS.489         	2.362          	0.033
MS.490         	2.357          	0.035
MS.491         	2.352          	0.026
MS.492         	2.347          	0.02
MS.493         	2.345          	0.006
MS.494         	2.34           	0.021
MS.495         	2.335          	0.016
MS.496         	2.33           	0.01
MS.497         	2.325          	0.024
MS.498         	2.32           	0.024
MS.499         	2.315          	0.008
MS.500         	2.31           	0.009
MS.501         	2.307          	0.001
MS.502         	2.303          	-0.004
MS.503         	2.297          	0.001
