File:              	C:\Qtrac\Data\ME2C30626A.QZD
Name:              	 HU17A
Protocol:          	MSCAN-MV
Date:              	26/6/23
Date of birth:     	17/9/88
Age:               	34
Sex:               	F
Temperature:       	32.4
S/R sites:         	Knee CF-TA
NC/disease:        	NC
Operator:          	BY
Comments:
M-SCAN DATA (Repeat 2/3, 22-14.9m)
Scanpts: 2, 19, 558, 578
Stim. (mA)     	Amp. (mV)
MS.1           	45             	4.836
MS.2           	45             	4.824
MS.3           	45             	4.782
MS.4           	45             	4.797
MS.5           	45             	4.813
MS.6           	45             	4.835
MS.7           	45             	4.807
MS.8           	45             	4.808
MS.9           	45             	4.814
MS.10          	45             	4.794
MS.11          	45             	4.782
MS.12          	45             	4.796
MS.13          	45             	4.752
MS.14          	45             	4.803
MS.15          	45             	4.803
MS.16          	45             	4.763
MS.17          	45             	4.746
MS.18          	45             	4.795
MS.19          	45             	4.802
MS.20          	45             	4.804
MS.21          	45             	4.8
MS.22          	45             	4.77
MS.23          	45             	4.769
MS.24          	44.91          	4.755
MS.25          	44.82          	4.766
MS.26          	44.73          	4.708
MS.27          	44.642         	4.731
MS.28          	44.552         	4.78
MS.29          	44.462         	4.837
MS.30          	44.375         	4.736
MS.31          	44.285         	4.717
MS.32          	44.197         	4.753
MS.33          	44.11          	4.749
MS.34          	44.02          	4.709
MS.35          	43.932         	4.762
MS.36          	43.845         	4.714
MS.37          	43.757         	4.732
MS.38          	43.67          	4.677
MS.39          	43.583         	4.677
MS.40          	43.495         	4.695
MS.41          	43.41          	4.7
MS.42          	43.322         	4.714
MS.43          	43.235         	4.703
MS.44          	43.15          	4.634
MS.45          	43.062         	4.702
MS.46          	42.978         	4.651
MS.47          	42.89          	4.664
MS.48          	42.805         	4.611
MS.49          	42.72          	4.63
MS.50          	42.635         	4.607
MS.51          	42.55          	4.627
MS.52          	42.465         	4.626
MS.53          	42.38          	4.586
MS.54          	42.295         	4.603
MS.55          	42.21          	4.598
MS.56          	42.125         	4.633
MS.57          	42.042         	4.572
MS.58          	41.958         	4.615
MS.59          	41.875         	4.557
MS.60          	41.79          	4.591
MS.61          	41.708         	4.583
MS.62          	41.622         	4.574
MS.63          	41.54          	4.541
MS.64          	41.458         	4.548
MS.65          	41.375         	4.556
MS.66          	41.292         	4.518
MS.67          	41.21          	4.527
MS.68          	41.127         	4.507
MS.69          	41.045         	4.519
MS.70          	40.962         	4.479
MS.71          	40.88          	4.465
MS.72          	40.8           	4.484
MS.73          	40.717         	4.484
MS.74          	40.638         	4.469
MS.75          	40.555         	4.499
MS.76          	40.475         	4.464
MS.77          	40.392         	4.423
MS.78          	40.312         	4.458
MS.79          	40.232         	4.413
MS.80          	40.153         	4.401
MS.81          	40.072         	4.44
MS.82          	39.993         	4.435
MS.83          	39.912         	4.427
MS.84          	39.833         	4.371
MS.85          	39.752         	4.371
MS.86          	39.673         	4.427
MS.87          	39.592         	4.277
MS.88          	39.515         	4.327
MS.89          	39.435         	4.373
MS.90          	39.357         	4.398
MS.91          	39.278         	4.323
MS.92          	39.2           	4.384
MS.93          	39.12          	4.308
MS.94          	39.042         	4.335
MS.95          	38.965         	4.266
MS.96          	38.888         	4.348
MS.97          	38.81          	4.315
MS.98          	38.732         	4.263
MS.99          	38.655         	4.304
MS.100         	38.577         	4.258
MS.101         	38.5           	4.279
MS.102         	38.423         	4.203
MS.103         	38.347         	4.219
MS.104         	38.27          	4.252
MS.105         	38.192         	4.194
MS.106         	38.118         	4.212
MS.107         	38.04          	4.207
MS.108         	37.965         	4.164
MS.109         	37.89          	4.177
MS.110         	37.812         	4.131
MS.111         	37.737         	4.13
MS.112         	37.662         	4.113
MS.113         	37.587         	4.108
MS.114         	37.513         	4.103
MS.115         	37.438         	4.077
MS.116         	37.362         	4.091
MS.117         	37.287         	4.111
MS.118         	37.212         	4.064
MS.119         	37.14          	3.98
MS.120         	37.065         	3.97
MS.121         	36.99          	4.022
MS.122         	36.917         	4.005
MS.123         	36.842         	3.956
MS.124         	36.77          	3.961
MS.125         	36.695         	3.961
MS.126         	36.622         	3.988
MS.127         	36.55          	3.975
MS.128         	36.478         	3.99
MS.129         	36.403         	3.945
MS.130         	36.33          	3.901
MS.131         	36.257         	3.838
MS.132         	36.185         	3.926
MS.133         	36.112         	3.865
MS.134         	36.04          	3.852
MS.135         	35.97          	3.835
MS.136         	35.897         	3.807
MS.137         	35.825         	3.752
MS.138         	35.755         	3.794
MS.139         	35.682         	3.769
MS.140         	35.612         	3.852
MS.141         	35.54          	3.746
MS.142         	35.47          	3.777
MS.143         	35.397         	3.743
MS.144         	35.327         	3.741
MS.145         	35.257         	3.755
MS.146         	35.188         	3.723
MS.147         	35.115         	3.683
MS.148         	35.045         	3.669
MS.149         	34.975         	3.668
MS.150         	34.905         	3.679
MS.151         	34.837         	3.645
MS.152         	34.767         	3.733
MS.153         	34.697         	3.714
MS.154         	34.627         	3.65
MS.155         	34.56          	3.572
MS.156         	34.49          	3.604
MS.157         	34.42          	3.646
MS.158         	34.353         	3.579
MS.159         	34.282         	3.596
MS.160         	34.215         	3.533
MS.161         	34.147         	3.629
MS.162         	34.077         	3.548
MS.163         	34.01          	3.494
MS.164         	33.943         	3.501
MS.165         	33.875         	3.489
MS.166         	33.807         	3.511
MS.167         	33.74          	3.474
MS.168         	33.673         	3.409
MS.169         	33.605         	3.444
MS.170         	33.537         	3.372
MS.171         	33.47          	3.524
MS.172         	33.403         	3.461
MS.173         	33.337         	3.446
MS.174         	33.27          	3.558
MS.175         	33.202         	3.431
MS.176         	33.138         	3.38
MS.177         	33.07          	3.351
MS.178         	33.005         	3.263
MS.179         	32.94          	3.345
MS.180         	32.872         	3.321
MS.181         	32.807         	3.392
MS.182         	32.743         	3.316
MS.183         	32.677         	3.289
MS.184         	32.612         	3.275
MS.185         	32.548         	3.291
MS.186         	32.48          	3.285
MS.187         	32.417         	3.293
MS.188         	32.353         	3.25
MS.189         	32.287         	3.184
MS.190         	32.222         	3.261
MS.191         	32.157         	3.151
MS.192         	32.095         	3.104
MS.193         	32.03          	3.173
MS.194         	31.965         	3.128
MS.195         	31.903         	3.152
MS.196         	31.837         	3.163
MS.197         	31.775         	3.185
MS.198         	31.71          	3.129
MS.199         	31.647         	3.175
MS.200         	31.585         	3.134
MS.201         	31.522         	3.08
MS.202         	31.457         	2.989
MS.203         	31.395         	3
MS.204         	31.332         	3.071
MS.205         	31.27          	3.044
MS.206         	31.207         	2.988
MS.207         	31.145         	3.01
MS.208         	31.082         	2.954
MS.209         	31.02          	2.996
MS.210         	30.96          	2.966
MS.211         	30.897         	2.956
MS.212         	30.835         	2.903
MS.213         	30.775         	2.936
MS.214         	30.712         	2.914
MS.215         	30.65          	2.83
MS.216         	30.59          	2.816
MS.217         	30.528         	2.867
MS.218         	30.467         	2.865
MS.219         	30.407         	2.865
MS.220         	30.345         	2.825
MS.221         	30.285         	2.726
MS.222         	30.225         	2.742
MS.223         	30.165         	2.793
MS.224         	30.105         	2.693
MS.225         	30.045         	2.678
MS.226         	29.985         	2.523
MS.227         	29.925         	2.654
MS.228         	29.865         	2.548
MS.229         	29.805         	2.656
MS.230         	29.745         	2.563
MS.231         	29.685         	2.545
MS.232         	29.627         	2.665
MS.233         	29.567         	2.545
MS.234         	29.507         	2.57
MS.235         	29.45          	2.492
MS.236         	29.39          	2.549
MS.237         	29.332         	2.428
MS.238         	29.272         	2.462
MS.239         	29.215         	2.401
MS.240         	29.155         	2.394
MS.241         	29.097         	2.296
MS.242         	29.04          	2.34
MS.243         	28.983         	2.339
MS.244         	28.922         	2.328
MS.245         	28.865         	2.271
MS.246         	28.807         	2.36
MS.247         	28.75          	2.258
MS.248         	28.692         	2.238
MS.249         	28.635         	2.23
MS.250         	28.577         	2.167
MS.251         	28.522         	2.13
MS.252         	28.465         	2.192
MS.253         	28.407         	2.112
MS.254         	28.35          	2.121
MS.255         	28.295         	2.108
MS.256         	28.237         	2.005
MS.257         	28.182         	2.076
MS.258         	28.125         	2.087
MS.259         	28.07          	1.984
MS.260         	28.012         	1.97
MS.261         	27.957         	1.921
MS.262         	27.9           	1.982
MS.263         	27.845         	1.969
MS.264         	27.79          	1.97
MS.265         	27.735         	1.827
MS.266         	27.677         	1.843
MS.267         	27.622         	1.927
MS.268         	27.567         	1.83
MS.269         	27.512         	1.729
MS.270         	27.457         	1.795
MS.271         	27.403         	1.711
MS.272         	27.347         	1.596
MS.273         	27.295         	1.769
MS.274         	27.24          	1.712
MS.275         	27.185         	1.719
MS.276         	27.13          	1.697
MS.277         	27.077         	1.777
MS.278         	27.022         	1.639
MS.279         	26.967         	1.707
MS.280         	26.915         	1.617
MS.281         	26.86          	1.62
MS.282         	26.807         	1.716
MS.283         	26.752         	1.58
MS.284         	26.7           	1.519
MS.285         	26.647         	1.548
MS.286         	26.592         	1.514
MS.287         	26.54          	1.543
MS.288         	26.487         	1.547
MS.289         	26.435         	1.492
MS.290         	26.382         	1.545
MS.291         	26.33          	1.501
MS.292         	26.275         	1.537
MS.293         	26.222         	1.431
MS.294         	26.172         	1.489
MS.295         	26.12          	1.444
MS.296         	26.067         	1.428
MS.297         	26.015         	1.385
MS.298         	25.962         	1.423
MS.299         	25.91          	1.402
MS.300         	25.86          	1.385
MS.301         	25.807         	1.393
MS.302         	25.755         	1.359
MS.303         	25.705         	1.396
MS.304         	25.653         	1.417
MS.305         	25.602         	1.357
MS.306         	25.55          	1.403
MS.307         	25.5           	1.347
MS.308         	25.448         	1.313
MS.309         	25.397         	1.338
MS.310         	25.347         	1.324
MS.311         	25.297         	1.289
MS.312         	25.245         	1.295
MS.313         	25.195         	1.326
MS.314         	25.145         	1.283
MS.315         	25.095         	1.238
MS.316         	25.045         	1.29
MS.317         	24.995         	1.259
MS.318         	24.945         	1.213
MS.319         	24.895         	1.27
MS.320         	24.845         	1.221
MS.321         	24.795         	1.216
MS.322         	24.745         	1.235
MS.323         	24.698         	1.179
MS.324         	24.647         	1.134
MS.325         	24.597         	1.19
MS.326         	24.55          	1.129
MS.327         	24.5           	1.129
MS.328         	24.45          	1.133
MS.329         	24.403         	1.18
MS.330         	24.352         	1.047
MS.331         	24.305         	1.042
MS.332         	24.255         	1.101
MS.333         	24.207         	1.039
MS.334         	24.16          	1.038
MS.335         	24.11          	1.086
MS.336         	24.062         	1.072
MS.337         	24.015         	1.036
MS.338         	23.967         	1.027
MS.339         	23.917         	1.084
MS.340         	23.87          	1.027
MS.341         	23.823         	1.043
MS.342         	23.775         	0.983
MS.343         	23.727         	0.999
MS.344         	23.68          	0.986
MS.345         	23.632         	0.995
MS.346         	23.585         	0.984
MS.347         	23.54          	0.928
MS.348         	23.493         	0.991
MS.349         	23.445         	0.894
MS.350         	23.397         	0.945
MS.351         	23.352         	0.93
MS.352         	23.305         	0.858
MS.353         	23.257         	0.886
MS.354         	23.212         	0.884
MS.355         	23.165         	0.88
MS.356         	23.12          	0.872
MS.357         	23.073         	0.827
MS.358         	23.028         	0.85
MS.359         	22.98          	0.784
MS.360         	22.935         	0.799
MS.361         	22.89          	0.751
MS.362         	22.842         	0.708
MS.363         	22.797         	0.779
MS.364         	22.752         	0.709
MS.365         	22.707         	0.814
MS.366         	22.663         	0.784
MS.367         	22.615         	0.787
MS.368         	22.57          	0.721
MS.369         	22.525         	0.627
MS.370         	22.48          	0.745
MS.371         	22.435         	0.555
MS.372         	22.39          	0.604
MS.373         	22.347         	0.607
MS.374         	22.302         	0.577
MS.375         	22.257         	0.62
MS.376         	22.212         	0.611
MS.377         	22.167         	0.572
MS.378         	22.125         	0.466
MS.379         	22.08          	0.367
MS.380         	22.035         	0.431
MS.381         	21.993         	0.356
MS.382         	21.948         	0.53
MS.383         	21.905         	0.447
MS.384         	21.86          	0.326
MS.385         	21.817         	0.385
MS.386         	21.772         	0.424
MS.387         	21.73          	0.278
MS.388         	21.685         	0.337
MS.389         	21.642         	0.385
MS.390         	21.6           	0.322
MS.391         	21.555         	0.316
MS.392         	21.512         	0.292
MS.393         	21.47          	0.302
MS.394         	21.427         	0.228
MS.395         	21.385         	0.271
MS.396         	21.342         	0.251
MS.397         	21.3           	0.27
MS.398         	21.257         	0.308
MS.399         	21.215         	0.256
MS.400         	21.172         	0.209
MS.401         	21.13          	0.24
MS.402         	21.087         	0.239
MS.403         	21.045         	0.204
MS.404         	21.002         	0.245
MS.405         	20.96          	0.229
MS.406         	20.92          	0.2
MS.407         	20.877         	0.195
MS.408         	20.835         	0.184
MS.409         	20.795         	0.162
MS.410         	20.752         	0.123
MS.411         	20.71          	0.095
MS.412         	20.67          	0.143
MS.413         	20.627         	0.103
MS.414         	20.587         	0.17
MS.415         	20.545         	0.082
MS.416         	20.505         	0.112
MS.417         	20.465         	0.078
MS.418         	20.422         	0.112
MS.419         	20.382         	0.143
MS.420         	20.342         	0.176
MS.421         	20.3           	0.087
MS.422         	20.26          	0.081
MS.423         	20.22          	0.119
MS.424         	20.18          	0.126
MS.425         	20.14          	0.056
MS.426         	20.1           	0.032
MS.427         	20.057         	0.043
MS.428         	20.017         	0.000
MS.429         	19.977         	0.034
MS.430         	19.938         	0.038
MS.431         	19.9           	0.026
MS.432         	19.86          	0.001
MS.433         	19.82          	0.031
MS.434         	19.78          	-0.01
MS.435         	19.74          	0.01
MS.436         	19.7           	0.012
MS.437         	19.663         	0.041
MS.438         	19.622         	-0.022
MS.439         	19.583         	-0.063
MS.440         	19.545         	-0.102
MS.441         	19.505         	-0.114
MS.442         	19.465         	-0.054
MS.443         	19.427         	-0.115
MS.444         	19.387         	-0.155
MS.445         	19.35          	-0.095
MS.446         	19.31          	-0.084
MS.447         	19.272         	-0.107
MS.448         	19.233         	-0.168
MS.449         	19.195         	-0.229
MS.450         	19.157         	-0.163
MS.451         	19.118         	-0.19
MS.452         	19.08          	-0.192
MS.453         	19.042         	-0.184
MS.454         	19.005         	-0.238
MS.455         	18.967         	-0.3
MS.456         	18.927         	-0.253
MS.457         	18.89          	-0.222
MS.458         	18.852         	-0.289
MS.459         	18.815         	-0.295
MS.460         	18.778         	-0.337
MS.461         	18.74          	-0.291
MS.462         	18.702         	-0.225
MS.463         	18.665         	-0.327
MS.464         	18.628         	-0.312
MS.465         	18.59          	-0.305
MS.466         	18.552         	-0.333
MS.467         	18.517         	-0.429
MS.468         	18.48          	-0.338
MS.469         	18.442         	-0.41
MS.470         	18.405         	-0.396
MS.471         	18.37          	-0.392
MS.472         	18.333         	-0.382
MS.473         	18.295         	-0.406
MS.474         	18.26          	-0.427
MS.475         	18.222         	-0.388
MS.476         	18.185         	-0.428
MS.477         	18.15          	-0.474
MS.478         	18.112         	-0.4
MS.479         	18.077         	-0.36
MS.480         	18.042         	-0.483
MS.481         	18.005         	-0.485
MS.482         	17.97          	-0.502
MS.483         	17.932         	-0.471
MS.484         	17.897         	-0.505
MS.485         	17.862         	-0.573
MS.486         	17.825         	-0.511
MS.487         	17.79          	-0.483
MS.488         	17.755         	-0.514
MS.489         	17.72          	-0.518
MS.490         	17.685         	-0.553
MS.491         	17.647         	-0.547
MS.492         	17.612         	-0.551
MS.493         	17.577         	-0.521
MS.494         	17.542         	-0.618
MS.495         	17.507         	-0.59
MS.496         	17.472         	-0.592
MS.497         	17.438         	-0.61
MS.498         	17.403         	-0.593
MS.499         	17.368         	-0.673
MS.500         	17.335         	-0.588
MS.501         	17.3           	-0.624
