File:              	C:\Qtrac\Data\ME2C30707B.QZD
Name:              	 HA08E
Protocol:          	MSCAN-MV
Date:              	7/7/23
Date of birth:     	8/7/04
Age:               	18
Sex:               	F
Temperature:       	32.6
S/R sites:         	Knee CF-TA
NC/disease:        	NC
Operator:          	BY
Comments:
M-SCAN DATA (Repeat 1/3, 13.5-3.6m)
Scanpts: 75, 93, 715, 769
Stim. (mA)     	Amp. (mV)
MS.1           	30             	5.649
MS.2           	30             	5.639
MS.3           	30             	5.654
MS.4           	30             	5.634
MS.5           	30             	5.616
MS.6           	30             	5.624
MS.7           	30             	5.645
MS.8           	30             	5.656
MS.9           	30             	5.636
MS.10          	30             	5.663
MS.11          	30             	5.655
MS.12          	30             	5.659
MS.13          	30             	5.639
MS.14          	30             	5.677
MS.15          	30             	5.68
MS.16          	30             	5.649
MS.17          	30             	5.658
MS.18          	30             	5.671
MS.19          	30             	5.665
MS.20          	30             	5.667
MS.21          	30             	5.665
MS.22          	30             	5.667
MS.23          	30             	5.66
MS.24          	29.88          	5.638
MS.25          	29.82          	5.667
MS.26          	29.76          	5.63
MS.27          	29.702         	5.66
MS.28          	29.642         	5.658
MS.29          	29.582         	5.659
MS.30          	29.522         	5.635
MS.31          	29.465         	5.627
MS.32          	29.405         	5.654
MS.33          	29.347         	5.63
MS.34          	29.287         	5.651
MS.35          	29.23          	5.652
MS.36          	29.172         	5.646
MS.37          	29.112         	5.646
MS.38          	29.055         	5.679
MS.39          	28.997         	5.641
MS.40          	28.94          	5.643
MS.41          	28.882         	5.638
MS.42          	28.823         	5.637
MS.43          	28.765         	5.664
MS.44          	28.707         	5.664
MS.45          	28.65          	5.648
MS.46          	28.595         	5.669
MS.47          	28.537         	5.64
MS.48          	28.48          	5.632
MS.49          	28.422         	5.665
MS.50          	28.365         	5.658
MS.51          	28.31          	5.655
MS.52          	28.252         	5.653
MS.53          	28.198         	5.659
MS.54          	28.14          	5.655
MS.55          	28.085         	5.645
MS.56          	28.028         	5.661
MS.57          	27.972         	5.656
MS.58          	27.915         	5.656
MS.59          	27.86          	5.67
MS.60          	27.805         	5.671
MS.61          	27.75          	5.679
MS.62          	27.692         	5.667
MS.63          	27.637         	5.667
MS.64          	27.582         	5.67
MS.65          	27.528         	5.667
MS.66          	27.472         	5.68
MS.67          	27.417         	5.657
MS.68          	27.362         	5.676
MS.69          	27.307         	5.671
MS.70          	27.255         	5.683
MS.71          	27.2           	5.705
MS.72          	27.145         	5.699
MS.73          	27.09          	5.671
MS.74          	27.037         	5.692
MS.75          	26.983         	5.679
MS.76          	26.927         	5.674
MS.77          	26.875         	5.66
MS.78          	26.82          	5.651
MS.79          	26.767         	5.664
MS.80          	26.715         	5.657
MS.81          	26.66          	5.664
MS.82          	26.608         	5.67
MS.83          	26.555         	5.688
MS.84          	26.502         	5.641
MS.85          	26.448         	5.675
MS.86          	26.395         	5.663
MS.87          	26.342         	5.669
MS.88          	26.29          	5.66
MS.89          	26.237         	5.669
MS.90          	26.185         	5.68
MS.91          	26.132         	5.67
MS.92          	26.08          	5.654
MS.93          	26.028         	5.649
MS.94          	25.977         	5.659
MS.95          	25.925         	5.671
MS.96          	25.872         	5.658
MS.97          	25.82          	5.641
MS.98          	25.77          	5.656
MS.99          	25.717         	5.651
MS.100         	25.667         	5.653
MS.101         	25.615         	5.659
MS.102         	25.565         	5.654
MS.103         	25.512         	5.662
MS.104         	25.462         	5.635
MS.105         	25.413         	5.648
MS.106         	25.36          	5.643
MS.107         	25.31          	5.651
MS.108         	25.26          	5.62
MS.109         	25.21          	5.645
MS.110         	25.157         	5.654
MS.111         	25.108         	5.641
MS.112         	25.057         	5.654
MS.113         	25.007         	5.627
MS.114         	24.957         	5.669
MS.115         	24.907         	5.647
MS.116         	24.858         	5.641
MS.117         	24.807         	5.65
MS.118         	24.76          	5.634
MS.119         	24.71          	5.621
MS.120         	24.66          	5.637
MS.121         	24.61          	5.644
MS.122         	24.562         	5.639
MS.123         	24.512         	5.622
MS.124         	24.465         	5.646
MS.125         	24.415         	5.568
MS.126         	24.365         	5.641
MS.127         	24.317         	5.656
MS.128         	24.27          	5.648
MS.129         	24.22          	5.626
MS.130         	24.172         	5.621
MS.131         	24.122         	5.636
MS.132         	24.075         	5.618
MS.133         	24.028         	5.638
MS.134         	23.98          	5.544
MS.135         	23.932         	5.634
MS.136         	23.882         	5.568
MS.137         	23.835         	5.604
MS.138         	23.788         	5.547
MS.139         	23.74          	5.555
MS.140         	23.692         	5.632
MS.141         	23.645         	5.601
MS.142         	23.597         	5.536
MS.143         	23.552         	5.616
MS.144         	23.505         	5.563
MS.145         	23.457         	5.587
MS.146         	23.41          	5.542
MS.147         	23.365         	5.53
MS.148         	23.317         	5.531
MS.149         	23.27          	5.594
MS.150         	23.225         	5.632
MS.151         	23.177         	5.534
MS.152         	23.132         	5.468
MS.153         	23.085         	5.496
MS.154         	23.04          	5.529
MS.155         	22.993         	5.401
MS.156         	22.948         	5.504
MS.157         	22.903         	5.473
MS.158         	22.855         	5.551
MS.159         	22.81          	5.468
MS.160         	22.765         	5.443
MS.161         	22.72          	5.441
MS.162         	22.672         	5.441
MS.163         	22.627         	5.388
MS.164         	22.582         	5.438
MS.165         	22.538         	5.511
MS.166         	22.493         	5.426
MS.167         	22.448         	5.391
MS.168         	22.403         	5.444
MS.169         	22.358         	5.461
MS.170         	22.312         	5.404
MS.171         	22.27          	5.405
MS.172         	22.225         	5.493
MS.173         	22.18          	5.386
MS.174         	22.135         	5.475
MS.175         	22.092         	5.306
MS.176         	22.047         	5.461
MS.177         	22.002         	5.402
MS.178         	21.96          	5.332
MS.179         	21.915         	5.424
MS.180         	21.872         	5.438
MS.181         	21.827         	5.395
MS.182         	21.785         	5.472
MS.183         	21.74          	5.336
MS.184         	21.698         	5.412
MS.185         	21.655         	5.441
MS.186         	21.61          	5.479
MS.187         	21.567         	5.413
MS.188         	21.525         	5.385
MS.189         	21.483         	5.35
MS.190         	21.438         	5.503
MS.191         	21.395         	5.323
MS.192         	21.352         	5.405
MS.193         	21.31          	5.378
MS.194         	21.267         	5.384
MS.195         	21.225         	5.262
MS.196         	21.182         	5.316
MS.197         	21.14          	5.322
MS.198         	21.097         	5.227
MS.199         	21.055         	5.27
MS.200         	21.015         	5.132
MS.201         	20.972         	5.241
MS.202         	20.93          	5.136
MS.203         	20.887         	5.244
MS.204         	20.847         	5.198
MS.205         	20.805         	5.305
MS.206         	20.762         	5.256
MS.207         	20.722         	5.264
MS.208         	20.68          	5.178
MS.209         	20.64          	5.233
MS.210         	20.597         	5.31
MS.211         	20.557         	5.139
MS.212         	20.515         	5.252
MS.213         	20.475         	5.231
MS.214         	20.435         	5.126
MS.215         	20.392         	5.144
MS.216         	20.352         	5.165
MS.217         	20.312         	5.159
MS.218         	20.27          	4.998
MS.219         	20.23          	5.128
MS.220         	20.19          	5.062
MS.221         	20.15          	5.056
MS.222         	20.11          	4.836
MS.223         	20.07          	4.951
MS.224         	20.03          	5.017
MS.225         	19.99          	5.164
MS.226         	19.95          	5.046
MS.227         	19.91          	4.957
MS.228         	19.87          	5.037
MS.229         	19.83          	4.886
MS.230         	19.79          	5.035
MS.231         	19.75          	4.927
MS.232         	19.712         	4.873
MS.233         	19.672         	4.948
MS.234         	19.632         	4.844
MS.235         	19.592         	4.807
MS.236         	19.555         	4.912
MS.237         	19.515         	4.868
MS.238         	19.475         	4.75
MS.239         	19.438         	4.679
MS.240         	19.397         	4.691
MS.241         	19.36          	4.915
MS.242         	19.32          	4.924
MS.243         	19.282         	4.852
MS.244         	19.245         	4.765
MS.245         	19.205         	4.829
MS.246         	19.167         	4.784
MS.247         	19.13          	4.733
MS.248         	19.09          	4.869
MS.249         	19.052         	4.777
MS.250         	19.015         	4.843
MS.251         	18.977         	4.788
MS.252         	18.938         	4.813
MS.253         	18.9           	4.593
MS.254         	18.862         	4.783
MS.255         	18.825         	4.529
MS.256         	18.788         	4.601
MS.257         	18.75          	4.578
MS.258         	18.712         	4.612
MS.259         	18.675         	4.717
MS.260         	18.637         	4.482
MS.261         	18.6           	4.864
MS.262         	18.562         	4.636
MS.263         	18.528         	4.498
MS.264         	18.49          	4.551
MS.265         	18.452         	4.387
MS.266         	18.415         	4.332
MS.267         	18.378         	4.667
MS.268         	18.342         	4.486
MS.269         	18.305         	4.489
MS.270         	18.27          	4.451
MS.271         	18.233         	4.297
MS.272         	18.195         	4.321
MS.273         	18.16          	4.268
MS.274         	18.122         	4.362
MS.275         	18.087         	4.398
MS.276         	18.05          	4.411
MS.277         	18.015         	4.519
MS.278         	17.98          	4.247
MS.279         	17.942         	4.278
MS.280         	17.907         	4.101
MS.281         	17.87          	4.079
MS.282         	17.835         	4.131
MS.283         	17.8           	4.261
MS.284         	17.765         	4.275
MS.285         	17.73          	4.148
MS.286         	17.692         	4.186
MS.287         	17.657         	4.068
MS.288         	17.622         	4.009
MS.289         	17.587         	4.168
MS.290         	17.552         	4.089
MS.291         	17.517         	3.948
MS.292         	17.483         	4.191
MS.293         	17.448         	3.911
MS.294         	17.413         	3.936
MS.295         	17.378         	4.094
MS.296         	17.342         	3.995
MS.297         	17.307         	3.801
MS.298         	17.275         	3.798
MS.299         	17.24          	3.848
MS.300         	17.205         	3.729
MS.301         	17.17          	3.779
MS.302         	17.135         	3.65
MS.303         	17.102         	3.687
MS.304         	17.067         	3.666
MS.305         	17.032         	3.446
MS.306         	17             	3.597
MS.307         	16.965         	3.627
MS.308         	16.932         	3.52
MS.309         	16.897         	3.525
MS.310         	16.865         	3.409
MS.311         	16.83          	3.339
MS.312         	16.797         	3.334
MS.313         	16.762         	3.367
MS.314         	16.73          	3.398
MS.315         	16.698         	3.401
MS.316         	16.663         	3.383
MS.317         	16.63          	3.395
MS.318         	16.597         	3.286
MS.319         	16.562         	3.303
MS.320         	16.53          	3.392
MS.321         	16.497         	3.228
MS.322         	16.465         	3.264
MS.323         	16.432         	3.276
MS.324         	16.397         	3.177
MS.325         	16.365         	3.136
MS.326         	16.333         	3.214
MS.327         	16.3           	3.046
MS.328         	16.267         	3.125
MS.329         	16.235         	3.089
MS.330         	16.202         	3.048
MS.331         	16.17          	3.059
MS.332         	16.137         	3.006
MS.333         	16.105         	2.956
MS.334         	16.075         	3.002
MS.335         	16.042         	2.974
MS.336         	16.01          	2.932
MS.337         	15.977         	2.902
MS.338         	15.945         	2.861
MS.339         	15.915         	2.925
MS.340         	15.882         	2.757
MS.341         	15.85          	2.657
MS.342         	15.818         	2.811
MS.343         	15.787         	2.751
MS.344         	15.755         	2.475
MS.345         	15.725         	2.681
MS.346         	15.693         	2.57
MS.347         	15.662         	2.665
MS.348         	15.63          	2.488
MS.349         	15.6           	2.461
MS.350         	15.568         	2.405
MS.351         	15.537         	2.449
MS.352         	15.505         	2.402
MS.353         	15.475         	2.526
MS.354         	15.443         	2.38
MS.355         	15.412         	2.475
MS.356         	15.382         	2.399
MS.357         	15.35          	2.377
MS.358         	15.32          	2.221
MS.359         	15.29          	2.344
MS.360         	15.26          	2.208
MS.361         	15.23          	2.103
MS.362         	15.197         	2.195
MS.363         	15.167         	2.084
MS.364         	15.137         	2.084
MS.365         	15.108         	2.067
MS.366         	15.077         	1.993
MS.367         	15.047         	2.121
MS.368         	15.017         	2.044
MS.369         	14.987         	1.932
MS.370         	14.957         	2.055
MS.371         	14.927         	1.781
MS.372         	14.898         	2.043
MS.373         	14.867         	1.851
MS.374         	14.837         	1.963
MS.375         	14.807         	1.844
MS.376         	14.78          	1.727
MS.377         	14.75          	1.835
MS.378         	14.72          	1.805
MS.379         	14.69          	1.861
MS.380         	14.66          	1.679
MS.381         	14.632         	1.641
MS.382         	14.602         	1.783
MS.383         	14.572         	1.732
MS.384         	14.545         	1.755
MS.385         	14.515         	1.73
MS.386         	14.485         	1.553
MS.387         	14.457         	1.588
MS.388         	14.427         	1.619
MS.389         	14.4           	1.544
MS.390         	14.37          	1.488
MS.391         	14.342         	1.534
MS.392         	14.312         	1.432
MS.393         	14.285         	1.442
MS.394         	14.255         	1.421
MS.395         	14.227         	1.344
MS.396         	14.2           	1.465
MS.397         	14.17          	1.402
MS.398         	14.142         	1.421
MS.399         	14.115         	1.303
MS.400         	14.085         	1.309
MS.401         	14.057         	1.464
MS.402         	14.03          	1.278
MS.403         	14.002         	1.281
MS.404         	13.975         	1.301
MS.405         	13.945         	1.129
MS.406         	13.917         	1.152
MS.407         	13.89          	1.194
MS.408         	13.862         	1.081
MS.409         	13.835         	1.142
MS.410         	13.807         	1.092
MS.411         	13.78          	1.017
MS.412         	13.752         	1.075
MS.413         	13.725         	1.111
MS.414         	13.697         	1.059
MS.415         	13.67          	0.953
MS.416         	13.642         	0.887
MS.417         	13.615         	0.908
MS.418         	13.587         	0.973
MS.419         	13.56          	0.992
MS.420         	13.535         	0.861
MS.421         	13.507         	0.947
MS.422         	13.48          	0.909
MS.423         	13.452         	0.856
MS.424         	13.425         	0.899
MS.425         	13.4           	0.809
MS.426         	13.372         	0.878
MS.427         	13.345         	0.75
MS.428         	13.32          	0.806
MS.429         	13.292         	0.854
MS.430         	13.265         	0.72
MS.431         	13.24          	0.787
MS.432         	13.212         	0.687
MS.433         	13.188         	0.772
MS.434         	13.16          	0.768
MS.435         	13.135         	0.659
MS.436         	13.108         	0.763
MS.437         	13.082         	0.686
MS.438         	13.055         	0.658
MS.439         	13.03          	0.737
MS.440         	13.002         	0.579
MS.441         	12.977         	0.604
MS.442         	12.952         	0.642
MS.443         	12.925         	0.573
MS.444         	12.9           	0.634
MS.445         	12.875         	0.599
MS.446         	12.847         	0.507
MS.447         	12.822         	0.508
MS.448         	12.797         	0.507
MS.449         	12.77          	0.527
MS.450         	12.745         	0.567
MS.451         	12.72          	0.53
MS.452         	12.695         	0.491
MS.453         	12.67          	0.555
MS.454         	12.645         	0.513
MS.455         	12.62          	0.551
MS.456         	12.592         	0.455
MS.457         	12.568         	0.476
MS.458         	12.542         	0.474
MS.459         	12.517         	0.47
MS.460         	12.492         	0.391
MS.461         	12.467         	0.435
MS.462         	12.443         	0.47
MS.463         	12.417         	0.424
MS.464         	12.395         	0.347
MS.465         	12.37          	0.37
MS.466         	12.345         	0.444
MS.467         	12.32          	0.331
MS.468         	12.295         	0.296
MS.469         	12.27          	0.352
MS.470         	12.245         	0.328
MS.471         	12.222         	0.341
MS.472         	12.197         	0.307
MS.473         	12.172         	0.284
MS.474         	12.148         	0.244
MS.475         	12.125         	0.252
MS.476         	12.1           	0.251
MS.477         	12.075         	0.316
MS.478         	12.052         	0.319
MS.479         	12.028         	0.307
MS.480         	12.002         	0.259
MS.481         	11.98          	0.239
MS.482         	11.955         	0.234
MS.483         	11.932         	0.223
MS.484         	11.907         	0.209
MS.485         	11.885         	0.176
MS.486         	11.86          	0.139
MS.487         	11.837         	0.206
MS.488         	11.812         	0.161
MS.489         	11.79          	0.154
MS.490         	11.765         	0.151
MS.491         	11.742         	0.166
MS.492         	11.72          	0.153
MS.493         	11.695         	0.149
MS.494         	11.672         	0.197
MS.495         	11.648         	0.164
MS.496         	11.625         	0.146
MS.497         	11.602         	0.138
MS.498         	11.58          	0.161
MS.499         	11.555         	0.134
MS.500         	11.532         	0.128
MS.501         	11.51          	0.118
MS.502         	11.488         	0.14
