File:              	C:\Qtrac\Data\ME2C30613A.QZD
Name:              	 HU17A
Protocol:          	MSCAN-R2
Date:              	13/6/23
Date of birth:     	17/9/88
Age:               	34
Sex:               	F
Temperature:       	32.0
S/R sites:         	Knee CF-TA
NC/disease:        	NC
Operator:          	BY
Comments:
M-SCAN DATA (Repeat 3/3, 38.8-30m)
Scanpts: 1, 48, 673, 702
Stim. (mA)     	Amp. (mV)
MS.1           	31             	3.257
MS.2           	31             	3.263
MS.3           	31             	3.265
MS.4           	31             	3.264
MS.5           	31             	3.251
MS.6           	31             	3.261
MS.7           	31             	3.257
MS.8           	31             	3.256
MS.9           	31             	3.264
MS.10          	31             	3.265
MS.11          	31             	3.267
MS.12          	31             	3.27
MS.13          	31             	3.283
MS.14          	31             	3.268
MS.15          	31             	3.273
MS.16          	31             	3.259
MS.17          	31             	3.264
MS.18          	31             	3.274
MS.19          	31             	3.267
MS.20          	31             	3.268
MS.21          	31             	3.274
MS.22          	31             	3.27
MS.23          	31             	3.275
MS.24          	30.938         	3.278
MS.25          	30.875         	3.276
MS.26          	30.815         	3.271
MS.27          	30.752         	3.278
MS.28          	30.692         	3.27
MS.29          	30.63          	3.298
MS.30          	30.57          	3.28
MS.31          	30.507         	3.281
MS.32          	30.448         	3.283
MS.33          	30.385         	3.283
MS.34          	30.325         	3.29
MS.35          	30.265         	3.286
MS.36          	30.205         	3.276
MS.37          	30.145         	3.28
MS.38          	30.085         	3.279
MS.39          	30.022         	3.282
MS.40          	29.962         	3.281
MS.41          	29.905         	3.272
MS.42          	29.845         	3.275
MS.43          	29.785         	3.285
MS.44          	29.725         	3.282
MS.45          	29.665         	3.283
MS.46          	29.608         	3.3
MS.47          	29.547         	3.295
MS.48          	29.487         	3.3
MS.49          	29.43          	3.3
MS.50          	29.37          	3.282
MS.51          	29.312         	3.289
MS.52          	29.252         	3.282
MS.53          	29.195         	3.284
MS.54          	29.137         	3.284
MS.55          	29.077         	3.281
MS.56          	29.02          	3.275
MS.57          	28.962         	3.279
MS.58          	28.905         	3.277
MS.59          	28.847         	3.272
MS.60          	28.79          	3.268
MS.61          	28.733         	3.276
MS.62          	28.675         	3.271
MS.63          	28.618         	3.279
MS.64          	28.56          	3.266
MS.65          	28.502         	3.268
MS.66          	28.445         	3.266
MS.67          	28.387         	3.271
MS.68          	28.332         	3.272
MS.69          	28.275         	3.264
MS.70          	28.22          	3.273
MS.71          	28.162         	3.268
MS.72          	28.105         	3.267
MS.73          	28.05          	3.262
MS.74          	27.995         	3.269
MS.75          	27.938         	3.254
MS.76          	27.882         	3.27
MS.77          	27.827         	3.265
MS.78          	27.77          	3.262
MS.79          	27.715         	3.269
MS.80          	27.66          	3.268
MS.81          	27.605         	3.265
MS.82          	27.55          	3.265
MS.83          	27.495         	3.272
MS.84          	27.44          	3.257
MS.85          	27.385         	3.259
MS.86          	27.33          	3.253
MS.87          	27.275         	3.248
MS.88          	27.22          	3.255
MS.89          	27.167         	3.245
MS.90          	27.112         	3.251
MS.91          	27.057         	3.242
MS.92          	27.005         	3.249
MS.93          	26.95          	3.244
MS.94          	26.897         	3.243
MS.95          	26.842         	3.24
MS.96          	26.79          	3.23
MS.97          	26.735         	3.23
MS.98          	26.682         	3.231
MS.99          	26.627         	3.237
MS.100         	26.575         	3.243
MS.101         	26.522         	3.239
MS.102         	26.47          	3.235
MS.103         	26.417         	3.245
MS.104         	26.362         	3.235
MS.105         	26.31          	3.232
MS.106         	26.257         	3.234
MS.107         	26.205         	3.235
MS.108         	26.153         	3.225
MS.109         	26.102         	3.231
MS.110         	26.05          	3.22
MS.111         	25.997         	3.224
MS.112         	25.945         	3.219
MS.113         	25.892         	3.228
MS.114         	25.842         	3.232
MS.115         	25.79          	3.215
MS.116         	25.737         	3.22
MS.117         	25.688         	3.22
MS.118         	25.635         	3.209
MS.119         	25.585         	3.218
MS.120         	25.532         	3.22
MS.121         	25.483         	3.228
MS.122         	25.432         	3.223
MS.123         	25.38          	3.218
MS.124         	25.33          	3.22
MS.125         	25.28          	3.229
MS.126         	25.23          	3.218
MS.127         	25.177         	3.229
MS.128         	25.127         	3.222
MS.129         	25.077         	3.214
MS.130         	25.028         	3.215
MS.131         	24.977         	3.217
MS.132         	24.927         	3.218
MS.133         	24.877         	3.203
MS.134         	24.827         	3.214
MS.135         	24.78          	3.209
MS.136         	24.73          	3.205
MS.137         	24.68          	3.21
MS.138         	24.63          	3.21
MS.139         	24.582         	3.199
MS.140         	24.532         	3.217
MS.141         	24.483         	3.198
MS.142         	24.435         	3.204
MS.143         	24.385         	3.214
MS.144         	24.337         	3.201
MS.145         	24.288         	3.221
MS.146         	24.24          	3.203
MS.147         	24.19          	3.21
MS.148         	24.142         	3.212
MS.149         	24.095         	3.213
MS.150         	24.047         	3.188
MS.151         	23.997         	3.202
MS.152         	23.95          	3.2
MS.153         	23.903         	3.172
MS.154         	23.855         	3.198
MS.155         	23.807         	3.198
MS.156         	23.76          	3.183
MS.157         	23.712         	3.188
MS.158         	23.665         	3.186
MS.159         	23.618         	3.203
MS.160         	23.57          	3.19
MS.161         	23.522         	3.193
MS.162         	23.475         	3.182
MS.163         	23.43          	3.185
MS.164         	23.382         	3.187
MS.165         	23.335         	3.184
MS.166         	23.29          	3.193
MS.167         	23.243         	3.201
MS.168         	23.195         	3.176
MS.169         	23.15          	3.19
MS.170         	23.102         	3.186
MS.171         	23.057         	3.157
MS.172         	23.012         	3.177
MS.173         	22.965         	3.161
MS.174         	22.92          	3.169
MS.175         	22.872         	3.178
MS.176         	22.827         	3.152
MS.177         	22.782         	3.188
MS.178         	22.737         	3.151
MS.179         	22.692         	3.135
MS.180         	22.645         	3.143
MS.181         	22.6           	3.129
MS.182         	22.555         	3.152
MS.183         	22.51          	3.141
MS.184         	22.465         	3.148
MS.185         	22.42          	3.126
MS.186         	22.375         	3.136
MS.187         	22.332         	3.134
MS.188         	22.288         	3.115
MS.189         	22.243         	3.097
MS.190         	22.198         	3.105
MS.191         	22.153         	3.107
MS.192         	22.11          	3.087
MS.193         	22.065         	3.065
MS.194         	22.02          	3.083
MS.195         	21.977         	3.07
MS.196         	21.932         	3.08
MS.197         	21.89          	2.994
MS.198         	21.845         	2.988
MS.199         	21.802         	2.993
MS.200         	21.757         	3.077
MS.201         	21.715         	3.008
MS.202         	21.672         	2.98
MS.203         	21.627         	2.99
MS.204         	21.585         	2.991
MS.205         	21.542         	2.975
MS.206         	21.497         	2.978
MS.207         	21.455         	2.964
MS.208         	21.413         	2.972
MS.209         	21.37          	2.955
MS.210         	21.327         	2.963
MS.211         	21.285         	2.957
MS.212         	21.243         	2.969
MS.213         	21.2           	2.957
MS.214         	21.157         	2.947
MS.215         	21.115         	2.936
MS.216         	21.073         	2.938
MS.217         	21.03          	2.947
MS.218         	20.99          	2.932
MS.219         	20.948         	2.93
MS.220         	20.905         	2.921
MS.221         	20.862         	2.937
MS.222         	20.823         	2.924
MS.223         	20.78          	2.935
MS.224         	20.737         	2.917
MS.225         	20.698         	2.917
MS.226         	20.655         	2.903
MS.227         	20.615         	2.919
MS.228         	20.573         	2.903
MS.229         	20.532         	2.888
MS.230         	20.49          	2.901
MS.231         	20.45          	2.891
MS.232         	20.41          	2.882
MS.233         	20.368         	2.877
MS.234         	20.327         	2.861
MS.235         	20.288         	2.871
MS.236         	20.247         	2.871
MS.237         	20.205         	2.855
MS.238         	20.165         	2.877
MS.239         	20.125         	2.855
MS.240         	20.085         	2.774
MS.241         	20.045         	2.845
MS.242         	20.005         	2.84
MS.243         	19.965         	2.838
MS.244         	19.925         	2.833
MS.245         	19.885         	2.835
MS.246         	19.845         	2.838
MS.247         	19.805         	2.794
MS.248         	19.767         	2.795
MS.249         	19.727         	2.708
MS.250         	19.688         	2.818
MS.251         	19.647         	2.725
MS.252         	19.61          	2.755
MS.253         	19.57          	2.792
MS.254         	19.53          	2.69
MS.255         	19.493         	2.673
MS.256         	19.452         	2.678
MS.257         	19.415         	2.747
MS.258         	19.375         	2.657
MS.259         	19.337         	2.672
MS.260         	19.297         	2.778
MS.261         	19.26          	2.655
MS.262         	19.22          	2.614
MS.263         	19.182         	2.724
MS.264         	19.145         	2.701
MS.265         	19.105         	2.64
MS.266         	19.067         	2.54
MS.267         	19.03          	2.626
MS.268         	18.993         	2.674
MS.269         	18.952         	2.57
MS.270         	18.915         	2.578
MS.271         	18.877         	2.634
MS.272         	18.84          	2.581
MS.273         	18.802         	2.57
MS.274         	18.765         	2.483
MS.275         	18.727         	2.496
MS.276         	18.69          	2.563
MS.277         	18.653         	2.474
MS.278         	18.615         	2.502
MS.279         	18.577         	2.497
MS.280         	18.54          	2.451
MS.281         	18.505         	2.434
MS.282         	18.467         	2.534
MS.283         	18.43          	2.446
MS.284         	18.392         	2.502
MS.285         	18.358         	2.431
MS.286         	18.32          	2.359
MS.287         	18.282         	2.388
MS.288         	18.247         	2.411
MS.289         	18.21          	2.42
MS.290         	18.175         	2.413
MS.291         	18.137         	2.352
MS.292         	18.102         	2.391
MS.293         	18.065         	2.396
MS.294         	18.03          	2.338
MS.295         	17.993         	2.357
MS.296         	17.958         	2.267
MS.297         	17.92          	2.324
MS.298         	17.885         	2.333
MS.299         	17.85          	2.273
MS.300         	17.815         	2.286
MS.301         	17.778         	2.283
MS.302         	17.743         	2.346
MS.303         	17.708         	2.252
MS.304         	17.672         	2.25
MS.305         	17.637         	2.22
MS.306         	17.602         	2.18
MS.307         	17.567         	2.161
MS.308         	17.532         	2.183
MS.309         	17.497         	2.13
MS.310         	17.462         	2.157
MS.311         	17.427         	2.139
MS.312         	17.392         	2.122
MS.313         	17.358         	2.161
MS.314         	17.323         	2.15
MS.315         	17.288         	2.125
MS.316         	17.253         	2.133
MS.317         	17.217         	2.127
MS.318         	17.185         	2.039
MS.319         	17.15          	2.077
MS.320         	17.115         	2.088
MS.321         	17.083         	2.082
MS.322         	17.047         	2.065
MS.323         	17.012         	2.053
MS.324         	16.98          	1.966
MS.325         	16.945         	2.028
MS.326         	16.913         	2.048
MS.327         	16.878         	2.034
MS.328         	16.845         	1.957
MS.329         	16.81          	1.989
MS.330         	16.778         	1.988
MS.331         	16.743         	2.019
MS.332         	16.71          	1.96
MS.333         	16.677         	1.968
MS.334         	16.642         	1.952
MS.335         	16.61          	1.896
MS.336         	16.577         	1.935
MS.337         	16.542         	1.89
MS.338         	16.51          	1.871
MS.339         	16.477         	1.935
MS.340         	16.445         	1.866
MS.341         	16.413         	1.843
MS.342         	16.38          	1.949
MS.343         	16.345         	1.874
MS.344         	16.312         	1.899
MS.345         	16.28          	1.815
MS.346         	16.247         	1.819
MS.347         	16.215         	1.835
MS.348         	16.182         	1.826
MS.349         	16.15          	1.827
MS.350         	16.12          	1.778
MS.351         	16.087         	1.785
MS.352         	16.055         	1.771
MS.353         	16.022         	1.722
MS.354         	15.99          	1.713
MS.355         	15.957         	1.721
MS.356         	15.927         	1.661
MS.357         	15.895         	1.592
MS.358         	15.862         	1.687
MS.359         	15.832         	1.716
MS.360         	15.8           	1.688
MS.361         	15.767         	1.682
MS.362         	15.737         	1.584
MS.363         	15.705         	1.672
MS.364         	15.672         	1.686
MS.365         	15.642         	1.68
MS.366         	15.61          	1.545
MS.367         	15.58          	1.565
MS.368         	15.55          	1.631
MS.369         	15.517         	1.656
MS.370         	15.487         	1.644
MS.371         	15.455         	1.558
MS.372         	15.425         	1.564
MS.373         	15.395         	1.616
MS.374         	15.362         	1.547
MS.375         	15.332         	1.506
MS.376         	15.302         	1.501
MS.377         	15.273         	1.527
MS.378         	15.24          	1.486
MS.379         	15.21          	1.492
MS.380         	15.18          	1.486
MS.381         	15.15          	1.484
MS.382         	15.12          	1.479
MS.383         	15.09          	1.402
MS.384         	15.06          	1.486
MS.385         	15.03          	1.49
MS.386         	15             	1.42
MS.387         	14.97          	1.459
MS.388         	14.94          	1.447
MS.389         	14.91          	1.434
MS.390         	14.88          	1.455
MS.391         	14.85          	1.492
MS.392         	14.82          	1.41
MS.393         	14.79          	1.434
MS.394         	14.76          	1.416
MS.395         	14.733         	1.384
MS.396         	14.702         	1.362
MS.397         	14.672         	1.3
MS.398         	14.642         	1.364
MS.399         	14.615         	1.375
MS.400         	14.585         	1.323
MS.401         	14.555         	1.303
MS.402         	14.527         	1.366
MS.403         	14.497         	1.235
MS.404         	14.467         	1.295
MS.405         	14.44          	1.337
MS.406         	14.41          	1.353
MS.407         	14.382         	1.307
MS.408         	14.352         	1.276
MS.409         	14.325         	1.19
MS.410         	14.295         	1.223
MS.411         	14.267         	1.226
MS.412         	14.24          	1.221
MS.413         	14.21          	1.237
MS.414         	14.182         	1.26
MS.415         	14.155         	1.138
MS.416         	14.125         	1.172
MS.417         	14.097         	1.152
MS.418         	14.07          	1.244
MS.419         	14.04          	1.144
MS.420         	14.012         	1.174
MS.421         	13.985         	1.092
MS.422         	13.957         	1.199
MS.423         	13.93          	1.1
MS.424         	13.903         	1.111
MS.425         	13.872         	1.19
MS.426         	13.845         	1.152
MS.427         	13.818         	1.088
MS.428         	13.79          	1.113
MS.429         	13.762         	1.08
MS.430         	13.735         	1.097
MS.431         	13.707         	1.128
MS.432         	13.68          	1.075
MS.433         	13.653         	1.083
MS.434         	13.625         	1.086
MS.435         	13.6           	1.041
MS.436         	13.572         	1.051
MS.437         	13.545         	1.013
MS.438         	13.517         	1.043
MS.439         	13.49          	1.028
MS.440         	13.462         	1.032
MS.441         	13.438         	0.992
MS.442         	13.41          	1.031
MS.443         	13.382         	1
MS.444         	13.358         	1.015
MS.445         	13.33          	0.951
MS.446         	13.302         	0.998
MS.447         	13.278         	0.973
MS.448         	13.25          	0.986
MS.449         	13.222         	0.939
MS.450         	13.197         	0.969
MS.451         	13.17          	0.933
MS.452         	13.145         	0.972
MS.453         	13.117         	0.94
MS.454         	13.092         	0.94
MS.455         	13.065         	0.907
MS.456         	13.04          	0.952
MS.457         	13.012         	0.937
MS.458         	12.987         	0.923
MS.459         	12.962         	0.881
MS.460         	12.935         	0.88
MS.461         	12.91          	0.923
MS.462         	12.885         	0.874
MS.463         	12.858         	0.869
MS.464         	12.832         	0.884
MS.465         	12.807         	0.881
MS.466         	12.782         	0.889
MS.467         	12.755         	0.898
MS.468         	12.73          	0.851
MS.469         	12.705         	0.779
MS.470         	12.68          	0.84
MS.471         	12.655         	0.853
MS.472         	12.63          	0.829
MS.473         	12.602         	0.884
MS.474         	12.577         	0.837
MS.475         	12.552         	0.839
MS.476         	12.528         	0.806
MS.477         	12.502         	0.8
MS.478         	12.477         	0.834
MS.479         	12.452         	0.817
MS.480         	12.427         	0.85
MS.481         	12.403         	0.809
MS.482         	12.38          	0.831
MS.483         	12.355         	0.803
MS.484         	12.33          	0.764
MS.485         	12.305         	0.782
MS.486         	12.28          	0.784
MS.487         	12.255         	0.748
MS.488         	12.23          	0.732
MS.489         	12.207         	0.785
MS.490         	12.182         	0.721
MS.491         	12.157         	0.718
MS.492         	12.132         	0.781
MS.493         	12.11          	0.754
MS.494         	12.085         	0.684
MS.495         	12.06          	0.729
MS.496         	12.037         	0.656
MS.497         	12.012         	0.674
MS.498         	11.99          	0.728
MS.499         	11.965         	0.632
MS.500         	11.94          	0.715
MS.501         	11.917         	0.753
MS.502         	11.892         	0.685
MS.503         	11.87          	0.674
