File:              	C:\Qtrac\Data\ME2C30713A.QZD
Name:              	 SH18U
Protocol:          	MSCAN-MV
Date:              	13/7/23
Date of birth:     	18/6/94
Age:               	29
Sex:               	F
Temperature:       	32.0
S/R sites:         	Knee CF-TA
NC/disease:        	NC
Operator:          	BY
Comments:
M-SCAN DATA (Repeat 1/3, 7.8-2.6m)
Scanpts: 33, 39, 370, 395
Stim. (mA)     	Amp. (mV)
MS.1           	20             	5.738
MS.2           	20             	5.685
MS.3           	20             	5.78
MS.4           	20             	5.829
MS.5           	20             	5.79
MS.6           	20             	5.853
MS.7           	20             	5.845
MS.8           	20             	5.817
MS.9           	20             	5.818
MS.10          	20             	5.866
MS.11          	20             	5.734
MS.12          	20             	5.838
MS.13          	20             	5.781
MS.14          	20             	5.782
MS.15          	20             	5.825
MS.16          	20             	5.796
MS.17          	20             	5.786
MS.18          	20             	5.848
MS.19          	20             	5.811
MS.20          	20             	5.866
MS.21          	20             	5.831
MS.22          	20             	5.88
MS.23          	20             	5.822
MS.24          	19.92          	5.844
MS.25          	19.88          	5.793
MS.26          	19.84          	5.773
MS.27          	19.8           	5.82
MS.28          	19.762         	5.851
MS.29          	19.722         	5.86
MS.30          	19.682         	5.917
MS.31          	19.642         	5.833
MS.32          	19.605         	5.779
MS.33          	19.565         	5.851
MS.34          	19.525         	5.894
MS.35          	19.487         	5.784
MS.36          	19.448         	5.837
MS.37          	19.41          	5.877
MS.38          	19.37          	5.854
MS.39          	19.333         	5.879
MS.40          	19.292         	5.852
MS.41          	19.255         	5.852
MS.42          	19.215         	5.817
MS.43          	19.177         	5.937
MS.44          	19.14          	5.856
MS.45          	19.1           	5.851
MS.46          	19.062         	5.861
MS.47          	19.025         	5.834
MS.48          	18.987         	5.761
MS.49          	18.948         	5.728
MS.50          	18.91          	5.869
MS.51          	18.872         	5.77
MS.52          	18.835         	5.776
MS.53          	18.797         	5.693
MS.54          	18.76          	5.681
MS.55          	18.722         	5.687
MS.56          	18.685         	5.75
MS.57          	18.647         	5.786
MS.58          	18.61          	5.757
MS.59          	18.573         	5.733
MS.60          	18.535         	5.692
MS.61          	18.5           	5.665
MS.62          	18.462         	5.715
MS.63          	18.425         	5.775
MS.64          	18.387         	5.684
MS.65          	18.352         	5.748
MS.66          	18.315         	5.712
MS.67          	18.278         	5.737
MS.68          	18.243         	5.694
MS.69          	18.205         	5.695
MS.70          	18.17          	5.671
MS.71          	18.132         	5.693
MS.72          	18.097         	5.71
MS.73          	18.06          	5.69
MS.74          	18.025         	5.685
MS.75          	17.987         	5.727
MS.76          	17.952         	5.672
MS.77          	17.917         	5.671
MS.78          	17.88          	5.701
MS.79          	17.845         	5.732
MS.80          	17.81          	5.682
MS.81          	17.775         	5.659
MS.82          	17.737         	5.636
MS.83          	17.702         	5.63
MS.84          	17.667         	5.656
MS.85          	17.632         	5.614
MS.86          	17.597         	5.733
MS.87          	17.562         	5.651
MS.88          	17.528         	5.634
MS.89          	17.493         	5.648
MS.90          	17.458         	5.649
MS.91          	17.422         	5.632
MS.92          	17.387         	5.594
MS.93          	17.352         	5.634
MS.94          	17.317         	5.646
MS.95          	17.282         	5.623
MS.96          	17.247         	5.609
MS.97          	17.215         	5.596
MS.98          	17.18          	5.554
MS.99          	17.145         	5.54
MS.100         	17.11          	5.522
MS.101         	17.077         	5.564
MS.102         	17.042         	5.584
MS.103         	17.01          	5.519
MS.104         	16.975         	5.491
MS.105         	16.94          	5.526
MS.106         	16.907         	5.518
MS.107         	16.872         	5.477
MS.108         	16.84          	5.52
MS.109         	16.805         	5.568
MS.110         	16.772         	5.46
MS.111         	16.74          	5.442
MS.112         	16.705         	5.461
MS.113         	16.672         	5.445
MS.114         	16.637         	5.425
MS.115         	16.605         	5.416
MS.116         	16.573         	5.422
MS.117         	16.54          	5.374
MS.118         	16.505         	5.215
MS.119         	16.472         	5.306
MS.120         	16.44          	5.239
MS.121         	16.407         	5.32
MS.122         	16.375         	5.266
MS.123         	16.342         	5.302
MS.124         	16.31          	5.226
MS.125         	16.278         	5.162
MS.126         	16.245         	5.262
MS.127         	16.212         	5.185
MS.128         	16.18          	5.119
MS.129         	16.147         	5.12
MS.130         	16.115         	5.07
MS.131         	16.083         	5.054
MS.132         	16.05          	4.982
MS.133         	16.017         	4.874
MS.134         	15.985         	4.796
MS.135         	15.955         	4.787
MS.136         	15.922         	4.816
MS.137         	15.89          	4.872
MS.138         	15.86          	4.813
MS.139         	15.827         	4.698
MS.140         	15.795         	4.556
MS.141         	15.765         	4.494
MS.142         	15.733         	4.532
MS.143         	15.7           	4.547
MS.144         	15.67          	4.507
MS.145         	15.637         	4.493
MS.146         	15.608         	4.377
MS.147         	15.575         	4.492
MS.148         	15.545         	4.42
MS.149         	15.515         	4.435
MS.150         	15.483         	4.357
MS.151         	15.452         	4.431
MS.152         	15.42          	4.355
MS.153         	15.39          	4.364
MS.154         	15.36          	4.214
MS.155         	15.327         	4.226
MS.156         	15.297         	4.188
MS.157         	15.267         	4.135
MS.158         	15.237         	4.294
MS.159         	15.207         	4.263
MS.160         	15.175         	4.194
MS.161         	15.145         	4.166
MS.162         	15.115         	4.207
MS.163         	15.085         	4.074
MS.164         	15.055         	4.136
MS.165         	15.025         	3.969
MS.166         	14.995         	3.927
MS.167         	14.965         	3.885
MS.168         	14.935         	3.893
MS.169         	14.905         	3.928
MS.170         	14.875         	3.934
MS.171         	14.845         	3.962
MS.172         	14.818         	3.929
MS.173         	14.787         	3.924
MS.174         	14.757         	3.773
MS.175         	14.727         	3.858
MS.176         	14.697         	3.842
MS.177         	14.67          	3.68
MS.178         	14.64          	3.851
MS.179         	14.61          	3.763
MS.180         	14.58          	3.557
MS.181         	14.552         	3.595
MS.182         	14.523         	3.553
MS.183         	14.495         	3.53
MS.184         	14.465         	3.456
MS.185         	14.435         	3.374
MS.186         	14.407         	3.378
MS.187         	14.377         	3.459
MS.188         	14.35          	3.295
MS.189         	14.32          	3.414
MS.190         	14.292         	3.231
MS.191         	14.265         	3.293
MS.192         	14.235         	3.248
MS.193         	14.207         	3.147
MS.194         	14.177         	3.201
MS.195         	14.15          	3.134
MS.196         	14.122         	3.162
MS.197         	14.092         	3.178
MS.198         	14.065         	3.078
MS.199         	14.037         	2.988
MS.200         	14.01          	2.883
MS.201         	13.983         	2.877
MS.202         	13.952         	2.896
MS.203         	13.925         	2.814
MS.204         	13.898         	2.82
MS.205         	13.87          	2.93
MS.206         	13.842         	2.727
MS.207         	13.815         	2.751
MS.208         	13.787         	2.794
MS.209         	13.76          	2.75
MS.210         	13.733         	2.605
MS.211         	13.705         	2.545
MS.212         	13.677         	2.63
MS.213         	13.65          	2.598
MS.214         	13.622         	2.523
MS.215         	13.595         	2.617
MS.216         	13.568         	2.503
MS.217         	13.54          	2.437
MS.218         	13.515         	2.407
MS.219         	13.487         	2.256
MS.220         	13.46          	2.213
MS.221         	13.432         	2.186
MS.222         	13.407         	2.348
MS.223         	13.38          	2.359
MS.224         	13.352         	2.305
MS.225         	13.325         	2.217
MS.226         	13.3           	2.12
MS.227         	13.273         	2.167
MS.228         	13.247         	2.004
MS.229         	13.22          	1.827
MS.230         	13.193         	1.949
MS.231         	13.167         	1.793
MS.232         	13.14          	1.853
MS.233         	13.115         	1.72
MS.234         	13.087         	1.782
MS.235         	13.062         	1.766
MS.236         	13.035         	1.557
MS.237         	13.01          	1.543
MS.238         	12.985         	1.614
MS.239         	12.957         	1.611
MS.240         	12.932         	1.594
MS.241         	12.907         	1.548
MS.242         	12.88          	1.406
MS.243         	12.855         	1.548
MS.244         	12.83          	1.382
MS.245         	12.802         	1.42
MS.246         	12.778         	1.419
MS.247         	12.752         	1.458
MS.248         	12.727         	1.334
MS.249         	12.702         	1.202
MS.250         	12.675         	1.254
MS.251         	12.65          	1.218
MS.252         	12.625         	1.115
MS.253         	12.6           	1.152
MS.254         	12.575         	1.128
MS.255         	12.55          	1.066
MS.256         	12.525         	1.086
MS.257         	12.5           	1.052
MS.258         	12.475         	1.073
MS.259         	12.45          	1.091
MS.260         	12.425         	0.996
MS.261         	12.4           	0.883
MS.262         	12.375         	0.79
MS.263         	12.35          	0.774
MS.264         	12.325         	0.848
MS.265         	12.302         	0.688
MS.266         	12.278         	0.751
MS.267         	12.252         	0.574
MS.268         	12.227         	0.802
MS.269         	12.202         	0.627
MS.270         	12.18          	0.59
MS.271         	12.155         	0.592
MS.272         	12.13          	0.591
MS.273         	12.108         	0.526
MS.274         	12.082         	0.558
MS.275         	12.057         	0.424
MS.276         	12.035         	0.422
MS.277         	12.01          	0.39
MS.278         	11.985         	0.396
MS.279         	11.962         	0.318
MS.280         	11.938         	0.376
MS.281         	11.915         	0.308
MS.282         	11.89          	0.269
MS.283         	11.867         	0.236
MS.284         	11.842         	0.162
MS.285         	11.82          	0.134
MS.286         	11.795         	0.12
MS.287         	11.773         	0.004
MS.288         	11.747         	0.08
MS.289         	11.725         	0.102
MS.290         	11.702         	0.067
MS.291         	11.677         	-0.043
MS.292         	11.655         	-0.054
MS.293         	11.632         	0.018
MS.294         	11.608         	0.065
MS.295         	11.585         	-0.007
MS.296         	11.562         	0.073
MS.297         	11.54          	-0.038
MS.298         	11.515         	-0.107
MS.299         	11.492         	-0.125
MS.300         	11.47          	0.014
MS.301         	11.447         	-0.063
MS.302         	11.425         	-0.139
MS.303         	11.403         	-0.17
MS.304         	11.377         	-0.07
MS.305         	11.355         	-0.233
MS.306         	11.332         	-0.135
MS.307         	11.31          	-0.204
MS.308         	11.287         	-0.176
MS.309         	11.265         	-0.24
MS.310         	11.242         	-0.288
MS.311         	11.22          	-0.285
MS.312         	11.197         	-0.336
MS.313         	11.175         	-0.349
MS.314         	11.153         	-0.318
MS.315         	11.13          	-0.425
MS.316         	11.108         	-0.405
MS.317         	11.087         	-0.334
MS.318         	11.065         	-0.335
MS.319         	11.042         	-0.379
MS.320         	11.02          	-0.382
MS.321         	10.997         	-0.352
MS.322         	10.975         	-0.448
MS.323         	10.955         	-0.519
MS.324         	10.932         	-0.504
MS.325         	10.91          	-0.506
MS.326         	10.887         	-0.482
MS.327         	10.867         	-0.477
MS.328         	10.845         	-0.524
MS.329         	10.823         	-0.585
MS.330         	10.802         	-0.572
MS.331         	10.78          	-0.565
MS.332         	10.76          	-0.627
MS.333         	10.738         	-0.587
MS.334         	10.715         	-0.677
MS.335         	10.695         	-0.617
MS.336         	10.672         	-0.643
MS.337         	10.653         	-0.707
MS.338         	10.63          	-0.626
MS.339         	10.61          	-0.655
MS.340         	10.587         	-0.708
MS.341         	10.568         	-0.765
MS.342         	10.545         	-0.732
MS.343         	10.525         	-0.762
MS.344         	10.502         	-0.732
MS.345         	10.483         	-0.786
MS.346         	10.462         	-0.739
MS.347         	10.44          	-0.778
MS.348         	10.42          	-0.76
MS.349         	10.4           	-0.825
MS.350         	10.377         	-0.784
MS.351         	10.358         	-0.859
MS.352         	10.337         	-0.794
MS.353         	10.318         	-0.822
MS.354         	10.295         	-0.825
MS.355         	10.275         	-0.855
MS.356         	10.255         	-0.807
MS.357         	10.235         	-0.833
MS.358         	10.212         	-0.847
MS.359         	10.193         	-0.863
MS.360         	10.172         	-0.914
MS.361         	10.153         	-0.876
MS.362         	10.132         	-0.849
MS.363         	10.113         	-0.895
MS.364         	10.092         	-0.917
MS.365         	10.073         	-0.903
MS.366         	10.052         	-0.865
MS.367         	10.032         	-0.872
MS.368         	10.012         	-0.898
MS.369         	9.992          	-0.891
MS.370         	9.972          	-0.878
MS.371         	9.952          	-0.908
MS.372         	9.932          	-0.873
MS.373         	9.912          	-0.889
MS.374         	9.892          	-0.866
MS.375         	9.872          	-0.931
MS.376         	9.852          	-0.891
MS.377         	9.832          	-0.867
MS.378         	9.812          	-0.915
MS.379         	9.792          	-0.861
MS.380         	9.775          	-0.859
MS.381         	9.755          	-0.873
MS.382         	9.735          	-0.883
MS.383         	9.715          	-0.892
MS.384         	9.695          	-0.919
MS.385         	9.677          	-0.905
MS.386         	9.657          	-0.881
MS.387         	9.637          	-0.899
MS.388         	9.62           	-0.848
MS.389         	9.6            	-0.88
MS.390         	9.58           	-0.893
MS.391         	9.562          	-0.874
MS.392         	9.542          	-0.872
MS.393         	9.523          	-0.909
MS.394         	9.505          	-0.889
MS.395         	9.485          	-0.885
MS.396         	9.465          	-0.909
MS.397         	9.448          	-0.878
MS.398         	9.427          	-0.848
MS.399         	9.41           	-0.904
MS.400         	9.39           	-0.886
MS.401         	9.372          	-0.895
MS.402         	9.352          	-0.91
MS.403         	9.335          	-0.9
MS.404         	9.315          	-0.861
MS.405         	9.297          	-0.836
MS.406         	9.28           	-0.831
MS.407         	9.26           	-0.851
MS.408         	9.242          	-0.898
MS.409         	9.222          	-0.872
MS.410         	9.205          	-0.863
MS.411         	9.188          	-0.914
MS.412         	9.167          	-0.865
MS.413         	9.15           	-0.857
MS.414         	9.132          	-0.87
MS.415         	9.113          	-0.867
MS.416         	9.095          	-0.84
MS.417         	9.077          	-0.875
MS.418         	9.057          	-0.86
MS.419         	9.04           	-0.818
MS.420         	9.023          	-0.875
MS.421         	9.005          	-0.886
MS.422         	8.988          	-0.874
MS.423         	8.967          	-0.868
MS.424         	8.95           	-0.81
MS.425         	8.932          	-0.842
MS.426         	8.915          	-0.881
MS.427         	8.898          	-0.847
MS.428         	8.88           	-0.83
MS.429         	8.863          	-0.803
MS.430         	8.845          	-0.847
MS.431         	8.825          	-0.861
MS.432         	8.807          	-0.817
MS.433         	8.79           	-0.853
DERIVED EXCITABILITY VARIABLES
Program = QTracP 27/06/2023
Threshold method = 6 (optimised for CAP, using data for present condition only)
SR method = 1 (using actual data values)
6.                 	0.000               	Peak response\(mV)
9.                 	32                  	Temperature ( C)
17.                	29                  	Age (years)
18.                	2                   	Sex (M=1, F=2)

EXTRA VARIABLES

MScPeak(mV) = 6.66
MScS5(mA) = 11.95
MScS50(mA) = 14.33
MScNSteps = 1
MScSteps(%) = 2.1
MScStepMax(%) = 2.1
MScD50 = 51
MScSlope = 4.77
MScDuration(min) = 5.8
MSFTraces = 363
MSFPeakAmp(mV) = 6.74
MSFNUnits = 192
MSFMeanUnitAmp(uV) = 35.1
MSFHuntTime(m) = 1.32
MSFError(%) = 2.87
MSFNLarge = 73.99
MSFMedianAmp(%) = 0.486
MSFMedianAmp(mV) = 0.0327
MSFHalfAmpAmp(%) = 0.541
MSFHalfAmpAmp(mV) = 0.0365
MSFLargestAmp(%) = 1.34
MSFLargestAmp(mV) = 0.0901
MSFMeanRS(%) = 1.99
MSFSizeLimit(uV) = 22.4
MSFLimitType = 1
MSFSmallestAmp(uV) = 22.7
MSFOpts = 10104222032
MSFSDMax = 36.3
MSFSDMin = 20

EXTRA WAVEFORMS


!MScan Model
!192
	1	10.25	0.55	2
	2	10.36	0.54	2
	3	10.44	0.64	2
	4	10.55	0.64	2
	5	10.6	0.45	2
	6	10.65	0.34	2
	7	10.69	0.41	2
	8	10.73	0.59	2
	9	10.81	0.72	2
	10	10.85	0.34	2
	11	10.91	0.61	2
	12	10.95	0.38	2
	13	10.99	0.39	2
	14	11.03	0.37	2
	15	11.07	0.35	2
	16	11.1	0.44	2
	17	11.14	0.43	2
	18	11.18	0.43	2
	19	11.22	0.43	2
	20	11.26	0.43	2
	21	11.32	0.69	2
	22	11.36	0.42	2
	23	11.41	0.65	2
	24	11.48	0.7	2
	25	11.59	0.95	2
	26	11.65	0.61	2
	27	11.7	0.72	2
	28	11.74	0.51	2
	29	11.78	0.44	2
	30	11.81	0.76	2
	31	11.87	0.71	2
	32	11.91	0.62	2
	33	11.93	0.35	2
	34	11.95	0.46	2
	35	11.98	0.76	2
	36	12.03	0.75	2
	37	12.06	0.74	2
	38	12.1	0.55	2
	39	12.12	0.42	2
	40	12.15	0.44	2
	41	12.17	0.43	2
	42	12.19	0.41	2
	43	12.21	0.39	2
	44	12.23	0.39	2
	45	12.25	0.39	2
	46	12.27	0.41	2
	47	12.29	0.41	2
	48	12.31	0.41	2
	49	12.34	0.44	2
	50	12.36	0.44	2
	51	12.38	0.39	2
	52	12.41	0.41	2
	53	12.43	0.42	2
	54	12.45	0.37	2
	55	12.47	0.38	2
	56	12.49	0.4	2
	57	12.51	0.4	2
	58	12.53	0.4	2
	59	12.55	0.38	2
	60	12.57	0.38	2
	61	12.59	0.44	2
	62	12.61	0.51	2
	63	12.64	0.52	2
	64	12.66	0.46	2
	65	12.68	0.4	2
	66	12.71	0.37	2
	67	12.73	0.36	2
	68	12.77	0.59	2
	69	12.79	0.35	2
	70	12.81	0.38	2
	71	12.84	0.44	2
	72	12.87	0.61	2
	73	12.9	0.61	2
	74	12.93	0.54	2
	75	12.95	0.35	2
	76	12.98	0.35	2
	77	13	0.4	2
	78	13.02	0.47	2
	79	13.04	0.53	2
	80	13.06	0.49	2
	81	13.08	0.47	2
	82	13.1	0.53	2
	83	13.13	0.54	2
	84	13.15	0.5	2
