File:              	C:\Qtrac\Data\ME2C30627A.QZD
Name:              	 ME22I
Protocol:          	MSCAN-MV
Date:              	27/6/23
Date of birth:     	22/2/02
Age:               	21
Sex:               	M
Temperature:       	33.5
S/R sites:         	Knee CF-TA
NC/disease:        	NC
Operator:          	BY
Comments:
M-SCAN DATA (Repeat 4/4, 35-24.6m)
Scanpts: 216, 232, 759, 826
Stim. (mA)     	Amp. (mV)
MS.1           	13             	8.106
MS.2           	13             	8.104
MS.3           	13             	8.061
MS.4           	13             	8.091
MS.5           	13             	8.106
MS.6           	13             	8.109
MS.7           	13             	8.134
MS.8           	13             	8.156
MS.9           	13             	8.143
MS.10          	13             	8.153
MS.11          	13             	8.141
MS.12          	13             	8.151
MS.13          	13             	8.105
MS.14          	13             	8.158
MS.15          	13             	8.149
MS.16          	13             	8.159
MS.17          	13             	8.201
MS.18          	13             	8.169
MS.19          	13             	8.153
MS.20          	13             	8.179
MS.21          	13             	8.185
MS.22          	13             	8.21
MS.23          	13             	8.192
MS.24          	12.975         	8.176
MS.25          	12.947         	8.198
MS.26          	12.922         	8.17
MS.27          	12.898         	8.204
MS.28          	12.87          	8.162
MS.29          	12.845         	8.196
MS.30          	12.82          	8.209
MS.31          	12.792         	8.188
MS.32          	12.767         	8.19
MS.33          	12.742         	8.209
MS.34          	12.717         	8.178
MS.35          	12.693         	8.203
MS.36          	12.667         	8.186
MS.37          	12.64          	8.215
MS.38          	12.615         	8.193
MS.39          	12.59          	8.217
MS.40          	12.565         	8.201
MS.41          	12.54          	8.25
MS.42          	12.515         	8.202
MS.43          	12.49          	8.229
MS.44          	12.465         	8.231
MS.45          	12.44          	8.244
MS.46          	12.415         	8.252
MS.47          	12.39          	8.215
MS.48          	12.365         	8.231
MS.49          	12.342         	8.243
MS.50          	12.318         	8.237
MS.51          	12.292         	8.269
MS.52          	12.267         	8.265
MS.53          	12.242         	8.256
MS.54          	12.217         	8.226
MS.55          	12.195         	8.255
MS.56          	12.17          	8.259
MS.57          	12.145         	8.3
MS.58          	12.12          	8.243
MS.59          	12.097         	8.315
MS.60          	12.072         	8.277
MS.61          	12.047         	8.271
MS.62          	12.025         	8.281
MS.63          	12             	8.286
MS.64          	11.977         	8.297
MS.65          	11.952         	8.325
MS.66          	11.927         	8.297
MS.67          	11.905         	8.3
MS.68          	11.88          	8.307
MS.69          	11.858         	8.296
MS.70          	11.832         	8.323
MS.71          	11.81          	8.328
MS.72          	11.787         	8.292
MS.73          	11.762         	8.336
MS.74          	11.74          	8.313
MS.75          	11.715         	8.302
MS.76          	11.693         	8.325
MS.77          	11.67          	8.318
MS.78          	11.645         	8.355
MS.79          	11.622         	8.365
MS.80          	11.6           	8.339
MS.81          	11.575         	8.333
MS.82          	11.552         	8.395
MS.83          	11.53          	8.362
MS.84          	11.507         	8.386
MS.85          	11.485         	8.336
MS.86          	11.46          	8.358
MS.87          	11.438         	8.354
MS.88          	11.415         	8.363
MS.89          	11.392         	8.35
MS.90          	11.37          	8.364
MS.91          	11.347         	8.339
MS.92          	11.325         	8.376
MS.93          	11.302         	8.372
MS.94          	11.28          	8.339
MS.95          	11.257         	8.355
MS.96          	11.235         	8.369
MS.97          	11.212         	8.356
MS.98          	11.19          	8.373
MS.99          	11.167         	8.404
MS.100         	11.145         	8.391
MS.101         	11.122         	8.361
MS.102         	11.1           	8.361
MS.103         	11.077         	8.354
MS.104         	11.055         	8.395
MS.105         	11.032         	8.375
MS.106         	11.012         	8.386
MS.107         	10.99          	8.405
MS.108         	10.967         	8.361
MS.109         	10.945         	8.372
MS.110         	10.925         	8.364
MS.111         	10.903         	8.398
MS.112         	10.88          	8.397
MS.113         	10.858         	8.375
MS.114         	10.837         	8.405
MS.115         	10.815         	8.365
MS.116         	10.792         	8.405
MS.117         	10.773         	8.396
MS.118         	10.75          	8.389
MS.119         	10.73          	8.419
MS.120         	10.707         	8.406
MS.121         	10.685         	8.406
MS.122         	10.665         	8.414
MS.123         	10.642         	8.405
MS.124         	10.622         	8.389
MS.125         	10.6           	8.409
MS.126         	10.58          	8.416
MS.127         	10.557         	8.444
MS.128         	10.537         	8.433
MS.129         	10.517         	8.389
MS.130         	10.495         	8.442
MS.131         	10.475         	8.387
MS.132         	10.452         	8.418
MS.133         	10.432         	8.459
MS.134         	10.412         	8.445
MS.135         	10.39          	8.422
MS.136         	10.37          	8.433
MS.137         	10.35          	8.42
MS.138         	10.33          	8.476
MS.139         	10.307         	8.416
MS.140         	10.287         	8.469
MS.141         	10.267         	8.484
MS.142         	10.247         	8.464
MS.143         	10.225         	8.516
MS.144         	10.205         	8.527
MS.145         	10.185         	8.508
MS.146         	10.165         	8.464
MS.147         	10.145         	8.475
MS.148         	10.125         	8.472
MS.149         	10.105         	8.506
MS.150         	10.085         	8.508
MS.151         	10.065         	8.487
MS.152         	10.042         	8.544
MS.153         	10.023         	8.439
MS.154         	10.002         	8.553
MS.155         	9.983          	8.566
MS.156         	9.962          	8.469
MS.157         	9.945          	8.517
MS.158         	9.925          	8.539
MS.159         	9.905          	8.568
MS.160         	9.885          	8.492
MS.161         	9.865          	8.438
MS.162         	9.845          	8.541
MS.163         	9.825          	8.566
MS.164         	9.805          	8.553
MS.165         	9.785          	8.566
MS.166         	9.767          	8.524
MS.167         	9.747          	8.544
MS.168         	9.727          	8.357
MS.169         	9.707          	8.58
MS.170         	9.688          	8.442
MS.171         	9.67           	8.481
MS.172         	9.65           	8.375
MS.173         	9.63           	8.354
MS.174         	9.613          	8.493
MS.175         	9.592          	8.569
MS.176         	9.573          	8.326
MS.177         	9.555          	8.447
MS.178         	9.535          	8.5
MS.179         	9.515          	8.504
MS.180         	9.497          	8.538
MS.181         	9.477          	8.526
MS.182         	9.46           	8.599
MS.183         	9.44           	8.541
MS.184         	9.42           	8.502
MS.185         	9.403          	8.534
MS.186         	9.382          	8.417
MS.187         	9.365          	8.411
MS.188         	9.345          	8.278
MS.189         	9.327          	8.48
MS.190         	9.307          	8.539
MS.191         	9.29           	8.245
MS.192         	9.273          	8.263
MS.193         	9.252          	8.231
MS.194         	9.235          	8.307
MS.195         	9.215          	8.338
MS.196         	9.198          	8.522
MS.197         	9.18           	8.406
MS.198         	9.16           	8.598
MS.199         	9.142          	8.568
MS.200         	9.125          	8.585
MS.201         	9.105          	8.438
MS.202         	9.087          	8.613
MS.203         	9.07           	8.351
MS.204         	9.052          	8.583
MS.205         	9.033          	8.368
MS.206         	9.015          	8.369
MS.207         	8.997          	8.383
MS.208         	8.98           	8.227
MS.209         	8.962          	8.366
MS.210         	8.943          	8.408
MS.211         	8.925          	8.393
MS.212         	8.908          	8.501
MS.213         	8.89           	8.291
MS.214         	8.872          	8.375
MS.215         	8.855          	8.265
MS.216         	8.837          	8.314
MS.217         	8.82           	8.589
MS.218         	8.802          	8.43
MS.219         	8.785          	8.469
MS.220         	8.767          	8.542
MS.221         	8.75           	8.472
MS.222         	8.733          	8.531
MS.223         	8.715          	8.585
MS.224         	8.698          	8.488
MS.225         	8.68           	8.553
MS.226         	8.662          	8.564
MS.227         	8.645          	8.616
MS.228         	8.627          	8.636
MS.229         	8.61           	8.56
MS.230         	8.592          	8.561
MS.231         	8.575          	8.533
MS.232         	8.557          	8.517
MS.233         	8.542          	8.548
MS.234         	8.525          	8.611
MS.235         	8.507          	8.423
MS.236         	8.49           	8.471
MS.237         	8.472          	8.601
MS.238         	8.457          	8.71
MS.239         	8.44           	8.489
MS.240         	8.422          	8.702
MS.241         	8.405          	8.793
MS.242         	8.39           	8.644
MS.243         	8.372          	8.473
MS.244         	8.355          	8.687
MS.245         	8.34           	8.698
MS.246         	8.323          	8.751
MS.247         	8.305          	8.577
MS.248         	8.29           	8.466
MS.249         	8.273          	8.518
MS.250         	8.255          	8.467
MS.251         	8.24           	8.596
MS.252         	8.222          	8.483
MS.253         	8.207          	8.627
MS.254         	8.19           	8.754
MS.255         	8.175          	8.563
MS.256         	8.158          	8.392
MS.257         	8.142          	8.384
MS.258         	8.125          	8.261
MS.259         	8.11           	8.354
MS.260         	8.092          	8.307
MS.261         	8.077          	8.544
MS.262         	8.06           	8.29
MS.263         	8.045          	8.618
MS.264         	8.028          	8.339
MS.265         	8.012          	8.303
MS.266         	7.995          	8.566
MS.267         	7.98           	8.252
MS.268         	7.965          	8.309
MS.269         	7.947          	8.311
MS.270         	7.932          	8.315
MS.271         	7.918          	7.832
MS.272         	7.9            	8.243
MS.273         	7.885          	8.054
MS.274         	7.87           	8.344
MS.275         	7.852          	8.154
MS.276         	7.837          	8.112
MS.277         	7.822          	8.127
MS.278         	7.807          	8.163
MS.279         	7.79           	7.95
MS.280         	7.775          	7.847
MS.281         	7.76           	8.177
MS.282         	7.745          	8.165
MS.283         	7.73           	8.032
MS.284         	7.712          	8.179
MS.285         	7.697          	7.866
MS.286         	7.682          	7.985
MS.287         	7.668          	7.927
MS.288         	7.652          	7.969
MS.289         	7.637          	7.808
MS.290         	7.622          	7.901
MS.291         	7.605          	7.872
MS.292         	7.59           	7.538
MS.293         	7.575          	7.938
MS.294         	7.56           	7.744
MS.295         	7.545          	7.572
MS.296         	7.53           	8.165
MS.297         	7.515          	7.358
MS.298         	7.5            	7.617
MS.299         	7.485          	7.527
MS.300         	7.47           	7.74
MS.301         	7.455          	7.701
MS.302         	7.44           	7.33
MS.303         	7.425          	7.619
MS.304         	7.41           	7.564
MS.305         	7.395          	7.634
MS.306         	7.382          	7.293
MS.307         	7.367          	7.469
MS.308         	7.352          	7.299
MS.309         	7.337          	7.546
MS.310         	7.322          	7.477
MS.311         	7.307          	7.33
MS.312         	7.293          	7.582
MS.313         	7.277          	7.46
MS.314         	7.265          	7.078
MS.315         	7.25           	6.986
MS.316         	7.235          	7.247
MS.317         	7.22           	7.047
MS.318         	7.207          	7.014
MS.319         	7.192          	7.101
MS.320         	7.177          	6.769
MS.321         	7.162          	6.868
MS.322         	7.15           	6.804
MS.323         	7.135          	6.652
MS.324         	7.12           	6.829
MS.325         	7.105          	7.01
MS.326         	7.092          	6.899
MS.327         	7.077          	6.754
MS.328         	7.062          	7.072
MS.329         	7.05           	6.824
MS.330         	7.035          	6.595
MS.331         	7.023          	6.608
MS.332         	7.007          	6.505
MS.333         	6.992          	6.671
MS.334         	6.98           	6.569
MS.335         	6.965          	6.596
MS.336         	6.952          	6.89
MS.337         	6.938          	6.669
MS.338         	6.922          	6.543
MS.339         	6.91           	6.694
MS.340         	6.895          	6.277
MS.341         	6.882          	6.617
MS.342         	6.867          	6.51
MS.343         	6.855          	6.46
MS.344         	6.84           	6.571
MS.345         	6.827          	6.087
MS.346         	6.815          	6.381
MS.347         	6.8            	6.052
MS.348         	6.787          	6.146
MS.349         	6.773          	6.172
MS.350         	6.76           	6.466
MS.351         	6.745          	6.465
MS.352         	6.733          	6.193
MS.353         	6.72           	5.958
MS.354         	6.705          	6.086
MS.355         	6.692          	5.979
MS.356         	6.68           	5.822
MS.357         	6.665          	6.086
MS.358         	6.652          	5.753
MS.359         	6.64           	5.901
MS.360         	6.625          	5.729
MS.361         	6.612          	5.452
MS.362         	6.6            	5.663
MS.363         	6.585          	6.08
MS.364         	6.572          	5.612
MS.365         	6.56           	5.666
MS.366         	6.547          	5.393
MS.367         	6.532          	5.645
MS.368         	6.52           	5.838
MS.369         	6.507          	5.529
MS.370         	6.495          	5.577
MS.371         	6.483          	5.578
MS.372         	6.467          	5.475
MS.373         	6.455          	5.31
MS.374         	6.442          	5.342
MS.375         	6.43           	5.002
MS.376         	6.418          	5.196
MS.377         	6.405          	5.125
MS.378         	6.392          	4.993
MS.379         	6.378          	5.176
MS.380         	6.365          	4.901
MS.381         	6.352          	4.788
MS.382         	6.34           	4.957
MS.383         	6.327          	5.07
MS.384         	6.315          	5.191
MS.385         	6.302          	4.949
MS.386         	6.29           	4.72
MS.387         	6.277          	4.54
MS.388         	6.265          	4.629
MS.389         	6.253          	5.101
MS.390         	6.24           	4.523
MS.391         	6.227          	4.528
MS.392         	6.215          	4.486
MS.393         	6.202          	4.604
MS.394         	6.19           	4.669
MS.395         	6.177          	4.403
MS.396         	6.165          	4.24
MS.397         	6.152          	4.444
MS.398         	6.14           	4.136
MS.399         	6.128          	4.409
MS.400         	6.117          	4.196
MS.401         	6.105          	4.17
MS.402         	6.092          	4.143
MS.403         	6.08           	4.21
MS.404         	6.067          	4.229
MS.405         	6.055          	3.552
MS.406         	6.043          	4.182
MS.407         	6.03           	3.984
MS.408         	6.02           	3.713
MS.409         	6.007          	3.948
MS.410         	5.995          	3.698
MS.411         	5.983          	3.587
MS.412         	5.97           	3.685
MS.413         	5.96           	3.637
MS.414         	5.947          	3.595
MS.415         	5.935          	3.735
MS.416         	5.922          	3.473
MS.417         	5.912          	3.517
MS.418         	5.9            	3.493
MS.419         	5.887          	3.305
MS.420         	5.878          	3.625
MS.421         	5.865          	3.599
MS.422         	5.852          	3.478
MS.423         	5.842          	3.311
MS.424         	5.83           	3.491
MS.425         	5.817          	3.257
MS.426         	5.807          	3.243
MS.427         	5.795          	3.101
MS.428         	5.782          	3.135
MS.429         	5.773          	3.175
MS.430         	5.76           	3.295
MS.431         	5.747          	3.047
MS.432         	5.737          	3.001
MS.433         	5.725          	3.012
MS.434         	5.715          	2.862
MS.435         	5.702          	2.933
MS.436         	5.692          	2.892
MS.437         	5.68           	3.007
MS.438         	5.668          	2.721
MS.439         	5.657          	3.042
MS.440         	5.645          	2.885
MS.441         	5.635          	2.669
MS.442         	5.622          	2.714
MS.443         	5.612          	2.718
MS.444         	5.6            	2.781
MS.445         	5.59           	2.612
MS.446         	5.577          	2.622
MS.447         	5.567          	2.624
MS.448         	5.557          	2.551
MS.449         	5.545          	2.46
MS.450         	5.535          	2.717
MS.451         	5.523          	2.358
MS.452         	5.512          	2.524
MS.453         	5.5            	2.471
MS.454         	5.49           	2.472
MS.455         	5.48           	2.404
MS.456         	5.467          	2.251
MS.457         	5.457          	2.424
MS.458         	5.447          	2.037
MS.459         	5.435          	2.256
MS.460         	5.425          	2.175
MS.461         	5.415          	2.02
MS.462         	5.402          	2.219
MS.463         	5.392          	2.198
MS.464         	5.382          	2.128
MS.465         	5.37           	1.951
MS.466         	5.36           	2.037
MS.467         	5.35           	2.188
MS.468         	5.338          	1.904
MS.469         	5.327          	1.895
MS.470         	5.318          	1.689
MS.471         	5.307          	1.727
MS.472         	5.295          	1.762
MS.473         	5.285          	1.608
MS.474         	5.275          	1.65
MS.475         	5.265          	1.585
MS.476         	5.255          	1.724
MS.477         	5.242          	1.683
MS.478         	5.233          	1.578
MS.479         	5.222          	1.519
MS.480         	5.213          	1.18
MS.481         	5.202          	1.405
MS.482         	5.19           	1.434
MS.483         	5.18           	1.407
MS.484         	5.17           	1.644
MS.485         	5.16           	1.166
MS.486         	5.15           	1.245
MS.487         	5.14           	1.176
MS.488         	5.13           	1.214
MS.489         	5.12           	1.151
MS.490         	5.108          	1.263
MS.491         	5.097          	1.281
MS.492         	5.088          	1.235
MS.493         	5.077          	1.19
MS.494         	5.068          	1.065
MS.495         	5.057          	1.23
MS.496         	5.047          	0.906
MS.497         	5.037          	1.141
MS.498         	5.027          	1.005
MS.499         	5.017          	1.038
MS.500         	5.007          	1.038
MS.501         	4.997          	0.969
MS.502         	4.987          	0.974
MS.503         	4.977          	0.945
