File:              	C:\Qtrac\Data\ME2C30630C.QZD
Name:              	 HA08E
Protocol:          	MSCAN-MV
Date:              	30/6/23
Date of birth:     	8/7/04
Age:               	18
Sex:               	F
Temperature:       	31.7
S/R sites:         	Knee CF-TA
NC/disease:        	NC
Operator:          	BY
Comments:
M-SCAN DATA (Repeat 2/3, 26.9-18.3m)
Scanpts: 5, 23, 650, 690
Stim. (mA)     	Amp. (mV)
MS.1           	27.5           	4.875
MS.2           	27.5           	4.798
MS.3           	27.5           	4.808
MS.4           	27.5           	4.774
MS.5           	27.5           	4.794
MS.6           	27.5           	4.818
MS.7           	27.5           	4.81
MS.8           	27.5           	4.81
MS.9           	27.5           	4.807
MS.10          	27.5           	4.813
MS.11          	27.5           	4.791
MS.12          	27.5           	4.875
MS.13          	27.5           	4.875
MS.14          	27.5           	4.852
MS.15          	27.5           	4.866
MS.16          	27.5           	4.83
MS.17          	27.5           	4.791
MS.18          	27.5           	4.809
MS.19          	27.5           	4.783
MS.20          	27.5           	4.786
MS.21          	27.5           	4.778
MS.22          	27.5           	4.741
MS.23          	27.5           	4.758
MS.24          	27.445         	4.752
MS.25          	27.39          	4.793
MS.26          	27.335         	4.777
MS.27          	27.28          	4.733
MS.28          	27.227         	4.738
MS.29          	27.172         	4.72
MS.30          	27.118         	4.747
MS.31          	27.062         	4.736
MS.32          	27.01          	4.764
MS.33          	26.955         	4.727
MS.34          	26.903         	4.744
MS.35          	26.847         	4.738
MS.36          	26.795         	4.738
MS.37          	26.74          	4.724
MS.38          	26.688         	4.732
MS.39          	26.635         	4.727
MS.40          	26.58          	4.659
MS.41          	26.528         	4.79
MS.42          	26.475         	4.76
MS.43          	26.422         	4.768
MS.44          	26.37          	4.74
MS.45          	26.315         	4.736
MS.46          	26.262         	4.756
MS.47          	26.21          	4.759
MS.48          	26.16          	4.694
MS.49          	26.108         	4.734
MS.50          	26.055         	4.719
MS.51          	26.002         	4.73
MS.52          	25.95          	4.687
MS.53          	25.897         	4.7
MS.54          	25.847         	4.722
MS.55          	25.795         	4.739
MS.56          	25.743         	4.712
MS.57          	25.692         	4.756
MS.58          	25.64          	4.706
MS.59          	25.59          	4.731
MS.60          	25.538         	4.622
MS.61          	25.487         	4.647
MS.62          	25.438         	4.727
MS.63          	25.385         	4.668
MS.64          	25.335         	4.683
MS.65          	25.285         	4.683
MS.66          	25.235         	4.706
MS.67          	25.182         	4.659
MS.68          	25.132         	4.653
MS.69          	25.082         	4.653
MS.70          	25.032         	4.636
MS.71          	24.983         	4.606
MS.72          	24.932         	4.665
MS.73          	24.882         	4.659
MS.74          	24.832         	4.676
MS.75          	24.782         	4.63
MS.76          	24.735         	4.64
MS.77          	24.685         	4.656
MS.78          	24.635         	4.67
MS.79          	24.585         	4.612
MS.80          	24.538         	4.626
MS.81          	24.487         	4.598
MS.82          	24.44          	4.594
MS.83          	24.39          	4.57
MS.84          	24.342         	4.515
MS.85          	24.292         	4.556
MS.86          	24.245         	4.521
MS.87          	24.195         	4.517
MS.88          	24.147         	4.465
MS.89          	24.1           	4.461
MS.90          	24.05          	4.485
MS.91          	24.002         	4.51
MS.92          	23.955         	4.469
MS.93          	23.907         	4.523
MS.94          	23.86          	4.449
MS.95          	23.812         	4.47
MS.96          	23.765         	4.481
MS.97          	23.717         	4.507
MS.98          	23.67          	4.418
MS.99          	23.622         	4.453
MS.100         	23.575         	4.436
MS.101         	23.528         	4.479
MS.102         	23.48          	4.365
MS.103         	23.435         	4.41
MS.104         	23.387         	4.428
MS.105         	23.34          	4.368
MS.106         	23.295         	4.348
MS.107         	23.247         	4.41
MS.108         	23.2           	4.395
MS.109         	23.155         	4.336
MS.110         	23.108         	4.34
MS.111         	23.062         	4.354
MS.112         	23.015         	4.321
MS.113         	22.97          	4.268
MS.114         	22.925         	4.348
MS.115         	22.877         	4.234
MS.116         	22.832         	4.332
MS.117         	22.788         	4.22
MS.118         	22.743         	4.254
MS.119         	22.695         	4.22
MS.120         	22.65          	4.244
MS.121         	22.605         	4.254
MS.122         	22.56          	4.164
MS.123         	22.515         	4.189
MS.124         	22.47          	4.188
MS.125         	22.425         	4.167
MS.126         	22.38          	4.13
MS.127         	22.335         	4.182
MS.128         	22.29          	4.163
MS.129         	22.247         	4.138
MS.130         	22.202         	4.146
MS.131         	22.157         	4.194
MS.132         	22.112         	4.189
MS.133         	22.07          	4.163
MS.134         	22.025         	4.036
MS.135         	21.98          	4.084
MS.136         	21.938         	4.01
MS.137         	21.892         	4.125
MS.138         	21.85          	4.092
MS.139         	21.805         	4.022
MS.140         	21.762         	4.064
MS.141         	21.72          	3.949
MS.142         	21.675         	3.968
MS.143         	21.632         	4.053
MS.144         	21.59          	3.935
MS.145         	21.545         	3.932
MS.146         	21.502         	3.992
MS.147         	21.46          	3.92
MS.148         	21.417         	3.936
MS.149         	21.375         	3.937
MS.150         	21.333         	3.995
MS.151         	21.29          	3.82
MS.152         	21.247         	3.833
MS.153         	21.205         	3.879
MS.154         	21.163         	3.719
MS.155         	21.12          	3.748
MS.156         	21.077         	3.823
MS.157         	21.035         	3.616
MS.158         	20.993         	3.793
MS.159         	20.95          	3.751
MS.160         	20.91          	3.727
MS.161         	20.868         	3.613
MS.162         	20.825         	3.678
MS.163         	20.785         	3.574
MS.164         	20.743         	3.598
MS.165         	20.7           	3.58
MS.166         	20.66          	3.546
MS.167         	20.618         	3.448
MS.168         	20.577         	3.498
MS.169         	20.535         	3.483
MS.170         	20.495         	3.528
MS.171         	20.455         	3.406
MS.172         	20.413         	3.384
MS.173         	20.372         	3.43
MS.174         	20.333         	3.414
MS.175         	20.29          	3.403
MS.176         	20.25          	3.338
MS.177         	20.21          	3.398
MS.178         	20.17          	3.329
MS.179         	20.13          	3.214
MS.180         	20.09          	3.26
MS.181         	20.05          	3.192
MS.182         	20.01          	3.089
MS.183         	19.97          	3.102
MS.184         	19.93          	3.104
MS.185         	19.89          	3.193
MS.186         	19.85          	3.082
MS.187         	19.81          	3.103
MS.188         	19.77          	3.125
MS.189         	19.73          	3.019
MS.190         	19.692         	2.953
MS.191         	19.653         	2.952
MS.192         	19.612         	3.03
MS.193         	19.573         	2.934
MS.194         	19.535         	3.058
MS.195         	19.495         	2.957
MS.196         	19.458         	2.953
MS.197         	19.417         	2.973
MS.198         	19.38          	2.945
MS.199         	19.34          	2.83
MS.200         	19.302         	2.844
MS.201         	19.262         	2.826
MS.202         	19.225         	2.811
MS.203         	19.185         	2.794
MS.204         	19.147         	2.82
MS.205         	19.11          	2.756
MS.206         	19.073         	2.772
MS.207         	19.032         	2.787
MS.208         	18.995         	2.795
MS.209         	18.958         	2.761
MS.210         	18.92          	2.748
MS.211         	18.882         	2.746
MS.212         	18.845         	2.74
MS.213         	18.805         	2.726
MS.214         	18.767         	2.711
MS.215         	18.73          	2.715
MS.216         	18.692         	2.679
MS.217         	18.657         	2.679
MS.218         	18.62          	2.699
MS.219         	18.583         	2.702
MS.220         	18.545         	2.684
MS.221         	18.507         	2.672
MS.222         	18.47          	2.604
MS.223         	18.435         	2.645
MS.224         	18.397         	2.651
MS.225         	18.36          	2.615
MS.226         	18.323         	2.601
MS.227         	18.288         	2.603
MS.228         	18.25          	2.585
MS.229         	18.215         	2.581
MS.230         	18.177         	2.577
MS.231         	18.14          	2.533
MS.232         	18.105         	2.532
MS.233         	18.07          	2.552
MS.234         	18.032         	2.414
MS.235         	17.997         	2.479
MS.236         	17.96          	2.463
MS.237         	17.925         	2.438
MS.238         	17.89          	2.493
MS.239         	17.852         	2.479
MS.240         	17.817         	2.43
MS.241         	17.782         	2.433
MS.242         	17.747         	2.411
MS.243         	17.71          	2.354
MS.244         	17.675         	2.395
MS.245         	17.64          	2.393
MS.246         	17.605         	2.422
MS.247         	17.57          	2.381
MS.248         	17.535         	2.402
MS.249         	17.5           	2.331
MS.250         	17.465         	2.316
MS.251         	17.43          	2.299
MS.252         	17.395         	2.35
MS.253         	17.36          	2.295
MS.254         	17.325         	2.252
MS.255         	17.29          	2.236
MS.256         	17.257         	2.286
MS.257         	17.222         	2.288
MS.258         	17.188         	2.245
MS.259         	17.153         	2.207
MS.260         	17.12          	2.205
MS.261         	17.085         	2.194
MS.262         	17.05          	2.227
MS.263         	17.017         	2.224
MS.264         	16.983         	2.173
MS.265         	16.948         	2.184
MS.266         	16.915         	2.15
MS.267         	16.88          	2.15
MS.268         	16.847         	2.102
MS.269         	16.812         	2.078
MS.270         	16.78          	2.164
MS.271         	16.747         	2.054
MS.272         	16.712         	2.054
MS.273         	16.68          	2.037
MS.274         	16.647         	2.052
MS.275         	16.612         	2.04
MS.276         	16.58          	2.036
MS.277         	16.547         	2.041
MS.278         	16.512         	1.929
MS.279         	16.48          	1.968
MS.280         	16.448         	2.002
MS.281         	16.415         	1.979
MS.282         	16.382         	1.946
MS.283         	16.35          	1.949
MS.284         	16.317         	1.961
MS.285         	16.285         	1.949
MS.286         	16.253         	1.942
MS.287         	16.22          	1.88
MS.288         	16.188         	1.917
MS.289         	16.155         	1.916
MS.290         	16.122         	1.868
MS.291         	16.09          	1.854
MS.292         	16.057         	1.884
MS.293         	16.025         	1.756
MS.294         	15.992         	1.799
MS.295         	15.962         	1.837
MS.296         	15.93          	1.805
MS.297         	15.898         	1.754
MS.298         	15.865         	1.789
MS.299         	15.835         	1.688
MS.300         	15.802         	1.766
MS.301         	15.77          	1.729
MS.302         	15.74          	1.712
MS.303         	15.707         	1.678
MS.304         	15.677         	1.635
MS.305         	15.645         	1.685
MS.306         	15.615         	1.716
MS.307         	15.582         	1.644
MS.308         	15.552         	1.634
MS.309         	15.52          	1.626
MS.310         	15.49          	1.624
MS.311         	15.46          	1.602
MS.312         	15.427         	1.66
MS.313         	15.398         	1.559
MS.314         	15.367         	1.6
MS.315         	15.335         	1.54
MS.316         	15.305         	1.551
MS.317         	15.275         	1.569
MS.318         	15.245         	1.555
MS.319         	15.212         	1.516
MS.320         	15.182         	1.515
MS.321         	15.152         	1.474
MS.322         	15.122         	1.457
MS.323         	15.092         	1.465
MS.324         	15.062         	1.459
MS.325         	15.032         	1.407
MS.326         	15.002         	1.367
MS.327         	14.972         	1.389
MS.328         	14.943         	1.329
MS.329         	14.912         	1.351
MS.330         	14.882         	1.352
MS.331         	14.852         	1.38
MS.332         	14.822         	1.323
MS.333         	14.792         	1.343
MS.334         	14.765         	1.313
MS.335         	14.735         	1.283
MS.336         	14.705         	1.268
MS.337         	14.675         	1.182
MS.338         	14.648         	1.168
MS.339         	14.617         	1.257
MS.340         	14.587         	1.227
MS.341         	14.557         	1.206
MS.342         	14.53          	1.121
MS.343         	14.5           	1.077
MS.344         	14.472         	1.152
MS.345         	14.443         	1.112
MS.346         	14.415         	1.036
MS.347         	14.385         	1.061
MS.348         	14.358         	0.97
MS.349         	14.327         	1.057
MS.350         	14.3           	1.022
MS.351         	14.27          	1.069
MS.352         	14.242         	1.012
MS.353         	14.212         	0.978
MS.354         	14.185         	1.057
MS.355         	14.157         	0.898
MS.356         	14.127         	0.972
MS.357         	14.1           	0.906
MS.358         	14.072         	0.911
MS.359         	14.045         	0.988
MS.360         	14.015         	0.989
MS.361         	13.987         	0.903
MS.362         	13.96          	1.021
MS.363         	13.932         	0.865
MS.364         	13.905         	0.897
MS.365         	13.877         	0.81
MS.366         	13.847         	0.81
MS.367         	13.82          	0.854
MS.368         	13.792         	0.842
MS.369         	13.765         	0.773
MS.370         	13.737         	0.837
MS.371         	13.71          	0.795
MS.372         	13.682         	0.833
MS.373         	13.655         	0.736
MS.374         	13.63          	0.725
MS.375         	13.602         	0.757
MS.376         	13.575         	0.718
MS.377         	13.547         	0.726
MS.378         	13.52          	0.707
MS.379         	13.492         	0.698
MS.380         	13.467         	0.734
MS.381         	13.44          	0.683
MS.382         	13.412         	0.635
MS.383         	13.385         	0.649
MS.384         	13.36          	0.699
MS.385         	13.332         	0.651
MS.386         	13.305         	0.677
MS.387         	13.28          	0.657
MS.388         	13.252         	0.677
MS.389         	13.225         	0.62
MS.390         	13.2           	0.679
MS.391         	13.172         	0.623
MS.392         	13.148         	0.554
MS.393         	13.12          	0.56
MS.394         	13.095         	0.624
MS.395         	13.068         	0.488
MS.396         	13.042         	0.607
MS.397         	13.015         	0.59
MS.398         	12.99          	0.624
MS.399         	12.965         	0.491
MS.400         	12.938         	0.517
MS.401         	12.912         	0.471
MS.402         	12.887         	0.486
MS.403         	12.86          	0.475
MS.404         	12.835         	0.433
MS.405         	12.81          	0.456
MS.406         	12.785         	0.449
MS.407         	12.757         	0.464
MS.408         	12.733         	0.45
MS.409         	12.707         	0.435
MS.410         	12.682         	0.504
MS.411         	12.657         	0.422
MS.412         	12.632         	0.44
MS.413         	12.605         	0.436
MS.414         	12.58          	0.433
MS.415         	12.555         	0.395
MS.416         	12.53          	0.356
MS.417         	12.505         	0.403
MS.418         	12.48          	0.368
MS.419         	12.455         	0.422
MS.420         	12.43          	0.359
MS.421         	12.405         	0.344
MS.422         	12.382         	0.397
MS.423         	12.358         	0.363
MS.424         	12.332         	0.359
MS.425         	12.307         	0.339
MS.426         	12.282         	0.361
MS.427         	12.257         	0.338
MS.428         	12.233         	0.344
MS.429         	12.21          	0.35
MS.430         	12.185         	0.352
MS.431         	12.16          	0.334
MS.432         	12.135         	0.302
MS.433         	12.113         	0.305
MS.434         	12.087         	0.316
MS.435         	12.062         	0.296
MS.436         	12.04          	0.287
MS.437         	12.015         	0.284
MS.438         	11.992         	0.272
MS.439         	11.967         	0.276
MS.440         	11.943         	0.258
MS.441         	11.92          	0.278
MS.442         	11.895         	0.272
MS.443         	11.872         	0.251
MS.444         	11.847         	0.277
MS.445         	11.825         	0.262
MS.446         	11.8           	0.25
MS.447         	11.778         	0.248
MS.448         	11.755         	0.247
MS.449         	11.73          	0.231
MS.450         	11.707         	0.226
MS.451         	11.682         	0.203
MS.452         	11.66          	0.256
MS.453         	11.637         	0.194
MS.454         	11.613         	0.186
MS.455         	11.59          	0.188
MS.456         	11.568         	0.209
MS.457         	11.545         	0.216
MS.458         	11.52          	0.211
MS.459         	11.497         	0.189
MS.460         	11.475         	0.206
MS.461         	11.452         	0.195
MS.462         	11.43          	0.2
MS.463         	11.407         	0.181
MS.464         	11.382         	0.174
MS.465         	11.36          	0.162
MS.466         	11.337         	0.189
MS.467         	11.315         	0.183
MS.468         	11.292         	0.185
MS.469         	11.27          	0.172
MS.470         	11.247         	0.14
MS.471         	11.225         	0.162
MS.472         	11.202         	0.165
MS.473         	11.18          	0.161
MS.474         	11.157         	0.142
MS.475         	11.135         	0.145
MS.476         	11.115         	0.16
MS.477         	11.092         	0.168
MS.478         	11.07          	0.149
MS.479         	11.047         	0.174
MS.480         	11.025         	0.153
MS.481         	11.002         	0.163
MS.482         	10.98          	0.156
MS.483         	10.96          	0.146
MS.484         	10.938         	0.146
MS.485         	10.915         	0.15
MS.486         	10.892         	0.132
MS.487         	10.872         	0.129
MS.488         	10.85          	0.158
MS.489         	10.827         	0.128
MS.490         	10.807         	0.128
MS.491         	10.785         	0.129
MS.492         	10.765         	0.132
MS.493         	10.742         	0.124
MS.494         	10.72          	0.128
MS.495         	10.7           	0.142
MS.496         	10.677         	0.128
MS.497         	10.657         	0.108
MS.498         	10.635         	0.11
MS.499         	10.615         	0.114
MS.500         	10.592         	0.113
MS.501         	10.573         	0.127
MS.502         	10.55          	0.134
MS.503         	10.53          	0.126
