File:              	C:\Qtrac\Data\ME2C30629A.QZD
Name:              	 HA02N
Protocol:          	MSCAN-MV
Date:              	29/6/23
Date of birth:     	2/3/00
Age:               	23
Sex:               	M
Temperature:       	33.7
S/R sites:         	Knee CF-TA
NC/disease:        	NC
Operator:          	BY
Comments:
M-SCAN DATA (Repeat 1/3, 12.5-2.6m)
Scanpts: 47, 77, 622, 654
Stim. (mA)     	Amp. (mV)
MS.1           	15             	5.023
MS.2           	15             	5.1
MS.3           	15             	4.985
MS.4           	15             	5.143
MS.5           	15             	5.08
MS.6           	15             	5.067
MS.7           	15             	5.089
MS.8           	15             	5.087
MS.9           	15             	5.065
MS.10          	15             	5.048
MS.11          	15             	4.961
MS.12          	15             	5.101
MS.13          	15             	5.134
MS.14          	15             	5.071
MS.15          	15             	5.036
MS.16          	15             	5.032
MS.17          	15             	4.967
MS.18          	15             	5.092
MS.19          	15             	5.054
MS.20          	15             	4.945
MS.21          	15             	5.059
MS.22          	15             	5.131
MS.23          	15             	4.941
MS.24          	14.94          	5.094
MS.25          	14.91          	5.06
MS.26          	14.88          	4.975
MS.27          	14.85          	5.118
MS.28          	14.82          	5.107
MS.29          	14.792         	4.964
MS.30          	14.762         	4.944
MS.31          	14.733         	4.964
MS.32          	14.702         	5.147
MS.33          	14.672         	4.976
MS.34          	14.645         	4.914
MS.35          	14.615         	4.958
MS.36          	14.585         	4.998
MS.37          	14.557         	4.952
MS.38          	14.527         	5.103
MS.39          	14.497         	4.988
MS.40          	14.47          	5.027
MS.41          	14.44          	5.107
MS.42          	14.412         	4.987
MS.43          	14.382         	4.981
MS.44          	14.355         	4.964
MS.45          	14.325         	4.985
MS.46          	14.297         	4.994
MS.47          	14.267         	5.007
MS.48          	14.24          	4.96
MS.49          	14.212         	5.014
MS.50          	14.182         	4.939
MS.51          	14.155         	4.951
MS.52          	14.127         	4.981
MS.53          	14.097         	4.991
MS.54          	14.07          	4.96
MS.55          	14.042         	4.995
MS.56          	14.015         	4.973
MS.57          	13.985         	4.977
MS.58          	13.957         	4.979
MS.59          	13.93          	4.977
MS.60          	13.903         	5.024
MS.61          	13.875         	4.968
MS.62          	13.847         	4.952
MS.63          	13.82          	5.042
MS.64          	13.792         	4.98
MS.65          	13.765         	4.946
MS.66          	13.737         	4.99
MS.67          	13.71          	4.983
MS.68          	13.682         	4.952
MS.69          	13.655         	4.996
MS.70          	13.627         	4.966
MS.71          	13.6           	4.959
MS.72          	13.572         	5.021
MS.73          	13.545         	4.985
MS.74          	13.517         	4.971
MS.75          	13.492         	4.993
MS.76          	13.465         	4.929
MS.77          	13.438         	4.995
MS.78          	13.41          	4.984
MS.79          	13.385         	4.94
MS.80          	13.358         	4.944
MS.81          	13.33          	4.94
MS.82          	13.305         	4.936
MS.83          	13.278         	4.965
MS.84          	13.25          	4.93
MS.85          	13.225         	4.908
MS.86          	13.197         	4.929
MS.87          	13.172         	4.901
MS.88          	13.145         	4.909
MS.89          	13.12          	4.935
MS.90          	13.092         	4.96
MS.91          	13.068         	4.939
MS.92          	13.04          	4.924
MS.93          	13.015         	4.924
MS.94          	12.987         	4.953
MS.95          	12.962         	4.927
MS.96          	12.938         	4.953
MS.97          	12.91          	4.94
MS.98          	12.885         	4.984
MS.99          	12.86          	4.965
MS.100         	12.832         	4.925
MS.101         	12.807         	4.93
MS.102         	12.782         	4.945
MS.103         	12.757         	4.976
MS.104         	12.73          	4.901
MS.105         	12.705         	4.987
MS.106         	12.68          	4.947
MS.107         	12.655         	4.918
MS.108         	12.63          	4.935
MS.109         	12.605         	4.965
MS.110         	12.58          	4.998
MS.111         	12.555         	4.966
MS.112         	12.53          	4.965
MS.113         	12.505         	4.958
MS.114         	12.48          	4.979
MS.115         	12.455         	4.915
MS.116         	12.43          	4.957
MS.117         	12.405         	4.965
MS.118         	12.38          	4.962
MS.119         	12.355         	4.926
MS.120         	12.33          	4.952
MS.121         	12.305         	4.891
MS.122         	12.28          	4.961
MS.123         	12.257         	4.971
MS.124         	12.233         	4.982
MS.125         	12.207         	4.929
MS.126         	12.182         	4.975
MS.127         	12.157         	4.939
MS.128         	12.135         	4.941
MS.129         	12.11          	4.941
MS.130         	12.085         	4.926
MS.131         	12.062         	4.937
MS.132         	12.037         	4.966
MS.133         	12.012         	4.934
MS.134         	11.99          	4.934
MS.135         	11.965         	4.939
MS.136         	11.943         	4.92
MS.137         	11.917         	4.921
MS.138         	11.895         	4.94
MS.139         	11.87          	4.991
MS.140         	11.847         	4.911
MS.141         	11.822         	4.903
MS.142         	11.8           	4.909
MS.143         	11.775         	4.906
MS.144         	11.752         	4.94
MS.145         	11.73          	4.954
MS.146         	11.705         	4.918
MS.147         	11.682         	4.943
MS.148         	11.657         	4.94
MS.149         	11.635         	4.963
MS.150         	11.613         	4.946
MS.151         	11.59          	4.921
MS.152         	11.565         	4.882
MS.153         	11.542         	4.95
MS.154         	11.52          	4.936
MS.155         	11.497         	4.916
MS.156         	11.472         	4.908
MS.157         	11.45          	4.948
MS.158         	11.427         	4.946
MS.159         	11.405         	4.911
MS.160         	11.382         	4.962
MS.161         	11.36          	4.901
MS.162         	11.337         	4.855
MS.163         	11.315         	4.962
MS.164         	11.292         	4.92
MS.165         	11.27          	4.945
MS.166         	11.247         	4.933
MS.167         	11.225         	4.926
MS.168         	11.202         	4.971
MS.169         	11.18          	4.917
MS.170         	11.157         	4.916
MS.171         	11.135         	4.879
MS.172         	11.113         	4.888
MS.173         	11.09          	4.907
MS.174         	11.068         	5.025
MS.175         	11.045         	4.916
MS.176         	11.023         	4.896
MS.177         	11.002         	4.953
MS.178         	10.98          	4.88
MS.179         	10.957         	4.916
MS.180         	10.935         	4.951
MS.181         	10.915         	4.916
MS.182         	10.892         	4.932
MS.183         	10.87          	4.933
MS.184         	10.847         	4.901
MS.185         	10.827         	4.91
MS.186         	10.805         	4.957
MS.187         	10.785         	4.879
MS.188         	10.762         	4.871
MS.189         	10.74          	4.894
MS.190         	10.72          	4.902
MS.191         	10.698         	4.883
MS.192         	10.677         	4.905
MS.193         	10.655         	4.888
MS.194         	10.635         	4.951
MS.195         	10.613         	4.864
MS.196         	10.592         	4.906
MS.197         	10.57          	4.891
MS.198         	10.55          	4.921
MS.199         	10.528         	4.913
MS.200         	10.507         	4.913
MS.201         	10.485         	4.868
MS.202         	10.465         	4.89
MS.203         	10.445         	4.907
MS.204         	10.422         	4.869
MS.205         	10.403         	4.941
MS.206         	10.382         	4.905
MS.207         	10.36          	4.867
MS.208         	10.34          	4.919
MS.209         	10.32          	4.879
MS.210         	10.3           	4.866
MS.211         	10.278         	4.807
MS.212         	10.257         	4.868
MS.213         	10.238         	4.904
MS.214         	10.217         	4.826
MS.215         	10.198         	4.849
MS.216         	10.175         	4.91
MS.217         	10.155         	4.833
MS.218         	10.135         	4.91
MS.219         	10.115         	4.893
MS.220         	10.095         	4.855
MS.221         	10.075         	4.82
MS.222         	10.055         	4.881
MS.223         	10.035         	4.863
MS.224         	10.015         	4.804
MS.225         	9.995          	4.796
MS.226         	9.975          	4.778
MS.227         	9.955          	4.8
MS.228         	9.935          	4.805
MS.229         	9.915          	4.857
MS.230         	9.895          	4.786
MS.231         	9.875          	4.785
MS.232         	9.855          	4.753
MS.233         	9.835          	4.847
MS.234         	9.818          	4.758
MS.235         	9.797          	4.695
MS.236         	9.778          	4.752
MS.237         	9.757          	4.741
MS.238         	9.738          	4.734
MS.239         	9.717          	4.666
MS.240         	9.7            	4.719
MS.241         	9.68           	4.771
MS.242         	9.66           	4.697
MS.243         	9.64           	4.744
MS.244         	9.622          	4.747
MS.245         	9.602          	4.679
MS.246         	9.582          	4.682
MS.247         	9.565          	4.745
MS.248         	9.545          	4.708
MS.249         	9.525          	4.7
MS.250         	9.507          	4.717
MS.251         	9.488          	4.713
MS.252         	9.47           	4.73
MS.253         	9.45           	4.718
MS.254         	9.432          	4.692
MS.255         	9.412          	4.689
MS.256         	9.395          	4.724
MS.257         	9.375          	4.672
MS.258         	9.358          	4.687
MS.259         	9.337          	4.691
MS.260         	9.32           	4.621
MS.261         	9.3            	4.758
MS.262         	9.283          	4.668
MS.263         	9.262          	4.635
MS.264         	9.245          	4.637
MS.265         	9.225          	4.688
MS.266         	9.207          	4.641
MS.267         	9.19           	4.628
MS.268         	9.17           	4.615
MS.269         	9.153          	4.64
MS.270         	9.135          	4.671
MS.271         	9.115          	4.619
MS.272         	9.097          	4.673
MS.273         	9.08           	4.639
MS.274         	9.062          	4.638
MS.275         	9.042          	4.638
MS.276         	9.025          	4.633
MS.277         	9.007          	4.654
MS.278         	8.99           	4.63
MS.279         	8.972          	4.644
MS.280         	8.952          	4.649
MS.281         	8.935          	4.623
MS.282         	8.917          	4.597
MS.283         	8.9            	4.651
MS.284         	8.882          	4.587
MS.285         	8.865          	4.627
MS.286         	8.847          	4.641
MS.287         	8.83           	4.648
MS.288         	8.812          	4.564
MS.289         	8.795          	4.479
MS.290         	8.775          	4.532
MS.291         	8.757          	4.439
MS.292         	8.74           	4.401
MS.293         	8.722          	4.533
MS.294         	8.707          	4.507
MS.295         	8.69           	4.398
MS.296         	8.672          	4.43
MS.297         	8.655          	4.407
MS.298         	8.637          	4.442
MS.299         	8.62           	4.48
MS.300         	8.602          	4.488
MS.301         	8.585          	4.428
MS.302         	8.568          	4.389
MS.303         	8.55           	4.425
MS.304         	8.535          	4.408
MS.305         	8.517          	4.507
MS.306         	8.5            	4.434
MS.307         	8.483          	4.406
MS.308         	8.465          	4.445
MS.309         	8.45           	4.429
MS.310         	8.432          	4.424
MS.311         	8.415          	4.352
MS.312         	8.398          	4.371
MS.313         	8.382          	4.4
MS.314         	8.365          	4.468
MS.315         	8.347          	4.444
MS.316         	8.332          	4.327
MS.317         	8.315          	4.351
MS.318         	8.297          	4.422
MS.319         	8.283          	4.358
MS.320         	8.265          	4.438
MS.321         	8.247          	4.359
MS.322         	8.233          	4.371
MS.323         	8.215          	4.366
MS.324         	8.2            	4.402
MS.325         	8.182          	4.352
MS.326         	8.167          	4.35
MS.327         	8.15           	4.352
MS.328         	8.135          	4.243
MS.329         	8.117          	4.307
MS.330         	8.102          	4.283
MS.331         	8.085          	4.294
MS.332         	8.07           	4.299
MS.333         	8.052          	4.428
MS.334         	8.037          	4.299
MS.335         	8.02           	4.268
MS.336         	8.005          	4.352
MS.337         	7.99           	4.29
MS.338         	7.972          	4.299
MS.339         	7.957          	4.213
MS.340         	7.94           	4.322
MS.341         	7.925          	4.239
MS.342         	7.91           	4.254
MS.343         	7.892          	4.208
MS.344         	7.878          	4.192
MS.345         	7.862          	4.182
MS.346         	7.847          	4.197
MS.347         	7.83           	4.122
MS.348         	7.815          	4.127
MS.349         	7.8            	4.213
MS.350         	7.785          	4.102
MS.351         	7.767          	4.072
MS.352         	7.753          	4.165
MS.353         	7.737          	4.026
MS.354         	7.722          	4.026
MS.355         	7.707          	4.048
MS.356         	7.69           	4.064
MS.357         	7.675          	4.039
MS.358         	7.66           	4.036
MS.359         	7.645          	4.027
MS.360         	7.63           	3.921
MS.361         	7.615          	3.931
MS.362         	7.6            	3.976
MS.363         	7.585          	3.881
MS.364         	7.57           	3.856
MS.365         	7.555          	3.728
MS.366         	7.537          	3.818
MS.367         	7.523          	3.893
MS.368         	7.507          	3.884
MS.369         	7.492          	3.823
MS.370         	7.477          	3.735
MS.371         	7.462          	3.752
MS.372         	7.447          	3.801
MS.373         	7.435          	3.739
MS.374         	7.42           	3.641
MS.375         	7.405          	3.726
MS.376         	7.39           	3.594
MS.377         	7.375          	3.55
MS.378         	7.36           	3.605
MS.379         	7.345          	3.695
MS.380         	7.33           	3.539
MS.381         	7.315          	3.339
MS.382         	7.302          	3.432
MS.383         	7.287          	3.257
MS.384         	7.273          	3.37
MS.385         	7.257          	3.396
MS.386         	7.242          	3.516
MS.387         	7.227          	3.386
MS.388         	7.215          	3.464
MS.389         	7.2            	3.376
MS.390         	7.185          	3.354
MS.391         	7.17           	3.282
MS.392         	7.157          	3.193
MS.393         	7.142          	3.227
MS.394         	7.128          	3.301
MS.395         	7.115          	3.305
MS.396         	7.1            	3.305
MS.397         	7.085          	3.273
MS.398         	7.072          	3.426
MS.399         	7.057          	3.33
MS.400         	7.043          	3.096
MS.401         	7.03           	3.248
MS.402         	7.015          	3.137
MS.403         	7              	3.149
MS.404         	6.987          	3.11
MS.405         	6.972          	3.127
MS.406         	6.96           	3.193
MS.407         	6.945          	3.08
MS.408         	6.932          	3.07
MS.409         	6.918          	3.167
MS.410         	6.902          	3.023
MS.411         	6.89           	3.109
MS.412         	6.875          	2.972
MS.413         	6.862          	3.024
MS.414         	6.847          	2.968
MS.415         	6.835          	3.054
MS.416         	6.822          	3.013
MS.417         	6.807          	2.803
MS.418         	6.795          	2.901
MS.419         	6.78           	2.922
MS.420         	6.767          	2.886
MS.421         	6.753          	2.829
MS.422         	6.74           	2.859
MS.423         	6.727          	2.719
MS.424         	6.712          	2.822
MS.425         	6.7            	2.647
MS.426         	6.685          	2.849
MS.427         	6.672          	2.704
MS.428         	6.66           	2.859
MS.429         	6.645          	2.654
MS.430         	6.632          	2.578
MS.431         	6.62           	2.611
MS.432         	6.608          	2.454
MS.433         	6.592          	2.615
MS.434         	6.58           	2.459
MS.435         	6.567          	2.512
MS.436         	6.555          	2.614
MS.437         	6.54           	2.6
MS.438         	6.527          	2.498
MS.439         	6.515          	2.553
MS.440         	6.503          	2.425
MS.441         	6.487          	2.374
MS.442         	6.475          	2.271
MS.443         	6.462          	2.192
MS.444         	6.45           	2.31
MS.445         	6.438          	2.27
MS.446         	6.425          	2.221
MS.447         	6.41           	2.109
MS.448         	6.398          	2.147
MS.449         	6.385          	2.175
MS.450         	6.372          	2.17
MS.451         	6.36           	2.042
MS.452         	6.347          	1.989
MS.453         	6.335          	1.964
MS.454         	6.322          	2.032
MS.455         	6.31           	1.993
MS.456         	6.297          	1.96
MS.457         	6.285          	1.942
MS.458         	6.273          	1.891
MS.459         	6.26           	1.817
MS.460         	6.247          	1.874
MS.461         	6.235          	1.843
MS.462         	6.222          	1.833
MS.463         	6.21           	1.76
MS.464         	6.197          	1.766
MS.465         	6.185          	1.724
MS.466         	6.172          	1.675
MS.467         	6.16           	1.571
MS.468         	6.148          	1.605
MS.469         	6.135          	1.472
MS.470         	6.122          	1.484
MS.471         	6.11           	1.478
MS.472         	6.097          	1.518
MS.473         	6.088          	1.436
MS.474         	6.075          	1.489
MS.475         	6.062          	1.217
MS.476         	6.05           	1.209
MS.477         	6.037          	1.394
MS.478         	6.025          	1.38
MS.479         	6.012          	1.39
MS.480         	6.003          	1.389
MS.481         	5.99           	1.376
MS.482         	5.977          	1.223
MS.483         	5.965          	1.183
MS.484         	5.955          	1.177
MS.485         	5.942          	1.115
MS.486         	5.93           	1.058
MS.487         	5.918          	1.095
MS.488         	5.907          	0.986
MS.489         	5.895          	0.953
MS.490         	5.882          	1.105
MS.491         	5.87           	0.887
MS.492         	5.86           	0.995
MS.493         	5.847          	0.977
MS.494         	5.835          	1.044
MS.495         	5.825          	0.915
MS.496         	5.812          	0.77
MS.497         	5.8            	0.876
MS.498         	5.79           	0.723
MS.499         	5.777          	0.827
MS.500         	5.767          	0.733
MS.501         	5.755          	0.677
MS.502         	5.742          	0.766
MS.503         	5.733          	0.653
