File:              	C:\Qtrac\Data\ME2C30627C.QZD
Name:              	 AR18E
Protocol:          	MSCAN-MV
Date:              	27/6/23
Date of birth:     	18/10/02
Age:               	20
Sex:               	M
Temperature:       	31.7
S/R sites:         	Knee CF-TA
NC/disease:        	NC
Operator:          	KJ
Comments:
M-SCAN DATA (Repeat 2/3, 16.8-10.8m)
Scanpts: 32, 43, 463, 493
Stim. (mA)     	Amp. (mV)
MS.1           	25.5           	5.173
MS.2           	25.5           	5.236
MS.3           	25.5           	5.208
MS.4           	25.5           	5.207
MS.5           	25.5           	5.251
MS.6           	25.5           	5.246
MS.7           	25.5           	5.24
MS.8           	25.5           	5.22
MS.9           	25.5           	5.182
MS.10          	25.5           	5.212
MS.11          	25.5           	5.236
MS.12          	25.5           	5.176
MS.13          	25.5           	5.196
MS.14          	25.5           	5.152
MS.15          	25.5           	5.17
MS.16          	25.5           	5.175
MS.17          	25.5           	5.205
MS.18          	25.5           	5.186
MS.19          	25.5           	5.25
MS.20          	25.5           	5.179
MS.21          	25.5           	5.204
MS.22          	25.5           	5.226
MS.23          	25.5           	5.19
MS.24          	25.45          	5.19
MS.25          	25.397         	5.191
MS.26          	25.347         	5.191
MS.27          	25.297         	5.187
MS.28          	25.247         	5.242
MS.29          	25.195         	5.199
MS.30          	25.145         	5.202
MS.31          	25.095         	5.212
MS.32          	25.045         	5.178
MS.33          	24.995         	5.231
MS.34          	24.945         	5.168
MS.35          	24.895         	5.223
MS.36          	24.845         	5.199
MS.37          	24.795         	5.214
MS.38          	24.747         	5.187
MS.39          	24.698         	5.234
MS.40          	24.647         	5.225
MS.41          	24.597         	5.225
MS.42          	24.55          	5.157
MS.43          	24.5           	5.211
MS.44          	24.45          	5.173
MS.45          	24.403         	5.176
MS.46          	24.352         	5.228
MS.47          	24.305         	5.168
MS.48          	24.257         	5.241
MS.49          	24.207         	5.173
MS.50          	24.16          	5.208
MS.51          	24.11          	5.199
MS.52          	24.062         	5.175
MS.53          	24.015         	5.208
MS.54          	23.967         	5.183
MS.55          	23.92          	5.15
MS.56          	23.872         	5.2
MS.57          	23.823         	5.178
MS.58          	23.775         	5.172
MS.59          	23.727         	5.143
MS.60          	23.68          	5.172
MS.61          	23.635         	5.139
MS.62          	23.587         	5.109
MS.63          	23.54          	5.128
MS.64          	23.493         	5.134
MS.65          	23.445         	5.073
MS.66          	23.397         	5.108
MS.67          	23.352         	5.079
MS.68          	23.305         	5.131
MS.69          	23.257         	5.077
MS.70          	23.212         	5.109
MS.71          	23.165         	5.048
MS.72          	23.12          	5.103
MS.73          	23.073         	5.106
MS.74          	23.028         	5.053
MS.75          	22.98          	5.063
MS.76          	22.935         	5.076
MS.77          	22.89          	5.057
MS.78          	22.845         	5.051
MS.79          	22.797         	5.071
MS.80          	22.752         	5.033
MS.81          	22.707         	5.089
MS.82          	22.663         	5.085
MS.83          	22.618         	5.058
MS.84          	22.573         	5.007
MS.85          	22.525         	5.026
MS.86          	22.48          	5.01
MS.87          	22.438         	4.99
MS.88          	22.392         	4.944
MS.89          	22.347         	4.986
MS.90          	22.302         	5.008
MS.91          	22.257         	4.93
MS.92          	22.212         	4.944
MS.93          	22.167         	4.896
MS.94          	22.125         	4.834
MS.95          	22.08          	4.907
MS.96          	22.035         	4.972
MS.97          	21.993         	4.88
MS.98          	21.948         	4.957
MS.99          	21.905         	4.907
MS.100         	21.86          	4.949
MS.101         	21.817         	4.919
MS.102         	21.772         	4.841
MS.103         	21.73          	4.81
MS.104         	21.688         	4.796
MS.105         	21.642         	4.817
MS.106         	21.6           	4.856
MS.107         	21.557         	4.865
MS.108         	21.512         	4.796
MS.109         	21.47          	4.808
MS.110         	21.427         	4.75
MS.111         	21.385         	4.753
MS.112         	21.342         	4.704
MS.113         	21.3           	4.785
MS.114         	21.257         	4.716
MS.115         	21.215         	4.68
MS.116         	21.172         	4.632
MS.117         	21.13          	4.614
MS.118         	21.087         	4.714
MS.119         	21.045         	4.617
MS.120         	21.002         	4.633
MS.121         	20.962         	4.571
MS.122         	20.92          	4.617
MS.123         	20.877         	4.577
MS.124         	20.835         	4.607
MS.125         	20.795         	4.542
MS.126         	20.752         	4.476
MS.127         	20.712         	4.514
MS.128         	20.67          	4.51
MS.129         	20.627         	4.621
MS.130         	20.587         	4.584
MS.131         	20.545         	4.52
MS.132         	20.505         	4.489
MS.133         	20.465         	4.564
MS.134         	20.422         	4.53
MS.135         	20.382         	4.452
MS.136         	20.342         	4.452
MS.137         	20.3           	4.408
MS.138         	20.26          	4.377
MS.139         	20.22          	4.421
MS.140         	20.18          	4.344
MS.141         	20.14          	4.415
MS.142         	20.1           	4.324
MS.143         	20.06          	4.302
MS.144         	20.02          	4.318
MS.145         	19.98          	4.242
MS.146         	19.94          	4.294
MS.147         	19.9           	4.229
MS.148         	19.86          	4.258
MS.149         	19.82          	4.156
MS.150         	19.78          	4.301
MS.151         	19.74          	4.055
MS.152         	19.7           	4.207
MS.153         	19.663         	4.104
MS.154         	19.622         	4.122
MS.155         	19.583         	4.104
MS.156         	19.545         	4.084
MS.157         	19.505         	4.092
MS.158         	19.465         	4.04
MS.159         	19.427         	4.01
MS.160         	19.387         	4.025
MS.161         	19.35          	4.13
MS.162         	19.31          	3.983
MS.163         	19.272         	4.046
MS.164         	19.235         	3.991
MS.165         	19.195         	3.982
MS.166         	19.157         	3.943
MS.167         	19.12          	3.918
MS.168         	19.08          	3.842
MS.169         	19.042         	3.827
MS.170         	19.005         	3.857
MS.171         	18.967         	3.766
MS.172         	18.927         	3.842
MS.173         	18.89          	3.779
MS.174         	18.852         	3.694
MS.175         	18.815         	3.682
MS.176         	18.778         	3.668
MS.177         	18.74          	3.691
MS.178         	18.702         	3.605
MS.179         	18.665         	3.576
MS.180         	18.628         	3.627
MS.181         	18.59          	3.51
MS.182         	18.555         	3.613
MS.183         	18.517         	3.491
MS.184         	18.48          	3.569
MS.185         	18.442         	3.554
MS.186         	18.405         	3.53
MS.187         	18.37          	3.556
MS.188         	18.333         	3.459
MS.189         	18.295         	3.307
MS.190         	18.26          	3.344
MS.191         	18.222         	3.414
MS.192         	18.188         	3.192
MS.193         	18.15          	3.312
MS.194         	18.115         	3.213
MS.195         	18.077         	3.255
MS.196         	18.042         	3.022
MS.197         	18.005         	3.135
MS.198         	17.97          	3.232
MS.199         	17.932         	3.16
MS.200         	17.897         	3.212
MS.201         	17.862         	3.022
MS.202         	17.827         	2.997
MS.203         	17.79          	3.002
MS.204         	17.755         	2.994
MS.205         	17.72          	2.943
MS.206         	17.685         	2.975
MS.207         	17.65          	2.858
MS.208         	17.612         	2.809
MS.209         	17.577         	2.803
MS.210         	17.542         	2.804
MS.211         	17.507         	2.842
MS.212         	17.472         	2.682
MS.213         	17.438         	2.788
MS.214         	17.403         	2.797
MS.215         	17.37          	2.751
MS.216         	17.335         	2.739
MS.217         	17.3           	2.507
MS.218         	17.265         	2.646
MS.219         	17.23          	2.733
MS.220         	17.195         	2.671
MS.221         	17.163         	2.598
MS.222         	17.128         	2.533
MS.223         	17.092         	2.491
MS.224         	17.06          	2.458
MS.225         	17.025         	2.425
MS.226         	16.99          	2.498
MS.227         	16.958         	2.404
MS.228         	16.922         	2.54
MS.229         	16.89          	2.384
MS.230         	16.855         	2.31
MS.231         	16.823         	2.367
MS.232         	16.788         	2.402
MS.233         	16.755         	2.339
MS.234         	16.72          	2.331
MS.235         	16.688         	2.311
MS.236         	16.655         	2.328
MS.237         	16.62          	2.119
MS.238         	16.587         	2.246
MS.239         	16.555         	2.294
MS.240         	16.522         	2.197
MS.241         	16.49          	2.159
MS.242         	16.455         	2.111
MS.243         	16.422         	2.191
MS.244         	16.39          	1.969
MS.245         	16.358         	2.057
MS.246         	16.325         	2.166
MS.247         	16.292         	1.978
MS.248         	16.26          	1.872
MS.249         	16.227         	1.805
MS.250         	16.195         	1.797
MS.251         	16.163         	1.798
MS.252         	16.13          	1.65
MS.253         	16.097         	1.64
MS.254         	16.065         	1.754
MS.255         	16.032         	1.665
MS.256         	16.003         	1.595
MS.257         	15.97          	1.623
MS.258         	15.938         	1.498
MS.259         	15.905         	1.516
MS.260         	15.875         	1.54
MS.261         	15.842         	1.481
MS.262         	15.81          	1.521
MS.263         	15.78          	1.326
MS.264         	15.747         	1.261
MS.265         	15.715         	1.218
MS.266         	15.685         	1.161
MS.267         	15.652         	1.217
MS.268         	15.622         	1.193
MS.269         	15.59          	1.245
MS.270         	15.56          	1.313
MS.271         	15.527         	1.114
MS.272         	15.497         	1.135
MS.273         	15.467         	1.193
MS.274         	15.435         	1.031
MS.275         	15.405         	0.99
MS.276         	15.375         	0.996
MS.277         	15.342         	0.955
MS.278         	15.312         	0.952
MS.279         	15.282         	0.927
MS.280         	15.252         	0.989
MS.281         	15.22          	0.923
MS.282         	15.19          	0.906
MS.283         	15.16          	0.813
MS.284         	15.13          	0.887
MS.285         	15.1           	0.816
MS.286         	15.07          	0.806
MS.287         	15.04          	0.811
MS.288         	15.01          	0.779
MS.289         	14.98          	0.672
MS.290         	14.95          	0.714
MS.291         	14.92          	0.681
MS.292         	14.89          	0.647
MS.293         	14.86          	0.585
MS.294         	14.83          	0.602
MS.295         	14.8           	0.574
MS.296         	14.77          	0.471
MS.297         	14.742         	0.528
MS.298         	14.712         	0.458
MS.299         	14.682         	0.382
MS.300         	14.652         	0.412
MS.301         	14.625         	0.392
MS.302         	14.595         	0.32
MS.303         	14.565         	0.346
MS.304         	14.537         	0.281
MS.305         	14.507         	0.368
MS.306         	14.477         	0.308
MS.307         	14.45          	0.206
MS.308         	14.42          	0.209
MS.309         	14.392         	0.167
MS.310         	14.362         	0.186
MS.311         	14.335         	0.137
MS.312         	14.305         	0.109
MS.313         	14.278         	0.157
MS.314         	14.25          	0.081
MS.315         	14.22          	0.165
MS.316         	14.193         	0.062
MS.317         	14.162         	-0.014
MS.318         	14.135         	-0.032
MS.319         	14.108         	-0.07
MS.320         	14.08          	-0.046
MS.321         	14.05          	-0.082
MS.322         	14.023         	-0.106
MS.323         	13.995         	-0.082
MS.324         	13.967         	-0.108
MS.325         	13.94          	-0.14
MS.326         	13.91          	-0.107
MS.327         	13.882         	-0.186
MS.328         	13.855         	-0.161
MS.329         	13.827         	-0.176
MS.330         	13.8           	-0.135
MS.331         	13.773         	-0.212
MS.332         	13.745         	-0.22
MS.333         	13.717         	-0.236
MS.334         	13.69          	-0.336
MS.335         	13.662         	-0.275
MS.336         	13.635         	-0.259
MS.337         	13.608         	-0.328
MS.338         	13.58          	-0.309
MS.339         	13.555         	-0.333
MS.340         	13.528         	-0.342
MS.341         	13.5           	-0.284
MS.342         	13.472         	-0.335
MS.343         	13.445         	-0.408
MS.344         	13.42          	-0.427
MS.345         	13.392         	-0.394
MS.346         	13.365         	-0.414
MS.347         	13.34          	-0.358
MS.348         	13.312         	-0.417
MS.349         	13.285         	-0.422
MS.350         	13.26          	-0.463
MS.351         	13.233         	-0.443
MS.352         	13.205         	-0.377
MS.353         	13.18          	-0.48
MS.354         	13.153         	-0.46
MS.355         	13.127         	-0.486
MS.356         	13.1           	-0.478
MS.357         	13.075         	-0.468
MS.358         	13.047         	-0.5
MS.359         	13.023         	-0.539
MS.360         	12.997         	-0.491
MS.361         	12.97          	-0.543
MS.362         	12.945         	-0.508
MS.363         	12.917         	-0.562
MS.364         	12.892         	-0.529
MS.365         	12.867         	-0.499
MS.366         	12.842         	-0.518
MS.367         	12.815         	-0.591
MS.368         	12.79          	-0.624
MS.369         	12.765         	-0.576
MS.370         	12.74          	-0.595
MS.371         	12.712         	-0.612
MS.372         	12.688         	-0.609
MS.373         	12.662         	-0.632
MS.374         	12.637         	-0.601
MS.375         	12.613         	-0.613
MS.376         	12.587         	-0.633
MS.377         	12.562         	-0.594
MS.378         	12.537         	-0.584
MS.379         	12.512         	-0.643
MS.380         	12.488         	-0.626
MS.381         	12.462         	-0.657
MS.382         	12.438         	-0.68
MS.383         	12.412         	-0.635
MS.384         	12.387         	-0.652
MS.385         	12.363         	-0.684
MS.386         	12.337         	-0.703
MS.387         	12.312         	-0.651
MS.388         	12.287         	-0.721
MS.389         	12.265         	-0.736
MS.390         	12.24          	-0.723
MS.391         	12.215         	-0.742
MS.392         	12.19          	-0.781
MS.393         	12.167         	-0.789
MS.394         	12.142         	-0.742
MS.395         	12.117         	-0.709
MS.396         	12.092         	-0.726
MS.397         	12.07          	-0.728
MS.398         	12.045         	-0.744
MS.399         	12.023         	-0.769
MS.400         	11.997         	-0.799
MS.401         	11.972         	-0.816
MS.402         	11.95          	-0.75
MS.403         	11.925         	-0.805
MS.404         	11.903         	-0.791
MS.405         	11.877         	-0.823
MS.406         	11.855         	-0.864
MS.407         	11.83          	-0.85
MS.408         	11.807         	-0.847
MS.409         	11.782         	-0.881
MS.410         	11.76          	-0.861
MS.411         	11.735         	-0.867
MS.412         	11.712         	-0.887
MS.413         	11.69          	-0.907
MS.414         	11.665         	-0.914
MS.415         	11.642         	-0.93
MS.416         	11.62          	-0.888
MS.417         	11.595         	-0.975
MS.418         	11.572         	-0.895
MS.419         	11.55          	-0.91
MS.420         	11.528         	-0.977
MS.421         	11.505         	-0.967
MS.422         	11.48          	-0.909
MS.423         	11.457         	-0.936
MS.424         	11.435         	-0.887
MS.425         	11.412         	-0.9
MS.426         	11.39          	-0.886
MS.427         	11.367         	-0.975
MS.428         	11.345         	-0.894
MS.429         	11.32          	-0.974
MS.430         	11.297         	-0.939
MS.431         	11.275         	-0.944
MS.432         	11.252         	-1.006
MS.433         	11.23          	-0.973
MS.434         	11.207         	-0.964
MS.435         	11.185         	-0.988
MS.436         	11.165         	-1.014
MS.437         	11.142         	-1.002
MS.438         	11.12          	-1.005
MS.439         	11.097         	-1.057
MS.440         	11.075         	-0.975
MS.441         	11.052         	-1.011
MS.442         	11.03          	-0.997
MS.443         	11.007         	-1.055
MS.444         	10.988         	-1.049
MS.445         	10.965         	-1.037
MS.446         	10.943         	-1.061
MS.447         	10.92          	-1.025
MS.448         	10.9           	-1.08
MS.449         	10.877         	-1.061
MS.450         	10.855         	-1.071
MS.451         	10.835         	-1.037
MS.452         	10.812         	-1.079
MS.453         	10.79          	-1.072
MS.454         	10.77          	-1.064
MS.455         	10.747         	-1.064
MS.456         	10.725         	-1.073
MS.457         	10.705         	-1.069
MS.458         	10.682         	-1.093
MS.459         	10.662         	-1.115
MS.460         	10.64          	-1.072
MS.461         	10.62          	-1.07
MS.462         	10.597         	-1.085
MS.463         	10.577         	-1.09
MS.464         	10.555         	-1.088
MS.465         	10.535         	-1.093
MS.466         	10.512         	-1.109
MS.467         	10.492         	-1.078
MS.468         	10.472         	-1.082
MS.469         	10.45          	-1.11
MS.470         	10.43          	-1.091
MS.471         	10.41          	-1.124
MS.472         	10.387         	-1.104
MS.473         	10.367         	-1.089
MS.474         	10.347         	-1.093
MS.475         	10.325         	-1.086
MS.476         	10.305         	-1.089
MS.477         	10.285         	-1.082
MS.478         	10.265         	-1.075
MS.479         	10.245         	-1.104
MS.480         	10.222         	-1.1
MS.481         	10.202         	-1.077
MS.482         	10.182         	-1.086
MS.483         	10.162         	-1.089
MS.484         	10.142         	-1.074
MS.485         	10.122         	-1.106
MS.486         	10.102         	-1.063
MS.487         	10.082         	-1.084
MS.488         	10.06          	-1.078
MS.489         	10.04          	-1.081
MS.490         	10.02          	-1.108
MS.491         	10             	-1.075
MS.492         	9.98           	-1.112
MS.493         	9.96           	-1.102
DERIVED EXCITABILITY VARIABLES
Program = QTracP 27/06/2023
Threshold method = 6 (optimised for CAP, using data for present condition only)
SR method = 1 (using actual data values)
