File:              	C:\Qtrac\Data\ME2C30627C.QZD
Name:              	 AR18E
Protocol:          	MSCAN-MV
Date:              	27/6/23
Date of birth:     	18/10/02
Age:               	20
Sex:               	M
Temperature:       	31.7
S/R sites:         	Knee CF-TA
NC/disease:        	NC
Operator:          	KJ
Comments:
M-SCAN DATA (Repeat 1/3, 9.5-3.3m)
Scanpts: 1, 15, 489, 505
Stim. (mA)     	Amp. (mV)
MS.1           	25.5           	4.272
MS.2           	25.5           	4.293
MS.3           	25.5           	4.292
MS.4           	25.5           	4.287
MS.5           	25.5           	4.291
MS.6           	25.5           	4.271
MS.7           	25.5           	4.262
MS.8           	25.5           	4.276
MS.9           	25.5           	4.255
MS.10          	25.5           	4.293
MS.11          	25.5           	4.257
MS.12          	25.5           	4.258
MS.13          	25.5           	4.262
MS.14          	25.5           	4.272
MS.15          	25.5           	4.276
MS.16          	25.5           	4.233
MS.17          	25.5           	4.281
MS.18          	25.5           	4.26
MS.19          	25.5           	4.246
MS.20          	25.5           	4.269
MS.21          	25.5           	4.25
MS.22          	25.5           	4.256
MS.23          	25.5           	4.276
MS.24          	25.397         	4.26
MS.25          	25.347         	4.243
MS.26          	25.297         	4.254
MS.27          	25.245         	4.257
MS.28          	25.195         	4.262
MS.29          	25.145         	4.218
MS.30          	25.095         	4.227
MS.31          	25.045         	4.239
MS.32          	24.995         	4.224
MS.33          	24.945         	4.228
MS.34          	24.895         	4.221
MS.35          	24.845         	4.23
MS.36          	24.795         	4.201
MS.37          	24.747         	4.202
MS.38          	24.698         	4.205
MS.39          	24.647         	4.203
MS.40          	24.597         	4.221
MS.41          	24.55          	4.21
MS.42          	24.5           	4.207
MS.43          	24.45          	4.233
MS.44          	24.403         	4.185
MS.45          	24.352         	4.209
MS.46          	24.305         	4.196
MS.47          	24.257         	4.224
MS.48          	24.207         	4.202
MS.49          	24.16          	4.222
MS.50          	24.11          	4.168
MS.51          	24.062         	4.19
MS.52          	24.015         	4.186
MS.53          	23.967         	4.196
MS.54          	23.92          	4.185
MS.55          	23.87          	4.2
MS.56          	23.823         	4.195
MS.57          	23.775         	4.165
MS.58          	23.727         	4.174
MS.59          	23.68          	4.113
MS.60          	23.632         	4.181
MS.61          	23.587         	4.153
MS.62          	23.54          	4.155
MS.63          	23.493         	4.147
MS.64          	23.445         	4.133
MS.65          	23.397         	4.111
MS.66          	23.352         	4.097
MS.67          	23.305         	4.147
MS.68          	23.257         	4.103
MS.69          	23.212         	4.146
MS.70          	23.165         	4.114
MS.71          	23.12          	4.142
MS.72          	23.073         	4.089
MS.73          	23.028         	4.188
MS.74          	22.98          	4.089
MS.75          	22.935         	4.041
MS.76          	22.89          	4.066
MS.77          	22.842         	4.065
MS.78          	22.797         	4.105
MS.79          	22.752         	4.029
MS.80          	22.707         	4.003
MS.81          	22.663         	4.051
MS.82          	22.618         	3.97
MS.83          	22.57          	3.975
MS.84          	22.525         	4.055
MS.85          	22.48          	4.044
MS.86          	22.435         	3.98
MS.87          	22.392         	4.016
MS.88          	22.347         	3.984
MS.89          	22.302         	3.928
MS.90          	22.257         	3.956
MS.91          	22.212         	3.921
MS.92          	22.167         	3.914
MS.93          	22.125         	4.002
MS.94          	22.08          	4.069
MS.95          	22.035         	3.938
MS.96          	21.993         	3.923
MS.97          	21.948         	3.838
MS.98          	21.905         	3.912
MS.99          	21.86          	3.933
MS.100         	21.817         	3.804
MS.101         	21.772         	3.884
MS.102         	21.73          	3.874
MS.103         	21.685         	3.858
MS.104         	21.642         	3.948
MS.105         	21.6           	3.781
MS.106         	21.557         	3.804
MS.107         	21.512         	3.848
MS.108         	21.47          	3.766
MS.109         	21.427         	3.771
MS.110         	21.385         	3.82
MS.111         	21.342         	3.807
MS.112         	21.3           	3.747
MS.113         	21.257         	3.701
MS.114         	21.215         	3.649
MS.115         	21.172         	3.695
MS.116         	21.13          	3.715
MS.117         	21.087         	3.679
MS.118         	21.045         	3.705
MS.119         	21.002         	3.688
MS.120         	20.96          	3.579
MS.121         	20.92          	3.644
MS.122         	20.877         	3.603
MS.123         	20.835         	3.594
MS.124         	20.795         	3.655
MS.125         	20.752         	3.571
MS.126         	20.71          	3.574
MS.127         	20.67          	3.593
MS.128         	20.627         	3.552
MS.129         	20.587         	3.478
MS.130         	20.545         	3.494
MS.131         	20.505         	3.566
MS.132         	20.465         	3.623
MS.133         	20.422         	3.634
MS.134         	20.382         	3.538
MS.135         	20.342         	3.641
MS.136         	20.3           	3.531
MS.137         	20.26          	3.486
MS.138         	20.22          	3.419
MS.139         	20.18          	3.511
MS.140         	20.14          	3.492
MS.141         	20.1           	3.453
MS.142         	20.06          	3.522
MS.143         	20.02          	3.524
MS.144         	19.98          	3.474
MS.145         	19.94          	3.347
MS.146         	19.9           	3.408
MS.147         	19.86          	3.304
MS.148         	19.82          	3.447
MS.149         	19.78          	3.401
MS.150         	19.74          	3.482
MS.151         	19.7           	3.43
MS.152         	19.663         	3.419
MS.153         	19.622         	3.363
MS.154         	19.583         	3.441
MS.155         	19.545         	3.252
MS.156         	19.505         	3.206
MS.157         	19.465         	3.315
MS.158         	19.427         	3.2
MS.159         	19.387         	3.399
MS.160         	19.35          	3.255
MS.161         	19.31          	3.218
MS.162         	19.272         	3.185
MS.163         	19.235         	3.255
MS.164         	19.195         	3.188
MS.165         	19.157         	3.212
MS.166         	19.12          	3.12
MS.167         	19.08          	3.193
MS.168         	19.042         	3.12
MS.169         	19.005         	3.149
MS.170         	18.967         	3.132
MS.171         	18.927         	3.08
MS.172         	18.89          	3.103
MS.173         	18.852         	3.071
MS.174         	18.815         	2.941
MS.175         	18.778         	2.938
MS.176         	18.74          	2.982
MS.177         	18.702         	2.935
MS.178         	18.665         	2.743
MS.179         	18.628         	2.751
MS.180         	18.59          	2.773
MS.181         	18.555         	2.752
MS.182         	18.517         	2.781
MS.183         	18.48          	2.807
MS.184         	18.442         	2.761
MS.185         	18.405         	2.73
MS.186         	18.37          	2.728
MS.187         	18.333         	2.813
MS.188         	18.295         	2.812
MS.189         	18.26          	2.637
MS.190         	18.222         	2.626
MS.191         	18.188         	2.66
MS.192         	18.15          	2.484
MS.193         	18.115         	2.529
MS.194         	18.077         	2.581
MS.195         	18.042         	2.641
MS.196         	18.005         	2.525
MS.197         	17.97          	2.46
MS.198         	17.932         	2.481
MS.199         	17.897         	2.435
MS.200         	17.862         	2.498
MS.201         	17.827         	2.418
MS.202         	17.79          	2.318
MS.203         	17.755         	2.33
MS.204         	17.72          	2.336
MS.205         	17.685         	2.328
MS.206         	17.65          	2.316
MS.207         	17.612         	2.291
MS.208         	17.577         	2.36
MS.209         	17.542         	2.206
MS.210         	17.507         	2.296
MS.211         	17.472         	2.369
MS.212         	17.438         	2.315
MS.213         	17.403         	2.207
MS.214         	17.37          	2.242
MS.215         	17.335         	2.314
MS.216         	17.3           	2.231
MS.217         	17.265         	2.056
MS.218         	17.23          	2.089
MS.219         	17.195         	2.266
MS.220         	17.163         	2.136
MS.221         	17.128         	2.137
MS.222         	17.092         	2.141
MS.223         	17.06          	2.144
MS.224         	17.025         	2.076
MS.225         	16.99          	2.117
MS.226         	16.958         	2.134
MS.227         	16.922         	2.13
MS.228         	16.89          	2.09
MS.229         	16.855         	2.023
MS.230         	16.823         	2.012
MS.231         	16.788         	1.926
MS.232         	16.755         	1.984
MS.233         	16.72          	1.935
MS.234         	16.688         	1.837
MS.235         	16.655         	1.855
MS.236         	16.62          	1.87
MS.237         	16.587         	1.937
MS.238         	16.555         	1.885
MS.239         	16.522         	1.7
MS.240         	16.487         	1.719
MS.241         	16.455         	1.755
MS.242         	16.422         	1.813
MS.243         	16.39          	1.616
MS.244         	16.358         	1.719
MS.245         	16.325         	1.632
MS.246         	16.292         	1.669
MS.247         	16.26          	1.588
MS.248         	16.227         	1.431
MS.249         	16.195         	1.529
MS.250         	16.163         	1.49
MS.251         	16.13          	1.461
MS.252         	16.097         	1.562
MS.253         	16.065         	1.386
MS.254         	16.032         	1.461
MS.255         	16.003         	1.29
MS.256         	15.97          	1.363
MS.257         	15.938         	1.313
MS.258         	15.905         	1.303
MS.259         	15.875         	1.318
MS.260         	15.842         	1.345
MS.261         	15.81          	1.256
MS.262         	15.78          	1.182
MS.263         	15.747         	1.218
MS.264         	15.715         	1.212
MS.265         	15.685         	1.121
MS.266         	15.652         	1.015
MS.267         	15.622         	1.152
MS.268         	15.59          	1.043
MS.269         	15.56          	0.987
MS.270         	15.527         	1.049
MS.271         	15.497         	1.061
MS.272         	15.467         	1.016
MS.273         	15.435         	0.897
MS.274         	15.405         	0.852
MS.275         	15.375         	0.953
MS.276         	15.342         	0.926
MS.277         	15.312         	0.807
MS.278         	15.282         	0.788
MS.279         	15.252         	0.88
MS.280         	15.22          	0.88
MS.281         	15.19          	0.859
MS.282         	15.16          	0.721
MS.283         	15.13          	0.712
MS.284         	15.1           	0.677
MS.285         	15.07          	0.679
MS.286         	15.04          	0.659
MS.287         	15.01          	0.662
MS.288         	14.98          	0.698
MS.289         	14.95          	0.56
MS.290         	14.92          	0.685
MS.291         	14.89          	0.699
MS.292         	14.86          	0.511
MS.293         	14.83          	0.54
MS.294         	14.8           	0.569
MS.295         	14.77          	0.643
MS.296         	14.742         	0.58
MS.297         	14.712         	0.557
MS.298         	14.682         	0.526
MS.299         	14.652         	0.48
MS.300         	14.625         	0.443
MS.301         	14.595         	0.467
MS.302         	14.565         	0.529
MS.303         	14.537         	0.574
MS.304         	14.507         	0.519
MS.305         	14.477         	0.57
MS.306         	14.45          	0.526
MS.307         	14.42          	0.541
MS.308         	14.392         	0.535
MS.309         	14.362         	0.521
MS.310         	14.335         	0.486
MS.311         	14.305         	0.461
MS.312         	14.278         	0.402
MS.313         	14.25          	0.438
MS.314         	14.22          	0.399
MS.315         	14.193         	0.419
MS.316         	14.162         	0.402
MS.317         	14.135         	0.35
MS.318         	14.108         	0.367
MS.319         	14.08          	0.41
MS.320         	14.05          	0.366
MS.321         	14.023         	0.319
MS.322         	13.995         	0.383
MS.323         	13.967         	0.325
MS.324         	13.94          	0.388
MS.325         	13.91          	0.283
MS.326         	13.882         	0.277
MS.327         	13.855         	0.333
MS.328         	13.827         	0.301
MS.329         	13.8           	0.302
MS.330         	13.773         	0.292
MS.331         	13.745         	0.252
MS.332         	13.717         	0.228
MS.333         	13.69          	0.275
MS.334         	13.662         	0.198
MS.335         	13.635         	0.231
MS.336         	13.608         	0.198
MS.337         	13.58          	0.188
MS.338         	13.555         	0.172
MS.339         	13.528         	0.244
MS.340         	13.5           	0.18
MS.341         	13.472         	0.139
MS.342         	13.445         	0.118
MS.343         	13.42          	0.142
MS.344         	13.392         	0.14
MS.345         	13.365         	0.134
MS.346         	13.34          	0.134
MS.347         	13.312         	0.138
MS.348         	13.285         	0.123
MS.349         	13.26          	0.129
MS.350         	13.233         	0.091
MS.351         	13.205         	0.128
MS.352         	13.18          	0.106
MS.353         	13.153         	0.131
MS.354         	13.127         	0.097
MS.355         	13.1           	0.09
MS.356         	13.075         	0.104
MS.357         	13.047         	0.066
MS.358         	13.023         	0.067
MS.359         	12.997         	0.073
MS.360         	12.97          	0.106
MS.361         	12.945         	0.063
MS.362         	12.917         	0.068
MS.363         	12.892         	0.044
MS.364         	12.867         	0.049
MS.365         	12.842         	0.059
MS.366         	12.815         	0.043
MS.367         	12.79          	0.01
MS.368         	12.765         	0.049
MS.369         	12.74          	0.023
MS.370         	12.712         	0.04
MS.371         	12.688         	0.027
MS.372         	12.662         	-0.001
MS.373         	12.637         	0.048
MS.374         	12.613         	0.04
MS.375         	12.587         	0.016
MS.376         	12.562         	0.022
MS.377         	12.537         	0.015
MS.378         	12.512         	-0.007
MS.379         	12.488         	0.016
MS.380         	12.462         	0.007
MS.381         	12.438         	0.015
MS.382         	12.412         	-0.023
MS.383         	12.387         	-0.004
MS.384         	12.363         	0.001
MS.385         	12.337         	0.006
MS.386         	12.312         	-0.023
MS.387         	12.287         	-0.012
MS.388         	12.265         	-0.031
MS.389         	12.24          	-0.018
MS.390         	12.215         	-0.005
MS.391         	12.19          	-0.042
MS.392         	12.167         	-0.026
MS.393         	12.142         	-0.04
MS.394         	12.117         	-0.043
MS.395         	12.092         	-0.027
MS.396         	12.07          	-0.048
MS.397         	12.045         	-0.052
MS.398         	12.02          	-0.041
MS.399         	11.997         	-0.048
MS.400         	11.972         	-0.058
MS.401         	11.95          	-0.056
MS.402         	11.925         	-0.056
MS.403         	11.903         	-0.055
MS.404         	11.877         	-0.063
MS.405         	11.855         	-0.06
MS.406         	11.83          	-0.064
MS.407         	11.807         	-0.062
MS.408         	11.782         	-0.074
MS.409         	11.76          	-0.063
MS.410         	11.735         	-0.062
MS.411         	11.712         	-0.072
MS.412         	11.69          	-0.069
MS.413         	11.665         	-0.076
MS.414         	11.642         	-0.08
MS.415         	11.62          	-0.077
MS.416         	11.595         	-0.08
MS.417         	11.572         	-0.096
MS.418         	11.55          	-0.078
MS.419         	11.528         	-0.092
MS.420         	11.505         	-0.107
MS.421         	11.48          	-0.104
MS.422         	11.457         	-0.094
MS.423         	11.435         	-0.111
MS.424         	11.412         	-0.103
MS.425         	11.39          	-0.101
MS.426         	11.367         	-0.092
MS.427         	11.345         	-0.093
MS.428         	11.32          	-0.103
MS.429         	11.297         	-0.106
MS.430         	11.275         	-0.099
MS.431         	11.252         	-0.123
MS.432         	11.23          	-0.107
MS.433         	11.207         	-0.118
MS.434         	11.185         	-0.112
MS.435         	11.165         	-0.114
MS.436         	11.142         	-0.112
MS.437         	11.12          	-0.125
MS.438         	11.097         	-0.11
MS.439         	11.075         	-0.115
MS.440         	11.052         	-0.12
MS.441         	11.03          	-0.123
MS.442         	11.007         	-0.115
MS.443         	10.988         	-0.124
MS.444         	10.965         	-0.123
MS.445         	10.943         	-0.112
MS.446         	10.92          	-0.127
MS.447         	10.9           	-0.121
MS.448         	10.877         	-0.123
MS.449         	10.855         	-0.12
MS.450         	10.835         	-0.119
MS.451         	10.812         	-0.12
MS.452         	10.79          	-0.122
MS.453         	10.77          	-0.121
MS.454         	10.747         	-0.124
MS.455         	10.725         	-0.121
MS.456         	10.705         	-0.123
MS.457         	10.682         	-0.124
MS.458         	10.662         	-0.127
MS.459         	10.64          	-0.122
MS.460         	10.62          	-0.118
MS.461         	10.597         	-0.121
MS.462         	10.577         	-0.128
MS.463         	10.555         	-0.134
MS.464         	10.535         	-0.128
MS.465         	10.512         	-0.135
MS.466         	10.492         	-0.135
MS.467         	10.472         	-0.13
MS.468         	10.45          	-0.134
MS.469         	10.43          	-0.134
MS.470         	10.41          	-0.134
MS.471         	10.387         	-0.131
MS.472         	10.367         	-0.134
MS.473         	10.347         	-0.128
MS.474         	10.325         	-0.134
MS.475         	10.305         	-0.132
MS.476         	10.285         	-0.129
MS.477         	10.265         	-0.128
MS.478         	10.245         	-0.127
MS.479         	10.222         	-0.134
MS.480         	10.202         	-0.124
MS.481         	10.182         	-0.13
MS.482         	10.162         	-0.12
MS.483         	10.142         	-0.125
MS.484         	10.122         	-0.129
MS.485         	10.102         	-0.131
MS.486         	10.08          	-0.127
MS.487         	10.06          	-0.127
MS.488         	10.04          	-0.128
MS.489         	10.02          	-0.13
MS.490         	10             	-0.131
MS.491         	9.98           	-0.129
MS.492         	9.96           	-0.127
MS.493         	9.94           	-0.128
MS.494         	9.92           	-0.13
MS.495         	9.903          	-0.126
MS.496         	9.882          	-0.129
MS.497         	9.863          	-0.129
MS.498         	9.842          	-0.128
MS.499         	9.823          	-0.132
MS.500         	9.802          	-0.125
