File:              	C:\Qtrac\Data\ME2C30620A.QZD
Name:              	 ME22I
Protocol:          	MSCAN-MV
Date:              	20/6/23
Date of birth:     	22/2/02
Age:               	21
Sex:               	M
Temperature:       	31.8
S/R sites:         	Knee CF-TA
NC/disease:        	NC
Operator:          	BY
Comments:
M-SCAN DATA (Repeat 1/4, 10.8-3.4m)
Scanpts: 0, 0, 516, 534
Stim. (mA)     	Amp. (mV)
MS.1           	15             	5.942
MS.2           	15             	5.976
MS.3           	15             	5.996
MS.4           	15             	5.92
MS.5           	15             	6.019
MS.6           	15             	5.967
MS.7           	15             	5.979
MS.8           	15             	6.005
MS.9           	15             	5.967
MS.10          	15             	5.938
MS.11          	15             	5.927
MS.12          	15             	5.926
MS.13          	15             	5.901
MS.14          	15             	6.016
MS.15          	15             	5.932
MS.16          	15             	5.955
MS.17          	15             	5.928
MS.18          	15             	5.856
MS.19          	15             	5.98
MS.20          	15             	5.988
MS.21          	15             	5.967
MS.22          	15             	5.922
MS.23          	15             	5.956
MS.24          	14.94          	5.906
MS.25          	14.91          	5.95
MS.26          	14.88          	5.933
MS.27          	14.85          	5.881
MS.28          	14.82          	5.975
MS.29          	14.792         	5.892
MS.30          	14.762         	5.861
MS.31          	14.733         	5.928
MS.32          	14.702         	5.93
MS.33          	14.672         	5.928
MS.34          	14.645         	5.964
MS.35          	14.615         	5.921
MS.36          	14.585         	5.931
MS.37          	14.557         	5.997
MS.38          	14.527         	5.988
MS.39          	14.497         	5.847
MS.40          	14.47          	5.967
MS.41          	14.44          	5.901
MS.42          	14.412         	5.806
MS.43          	14.382         	5.897
MS.44          	14.355         	5.894
MS.45          	14.325         	5.896
MS.46          	14.297         	5.936
MS.47          	14.267         	5.934
MS.48          	14.24          	5.876
MS.49          	14.212         	5.881
MS.50          	14.182         	5.865
MS.51          	14.155         	5.916
MS.52          	14.127         	5.864
MS.53          	14.097         	5.857
MS.54          	14.07          	5.872
MS.55          	14.042         	5.939
MS.56          	14.015         	5.863
MS.57          	13.985         	5.861
MS.58          	13.957         	5.833
MS.59          	13.93          	5.905
MS.60          	13.903         	5.804
MS.61          	13.875         	5.845
MS.62          	13.847         	5.817
MS.63          	13.82          	5.895
MS.64          	13.792         	5.87
MS.65          	13.765         	5.86
MS.66          	13.737         	5.876
MS.67          	13.71          	5.8
MS.68          	13.682         	5.842
MS.69          	13.655         	5.834
MS.70          	13.627         	5.803
MS.71          	13.6           	5.774
MS.72          	13.572         	5.766
MS.73          	13.545         	5.83
MS.74          	13.517         	5.771
MS.75          	13.492         	5.804
MS.76          	13.465         	5.901
MS.77          	13.438         	5.76
MS.78          	13.41          	5.816
MS.79          	13.385         	5.792
MS.80          	13.358         	5.765
MS.81          	13.33          	5.762
MS.82          	13.305         	5.742
MS.83          	13.278         	5.792
MS.84          	13.25          	5.735
MS.85          	13.225         	5.84
MS.86          	13.197         	5.773
MS.87          	13.172         	5.787
MS.88          	13.145         	5.729
MS.89          	13.12          	5.864
MS.90          	13.092         	5.782
MS.91          	13.068         	5.734
MS.92          	13.04          	5.665
MS.93          	13.015         	5.696
MS.94          	12.987         	5.731
MS.95          	12.962         	5.712
MS.96          	12.938         	5.669
MS.97          	12.91          	5.706
MS.98          	12.885         	5.745
MS.99          	12.86          	5.655
MS.100         	12.832         	5.687
MS.101         	12.807         	5.684
MS.102         	12.782         	5.693
MS.103         	12.757         	5.708
MS.104         	12.73          	5.672
MS.105         	12.705         	5.677
MS.106         	12.68          	5.673
MS.107         	12.655         	5.609
MS.108         	12.63          	5.666
MS.109         	12.605         	5.495
MS.110         	12.58          	5.705
MS.111         	12.555         	5.515
MS.112         	12.53          	5.693
MS.113         	12.505         	5.581
MS.114         	12.48          	5.687
MS.115         	12.455         	5.485
MS.116         	12.43          	5.56
MS.117         	12.405         	5.54
MS.118         	12.38          	5.535
MS.119         	12.355         	5.635
MS.120         	12.33          	5.481
MS.121         	12.305         	5.563
MS.122         	12.28          	5.54
MS.123         	12.257         	5.385
MS.124         	12.233         	5.439
MS.125         	12.207         	5.392
MS.126         	12.182         	5.417
MS.127         	12.157         	5.483
MS.128         	12.135         	5.408
MS.129         	12.11          	5.367
MS.130         	12.085         	5.347
MS.131         	12.062         	5.446
MS.132         	12.037         	5.467
MS.133         	12.012         	5.401
MS.134         	11.99          	5.513
MS.135         	11.965         	5.292
MS.136         	11.943         	5.425
MS.137         	11.917         	5.4
MS.138         	11.895         	5.405
MS.139         	11.87          	5.248
MS.140         	11.847         	5.364
MS.141         	11.822         	5.342
MS.142         	11.8           	5.293
MS.143         	11.775         	5.327
MS.144         	11.752         	5.214
MS.145         	11.73          	5.302
MS.146         	11.705         	5.395
MS.147         	11.682         	5.27
MS.148         	11.657         	5.305
MS.149         	11.635         	5.247
MS.150         	11.613         	5.228
MS.151         	11.59          	5.244
MS.152         	11.565         	5.32
MS.153         	11.542         	5.122
MS.154         	11.52          	5.157
MS.155         	11.497         	5.181
MS.156         	11.472         	5.171
MS.157         	11.45          	5.104
MS.158         	11.427         	5.154
MS.159         	11.405         	5.142
MS.160         	11.382         	5.198
MS.161         	11.36          	5.204
MS.162         	11.337         	5.156
MS.163         	11.315         	5.214
MS.164         	11.292         	4.976
MS.165         	11.27          	5.131
MS.166         	11.247         	5.07
MS.167         	11.225         	5.032
MS.168         	11.202         	4.929
MS.169         	11.18          	5.029
MS.170         	11.157         	4.926
MS.171         	11.135         	4.991
MS.172         	11.113         	4.94
MS.173         	11.09          	4.965
MS.174         	11.068         	4.861
MS.175         	11.045         	4.877
MS.176         	11.023         	4.861
MS.177         	11.002         	4.792
MS.178         	10.98          	4.779
MS.179         	10.957         	4.808
MS.180         	10.935         	4.717
MS.181         	10.915         	4.543
MS.182         	10.892         	4.62
MS.183         	10.87          	4.592
MS.184         	10.847         	4.374
MS.185         	10.827         	4.588
MS.186         	10.805         	4.553
MS.187         	10.785         	4.459
MS.188         	10.762         	4.506
MS.189         	10.74          	4.441
MS.190         	10.72          	4.462
MS.191         	10.698         	4.162
MS.192         	10.677         	4.202
MS.193         	10.655         	4.248
MS.194         	10.635         	4.197
MS.195         	10.613         	4.265
MS.196         	10.592         	4.146
MS.197         	10.57          	4.144
MS.198         	10.55          	4.144
MS.199         	10.528         	4.12
MS.200         	10.507         	4.066
MS.201         	10.485         	4.02
MS.202         	10.465         	4.08
MS.203         	10.445         	4.114
MS.204         	10.422         	4.027
MS.205         	10.403         	3.807
MS.206         	10.382         	3.914
MS.207         	10.36          	3.846
MS.208         	10.34          	3.671
MS.209         	10.32          	3.758
MS.210         	10.3           	3.983
MS.211         	10.278         	3.9
MS.212         	10.257         	3.818
MS.213         	10.238         	3.782
MS.214         	10.217         	3.782
MS.215         	10.198         	3.694
MS.216         	10.175         	3.741
MS.217         	10.155         	3.524
MS.218         	10.135         	3.574
MS.219         	10.115         	3.516
MS.220         	10.095         	3.602
MS.221         	10.075         	3.524
MS.222         	10.055         	3.517
MS.223         	10.035         	3.552
MS.224         	10.015         	3.522
MS.225         	9.995          	3.568
MS.226         	9.975          	3.539
MS.227         	9.955          	3.668
MS.228         	9.935          	3.549
MS.229         	9.915          	3.706
MS.230         	9.895          	3.629
MS.231         	9.875          	3.525
MS.232         	9.855          	3.458
MS.233         	9.835          	3.401
MS.234         	9.818          	3.594
MS.235         	9.797          	3.584
MS.236         	9.778          	3.4
MS.237         	9.757          	3.163
MS.238         	9.738          	3.258
MS.239         	9.717          	3.312
MS.240         	9.7            	3.192
MS.241         	9.68           	3.043
MS.242         	9.66           	3.208
MS.243         	9.64           	3.01
MS.244         	9.622          	3.196
MS.245         	9.602          	3.087
MS.246         	9.582          	3.146
MS.247         	9.565          	3.074
MS.248         	9.545          	3.016
MS.249         	9.525          	2.947
MS.250         	9.507          	3.086
MS.251         	9.488          	2.755
MS.252         	9.47           	3.049
MS.253         	9.45           	2.845
MS.254         	9.432          	2.909
MS.255         	9.412          	2.879
MS.256         	9.395          	2.819
MS.257         	9.375          	2.889
MS.258         	9.358          	2.95
MS.259         	9.337          	2.852
MS.260         	9.32           	2.726
MS.261         	9.3            	2.885
MS.262         	9.283          	2.823
MS.263         	9.262          	3.04
MS.264         	9.245          	2.729
MS.265         	9.225          	2.718
MS.266         	9.207          	2.503
MS.267         	9.19           	2.566
MS.268         	9.17           	2.358
MS.269         	9.153          	2.227
MS.270         	9.135          	2.393
MS.271         	9.115          	2.075
MS.272         	9.097          	2.094
MS.273         	9.08           	1.917
MS.274         	9.062          	2.121
MS.275         	9.042          	2.228
MS.276         	9.025          	2.066
MS.277         	9.007          	2.078
MS.278         	8.99           	1.808
MS.279         	8.972          	1.973
MS.280         	8.952          	1.978
MS.281         	8.935          	2.022
MS.282         	8.917          	1.959
MS.283         	8.9            	1.975
MS.284         	8.882          	1.957
MS.285         	8.865          	1.855
MS.286         	8.847          	1.958
MS.287         	8.83           	1.757
MS.288         	8.812          	1.653
MS.289         	8.795          	1.539
MS.290         	8.775          	1.446
MS.291         	8.757          	1.776
MS.292         	8.74           	1.681
MS.293         	8.722          	1.584
MS.294         	8.707          	1.504
MS.295         	8.69           	1.326
MS.296         	8.672          	1.473
MS.297         	8.655          	1.287
MS.298         	8.637          	1.437
MS.299         	8.62           	1.318
MS.300         	8.602          	1.227
MS.301         	8.585          	1.106
MS.302         	8.568          	1.007
MS.303         	8.55           	1.172
MS.304         	8.535          	1.199
MS.305         	8.517          	0.86
MS.306         	8.5            	1.01
MS.307         	8.483          	1.075
MS.308         	8.465          	0.965
MS.309         	8.45           	0.669
MS.310         	8.432          	0.829
MS.311         	8.415          	0.816
MS.312         	8.398          	0.717
MS.313         	8.382          	0.519
MS.314         	8.365          	0.395
MS.315         	8.347          	0.491
MS.316         	8.332          	0.798
MS.317         	8.315          	0.582
MS.318         	8.297          	0.538
MS.319         	8.283          	0.661
MS.320         	8.265          	0.481
MS.321         	8.247          	0.441
MS.322         	8.233          	0.452
MS.323         	8.215          	0.378
MS.324         	8.2            	0.407
MS.325         	8.182          	0.364
MS.326         	8.167          	0.552
MS.327         	8.15           	0.25
MS.328         	8.135          	0.305
MS.329         	8.117          	0.308
MS.330         	8.102          	0.262
MS.331         	8.085          	0.316
MS.332         	8.07           	0.257
MS.333         	8.052          	0.323
MS.334         	8.037          	0.459
MS.335         	8.02           	0.197
MS.336         	8.005          	0.27
MS.337         	7.99           	0.193
MS.338         	7.972          	0.062
MS.339         	7.957          	0.268
MS.340         	7.94           	0.179
MS.341         	7.925          	0.11
MS.342         	7.91           	0.125
MS.343         	7.892          	0.107
MS.344         	7.878          	0.179
MS.345         	7.862          	0.031
MS.346         	7.847          	0.03
MS.347         	7.83           	0.021
MS.348         	7.815          	-0.071
MS.349         	7.8            	-0.118
MS.350         	7.785          	-0.084
MS.351         	7.767          	-0.121
MS.352         	7.753          	-0.034
MS.353         	7.737          	-0.154
MS.354         	7.722          	-0.141
MS.355         	7.707          	-0.062
MS.356         	7.69           	-0.158
MS.357         	7.675          	-0.184
MS.358         	7.66           	-0.161
MS.359         	7.645          	-0.397
MS.360         	7.63           	-0.32
MS.361         	7.615          	-0.29
MS.362         	7.6            	-0.201
MS.363         	7.585          	-0.281
MS.364         	7.57           	-0.504
MS.365         	7.555          	-0.35
MS.366         	7.537          	-0.352
MS.367         	7.523          	-0.264
MS.368         	7.507          	-0.349
MS.369         	7.492          	-0.433
MS.370         	7.477          	-0.319
MS.371         	7.462          	-0.43
MS.372         	7.447          	-0.358
MS.373         	7.435          	-0.505
MS.374         	7.42           	-0.49
MS.375         	7.405          	-0.571
MS.376         	7.39           	-0.536
MS.377         	7.375          	-0.427
MS.378         	7.36           	-0.496
MS.379         	7.345          	-0.367
MS.380         	7.33           	-0.49
MS.381         	7.315          	-0.423
MS.382         	7.302          	-0.573
MS.383         	7.287          	-0.432
MS.384         	7.273          	-0.432
MS.385         	7.257          	-0.598
MS.386         	7.242          	-0.545
MS.387         	7.227          	-0.623
MS.388         	7.215          	-0.554
MS.389         	7.2            	-0.544
MS.390         	7.185          	-0.585
MS.391         	7.17           	-0.568
MS.392         	7.157          	-0.63
MS.393         	7.142          	-0.54
MS.394         	7.128          	-0.565
MS.395         	7.115          	-0.577
MS.396         	7.1            	-0.616
MS.397         	7.085          	-0.593
MS.398         	7.072          	-0.652
MS.399         	7.057          	-0.775
MS.400         	7.043          	-0.593
MS.401         	7.03           	-0.551
MS.402         	7.015          	-0.574
MS.403         	7              	-0.648
MS.404         	6.987          	-0.671
MS.405         	6.972          	-0.574
MS.406         	6.96           	-0.563
MS.407         	6.945          	-0.577
MS.408         	6.932          	-0.598
MS.409         	6.918          	-0.641
MS.410         	6.902          	-0.643
MS.411         	6.89           	-0.706
MS.412         	6.875          	-0.706
MS.413         	6.862          	-0.685
MS.414         	6.847          	-0.645
MS.415         	6.835          	-0.659
MS.416         	6.822          	-0.602
MS.417         	6.807          	-0.71
MS.418         	6.795          	-0.825
MS.419         	6.78           	-0.788
MS.420         	6.767          	-0.664
MS.421         	6.753          	-0.709
MS.422         	6.74           	-0.751
MS.423         	6.727          	-0.771
MS.424         	6.712          	-0.861
MS.425         	6.7            	-0.712
MS.426         	6.685          	-0.774
MS.427         	6.672          	-0.753
MS.428         	6.66           	-0.778
MS.429         	6.645          	-0.721
MS.430         	6.632          	-0.881
MS.431         	6.62           	-0.737
MS.432         	6.608          	-0.766
MS.433         	6.592          	-0.831
MS.434         	6.58           	-0.789
MS.435         	6.567          	-0.854
MS.436         	6.555          	-0.834
MS.437         	6.54           	-0.8
MS.438         	6.527          	-0.809
MS.439         	6.515          	-0.885
MS.440         	6.503          	-0.906
MS.441         	6.487          	-0.99
MS.442         	6.475          	-0.931
MS.443         	6.462          	-0.938
MS.444         	6.45           	-0.93
MS.445         	6.438          	-0.895
MS.446         	6.425          	-0.824
MS.447         	6.41           	-0.974
MS.448         	6.398          	-0.96
MS.449         	6.385          	-0.983
MS.450         	6.372          	-0.978
MS.451         	6.36           	-0.97
MS.452         	6.347          	-0.945
MS.453         	6.335          	-0.99
MS.454         	6.322          	-0.964
MS.455         	6.31           	-0.921
MS.456         	6.297          	-0.972
MS.457         	6.285          	-0.947
MS.458         	6.273          	-0.948
MS.459         	6.26           	-1.053
MS.460         	6.247          	-0.969
MS.461         	6.235          	-0.988
MS.462         	6.222          	-1.002
MS.463         	6.21           	-0.963
MS.464         	6.197          	-0.943
MS.465         	6.185          	-0.992
MS.466         	6.172          	-0.958
MS.467         	6.16           	-1.001
MS.468         	6.148          	-1.051
MS.469         	6.135          	-1.022
MS.470         	6.122          	-0.991
MS.471         	6.11           	-1.055
MS.472         	6.097          	-1.06
MS.473         	6.088          	-1.11
MS.474         	6.075          	-1.013
MS.475         	6.062          	-1.087
MS.476         	6.05           	-0.999
MS.477         	6.037          	-0.967
MS.478         	6.025          	-1.058
MS.479         	6.012          	-0.954
MS.480         	6.003          	-0.974
MS.481         	5.99           	-1.014
MS.482         	5.977          	-1.047
MS.483         	5.965          	-1.047
MS.484         	5.955          	-0.998
MS.485         	5.942          	-1.077
MS.486         	5.93           	-0.978
MS.487         	5.918          	-0.992
MS.488         	5.907          	-1.024
MS.489         	5.895          	-1.05
MS.490         	5.882          	-1.003
MS.491         	5.87           	-0.976
MS.492         	5.86           	-1.049
MS.493         	5.847          	-1.057
MS.494         	5.835          	-1.011
MS.495         	5.825          	-1.068
MS.496         	5.812          	-1.046
MS.497         	5.8            	-1.117
MS.498         	5.79           	-1.058
MS.499         	5.777          	-1.071
