File:              	C:\Qtrac\Data\ME2C30707C.QZD
Name:              	 JO31X
Protocol:          	MSCAN-MV
Date:              	7/7/23
Date of birth:     	31/10/91
Age:               	31
Sex:               	M
Temperature:       	30.2
S/R sites:         	Knee CF-TA
NC/disease:        	NC
Operator:          	BY
Comments:
M-SCAN DATA (Repeat 1/3, 10.1-3.8m)
Scanpts: 1, 25, 410, 426
Stim. (mA)     	Amp. (mV)
MS.1           	19.5           	7.6
MS.2           	19.5           	7.623
MS.3           	19.5           	7.787
MS.4           	19.5           	7.664
MS.5           	19.5           	7.592
MS.6           	19.5           	7.689
MS.7           	19.5           	7.776
MS.8           	19.5           	7.731
MS.9           	19.5           	7.762
MS.10          	19.5           	7.593
MS.11          	19.5           	7.572
MS.12          	19.5           	7.564
MS.13          	19.5           	7.615
MS.14          	19.5           	7.696
MS.15          	19.5           	7.768
MS.16          	19.5           	7.614
MS.17          	19.5           	7.837
MS.18          	19.5           	7.804
MS.19          	19.5           	7.776
MS.20          	19.5           	7.753
MS.21          	19.5           	7.744
MS.22          	19.5           	7.611
MS.23          	19.5           	7.783
MS.24          	19.422         	7.695
MS.25          	19.382         	7.665
MS.26          	19.345         	7.706
MS.27          	19.305         	7.806
MS.28          	19.267         	7.723
MS.29          	19.23          	7.643
MS.30          	19.19          	7.803
MS.31          	19.153         	7.581
MS.32          	19.115         	7.515
MS.33          	19.075         	7.595
MS.34          	19.038         	7.556
MS.35          	19             	7.604
MS.36          	18.962         	7.572
MS.37          	18.922         	7.683
MS.38          	18.885         	7.493
MS.39          	18.847         	7.426
MS.40          	18.81          	7.473
MS.41          	18.772         	7.487
MS.42          	18.735         	7.499
MS.43          	18.698         	7.536
MS.44          	18.66          	7.403
MS.45          	18.622         	7.39
MS.46          	18.585         	7.354
MS.47          	18.55          	7.393
MS.48          	18.512         	7.39
MS.49          	18.475         	7.458
MS.50          	18.438         	7.303
MS.51          	18.4           	7.288
MS.52          	18.365         	7.332
MS.53          	18.327         	7.39
MS.54          	18.29          	7.357
MS.55          	18.255         	7.297
MS.56          	18.217         	7.242
MS.57          	18.182         	7.222
MS.58          	18.145         	7.336
MS.59          	18.11          	7.227
MS.60          	18.073         	7.157
MS.61          	18.038         	7.141
MS.62          	18             	7.13
MS.63          	17.965         	7.041
MS.64          	17.93          	7.109
MS.65          	17.892         	7.09
MS.66          	17.858         	6.996
MS.67          	17.823         	7.099
MS.68          	17.785         	7.084
MS.69          	17.75          	6.945
MS.70          	17.715         	7.115
MS.71          	17.68          	6.962
MS.72          	17.645         	6.977
MS.73          	17.61          	6.871
MS.74          	17.575         	6.983
MS.75          	17.538         	6.853
MS.76          	17.503         	6.821
MS.77          	17.467         	6.742
MS.78          	17.435         	6.924
MS.79          	17.4           	6.956
MS.80          	17.365         	6.713
MS.81          	17.33          	6.755
MS.82          	17.295         	6.751
MS.83          	17.26          	6.854
MS.84          	17.225         	6.639
MS.85          	17.192         	6.678
MS.86          	17.157         	6.53
MS.87          	17.122         	6.584
MS.88          	17.087         	6.586
MS.89          	17.055         	6.696
MS.90          	17.02          	6.616
MS.91          	16.987         	6.548
MS.92          	16.952         	6.558
MS.93          	16.917         	6.442
MS.94          	16.885         	6.524
MS.95          	16.85          	6.36
MS.96          	16.817         	6.486
MS.97          	16.782         	6.465
MS.98          	16.75          	6.494
MS.99          	16.717         	6.4
MS.100         	16.682         	6.249
MS.101         	16.65          	6.247
MS.102         	16.618         	6.31
MS.103         	16.583         	6.194
MS.104         	16.55          	6.199
MS.105         	16.517         	6.261
MS.106         	16.485         	6.099
MS.107         	16.452         	6.045
MS.108         	16.417         	6.105
MS.109         	16.385         	5.948
MS.110         	16.352         	6.129
MS.111         	16.32          	5.898
MS.112         	16.288         	5.814
MS.113         	16.255         	5.934
MS.114         	16.222         	5.961
MS.115         	16.19          	5.991
MS.116         	16.157         	5.925
MS.117         	16.125         	5.915
MS.118         	16.092         	5.616
MS.119         	16.062         	5.898
MS.120         	16.03          	5.653
MS.121         	15.997         	5.667
MS.122         	15.965         	5.541
MS.123         	15.932         	5.505
MS.124         	15.902         	5.556
MS.125         	15.87          	5.544
MS.126         	15.837         	5.454
MS.127         	15.807         	5.375
MS.128         	15.775         	5.472
MS.129         	15.742         	5.225
MS.130         	15.712         	5.2
MS.131         	15.68          	5.226
MS.132         	15.65          	5.419
MS.133         	15.617         	5.02
MS.134         	15.587         	4.944
MS.135         	15.555         	5.135
MS.136         	15.525         	5.032
MS.137         	15.492         	5.159
MS.138         	15.462         	5.128
MS.139         	15.432         	4.875
MS.140         	15.4           	4.948
MS.141         	15.37          	4.861
MS.142         	15.34          	4.839
MS.143         	15.307         	4.841
MS.144         	15.277         	4.802
MS.145         	15.247         	4.845
MS.146         	15.217         	4.755
MS.147         	15.188         	4.709
MS.148         	15.155         	4.76
MS.149         	15.125         	4.755
MS.150         	15.095         	4.695
MS.151         	15.065         	4.447
MS.152         	15.035         	4.793
MS.153         	15.005         	4.712
MS.154         	14.975         	4.421
MS.155         	14.945         	4.61
MS.156         	14.915         	4.644
MS.157         	14.885         	4.59
MS.158         	14.855         	4.446
MS.159         	14.827         	4.572
MS.160         	14.797         	4.49
MS.161         	14.767         	4.44
MS.162         	14.737         	4.516
MS.163         	14.707         	4.187
MS.164         	14.68          	4.041
MS.165         	14.65          	4.23
MS.166         	14.62          	4.504
MS.167         	14.59          	4.005
MS.168         	14.562         	4.005
MS.169         	14.532         	4.327
MS.170         	14.505         	4.158
MS.171         	14.475         	4.038
MS.172         	14.445         	4.059
MS.173         	14.417         	3.999
MS.174         	14.387         	4.08
MS.175         	14.36          	3.818
MS.176         	14.33          	3.898
MS.177         	14.302         	3.802
MS.178         	14.273         	3.893
MS.179         	14.245         	3.748
MS.180         	14.217         	4.063
MS.181         	14.188         	3.745
MS.182         	14.16          	3.657
MS.183         	14.132         	3.585
MS.184         	14.102         	3.609
MS.185         	14.075         	3.57
MS.186         	14.047         	3.674
MS.187         	14.02          	3.568
MS.188         	13.99          	3.565
MS.189         	13.962         	3.518
MS.190         	13.935         	3.511
MS.191         	13.907         	3.481
MS.192         	13.88          	3.474
MS.193         	13.852         	3.445
MS.194         	13.825         	3.49
MS.195         	13.797         	3.373
MS.196         	13.77          	3.416
MS.197         	13.742         	3.3
MS.198         	13.715         	3.292
MS.199         	13.688         	3.336
MS.200         	13.66          	3.216
MS.201         	13.632         	3.281
MS.202         	13.605         	3.226
MS.203         	13.577         	3.19
MS.204         	13.55          	3.323
MS.205         	13.523         	3.178
MS.206         	13.495         	2.939
MS.207         	13.47          	2.985
MS.208         	13.443         	3.171
MS.209         	13.415         	2.885
MS.210         	13.387         	2.833
MS.211         	13.362         	2.888
MS.212         	13.335         	2.911
MS.213         	13.307         	2.837
MS.214         	13.282         	2.874
MS.215         	13.255         	2.738
MS.216         	13.23          	2.757
MS.217         	13.202         	2.615
MS.218         	13.175         	2.657
MS.219         	13.15          	2.591
MS.220         	13.122         	2.585
MS.221         	13.097         	2.548
MS.222         	13.07          	2.539
MS.223         	13.045         	2.466
MS.224         	13.02          	2.494
MS.225         	12.992         	2.391
MS.226         	12.967         	2.509
MS.227         	12.94          	2.479
MS.228         	12.915         	2.47
MS.229         	12.89          	2.391
MS.230         	12.862         	2.379
MS.231         	12.837         	2.365
MS.232         	12.812         	2.23
MS.233         	12.787         	2.235
MS.234         	12.76          	2.274
MS.235         	12.735         	2.134
MS.236         	12.71          	2.172
MS.237         	12.685         	1.97
MS.238         	12.66          	2.148
MS.239         	12.635         	2.175
MS.240         	12.61          	2.063
MS.241         	12.585         	2.011
MS.242         	12.557         	2.012
MS.243         	12.532         	1.9
MS.244         	12.507         	1.954
MS.245         	12.483         	1.909
MS.246         	12.457         	1.877
MS.247         	12.432         	1.738
MS.248         	12.41          	1.735
MS.249         	12.385         	1.752
MS.250         	12.36          	1.638
MS.251         	12.335         	1.57
MS.252         	12.31          	1.541
MS.253         	12.285         	1.741
MS.254         	12.26          	1.323
MS.255         	12.238         	1.519
MS.256         	12.212         	1.457
MS.257         	12.188         	1.566
MS.258         	12.162         	1.317
MS.259         	12.14          	1.271
MS.260         	12.115         	1.318
MS.261         	12.09          	1.271
MS.262         	12.065         	1.128
MS.263         	12.042         	1.282
MS.264         	12.017         	1.208
MS.265         	11.995         	1.126
MS.266         	11.97          	1.108
MS.267         	11.945         	1.089
MS.268         	11.922         	1.059
MS.269         	11.898         	0.976
MS.270         	11.875         	1.116
MS.271         	11.85          	0.991
MS.272         	11.827         	0.953
MS.273         	11.802         	0.916
MS.274         	11.78          	0.832
MS.275         	11.757         	0.805
MS.276         	11.733         	0.753
MS.277         	11.71          	0.725
MS.278         	11.685         	0.759
MS.279         	11.662         	0.632
MS.280         	11.64          	0.677
MS.281         	11.617         	0.624
MS.282         	11.592         	0.675
MS.283         	11.57          	0.667
MS.284         	11.547         	0.475
MS.285         	11.525         	0.579
MS.286         	11.5           	0.54
MS.287         	11.477         	0.53
MS.288         	11.455         	0.52
MS.289         	11.432         	0.497
MS.290         	11.41          	0.49
MS.291         	11.387         	0.468
MS.292         	11.363         	0.315
MS.293         	11.34          	0.364
MS.294         	11.318         	0.378
MS.295         	11.295         	0.414
MS.296         	11.273         	0.302
MS.297         	11.25          	0.314
MS.298         	11.227         	0.349
MS.299         	11.205         	0.24
MS.300         	11.182         	0.214
MS.301         	11.16          	0.223
MS.302         	11.137         	0.24
MS.303         	11.117         	0.176
MS.304         	11.095         	0.138
MS.305         	11.073         	0.114
MS.306         	11.05          	0.058
MS.307         	11.028         	0.079
MS.308         	11.005         	0.139
MS.309         	10.983         	0.065
MS.310         	10.962         	0.045
MS.311         	10.94          	-0.013
MS.312         	10.917         	-0.065
MS.313         	10.895         	-0.021
MS.314         	10.875         	0.026
MS.315         	10.852         	-0.05
MS.316         	10.83          	-0.139
MS.317         	10.81          	-0.105
MS.318         	10.787         	-0.111
MS.319         	10.765         	-0.09
MS.320         	10.745         	-0.142
MS.321         	10.722         	-0.181
MS.322         	10.702         	-0.187
MS.323         	10.68          	-0.203
MS.324         	10.66          	-0.244
MS.325         	10.637         	-0.203
MS.326         	10.617         	-0.178
MS.327         	10.595         	-0.245
MS.328         	10.575         	-0.323
MS.329         	10.552         	-0.319
MS.330         	10.532         	-0.255
MS.331         	10.51          	-0.308
MS.332         	10.49          	-0.314
MS.333         	10.47          	-0.313
MS.334         	10.448         	-0.37
MS.335         	10.427         	-0.346
MS.336         	10.407         	-0.361
MS.337         	10.385         	-0.477
MS.338         	10.365         	-0.459
MS.339         	10.345         	-0.466
MS.340         	10.323         	-0.547
MS.341         	10.302         	-0.531
MS.342         	10.282         	-0.5
MS.343         	10.262         	-0.552
MS.344         	10.24          	-0.559
MS.345         	10.22          	-0.517
MS.346         	10.2           	-0.48
MS.347         	10.18          	-0.547
MS.348         	10.16          	-0.565
MS.349         	10.14          	-0.596
MS.350         	10.12          	-0.632
MS.351         	10.097         	-0.565
MS.352         	10.077         	-0.639
MS.353         	10.057         	-0.655
MS.354         	10.037         	-0.629
MS.355         	10.017         	-0.674
MS.356         	9.997          	-0.637
MS.357         	9.977          	-0.669
MS.358         	9.957          	-0.678
MS.359         	9.938          	-0.664
MS.360         	9.917          	-0.735
MS.361         	9.9            	-0.665
MS.362         	9.88           	-0.708
MS.363         	9.86           	-0.723
MS.364         	9.84           	-0.714
MS.365         	9.82           	-0.739
MS.366         	9.8            	-0.709
MS.367         	9.78           	-0.778
MS.368         	9.76           	-0.742
MS.369         	9.742          	-0.756
MS.370         	9.722          	-0.777
MS.371         	9.702          	-0.798
MS.372         	9.682          	-0.767
MS.373         	9.665          	-0.846
MS.374         	9.645          	-0.792
MS.375         	9.625          	-0.811
MS.376         	9.605          	-0.815
MS.377         	9.587          	-0.819
MS.378         	9.568          	-0.869
MS.379         	9.55           	-0.757
MS.380         	9.53           	-0.801
MS.381         	9.51           	-0.827
MS.382         	9.492          	-0.863
MS.383         	9.472          	-0.81
MS.384         	9.452          	-0.837
MS.385         	9.435          	-0.84
MS.386         	9.415          	-0.901
MS.387         	9.398          	-0.837
MS.388         	9.377          	-0.914
MS.389         	9.36           	-0.879
MS.390         	9.34           	-0.887
MS.391         	9.323          	-0.889
MS.392         	9.302          	-0.854
MS.393         	9.285          	-0.895
MS.394         	9.267          	-0.907
MS.395         	9.247          	-0.915
MS.396         	9.23           	-0.819
MS.397         	9.21           	-0.909
MS.398         	9.193          	-0.897
MS.399         	9.175          	-0.932
MS.400         	9.155          	-0.931
MS.401         	9.137          	-0.928
MS.402         	9.12           	-0.918
MS.403         	9.1            	-0.892
MS.404         	9.082          	-0.88
MS.405         	9.065          	-0.93
MS.406         	9.047          	-0.928
MS.407         	9.028          	-0.963
MS.408         	9.01           	-0.91
MS.409         	8.992          	-0.972
MS.410         	8.975          	-0.981
MS.411         	8.957          	-0.944
MS.412         	8.94           	-0.97
MS.413         	8.92           	-0.951
MS.414         	8.903          	-0.952
MS.415         	8.885          	-0.945
MS.416         	8.867          	-0.93
MS.417         	8.85           	-0.974
MS.418         	8.832          	-0.97
MS.419         	8.815          	-0.954
MS.420         	8.797          	-0.974
MS.421         	8.78           	-0.961
MS.422         	8.762          	-0.97
MS.423         	8.745          	-0.941
MS.424         	8.727          	-0.958
MS.425         	8.71           	-0.974
MS.426         	8.693          	-0.943
MS.427         	8.675          	-0.947
MS.428         	8.658          	-0.928
MS.429         	8.64           	-0.967
MS.430         	8.622          	-0.927
MS.431         	8.605          	-0.972
MS.432         	8.587          	-0.961
MS.433         	8.57           	-0.901
MS.434         	8.555          	-0.912
MS.435         	8.537          	-0.933
MS.436         	8.52           	-0.888
MS.437         	8.502          	-0.939
MS.438         	8.485          	-0.948
MS.439         	8.47           	-0.939
MS.440         	8.452          	-0.972
MS.441         	8.435          	-0.953
MS.442         	8.417          	-0.933
MS.443         	8.403          	-0.965
MS.444         	8.385          	-0.905
MS.445         	8.367          	-0.952
MS.446         	8.35           	-0.941
MS.447         	8.335          	-0.927
MS.448         	8.318          	-0.958
MS.449         	8.302          	-0.91
MS.450         	8.285          	-0.881
MS.451         	8.267          	-0.927
MS.452         	8.252          	-0.92
MS.453         	8.235          	-0.916
MS.454         	8.217          	-0.892
MS.455         	8.202          	-0.914
MS.456         	8.185          	-0.9
MS.457         	8.17           	-0.923
MS.458         	8.153          	-0.887
MS.459         	8.137          	-0.868
MS.460         	8.12           	-0.881
MS.461         	8.105          	-0.875
MS.462         	8.087          	-0.903
MS.463         	8.073          	-0.861
MS.464         	8.055          	-0.875
MS.465         	8.04           	-0.878
MS.466         	8.025          	-0.853
MS.467         	8.007          	-0.884
MS.468         	7.992          	-0.875
MS.469         	7.975          	-0.865
MS.470         	7.96           	-0.887
MS.471         	7.945          	-0.867
MS.472         	7.927          	-0.878
MS.473         	7.912          	-0.85
MS.474         	7.898          	-0.854
MS.475         	7.88           	-0.867
MS.476         	7.865          	-0.874
MS.477         	7.85           	-0.848
MS.478         	7.832          	-0.873
MS.479         	7.817          	-0.872
MS.480         	7.802          	-0.853
MS.481         	7.787          	-0.832
MS.482         	7.77           	-0.861
MS.483         	7.755          	-0.846
MS.484         	7.74           	-0.847
MS.485         	7.725          	-0.856
MS.486         	7.71           	-0.838
MS.487         	7.695          	-0.806
MS.488         	7.677          	-0.807
MS.489         	7.662          	-0.839
MS.490         	7.648          	-0.814
MS.491         	7.632          	-0.837
MS.492         	7.617          	-0.854
MS.493         	7.602          	-0.834
MS.494         	7.587          	-0.831
MS.495         	7.572          	-0.813
MS.496         	7.557          	-0.829
MS.497         	7.543          	-0.826
MS.498         	7.527          	-0.823
