File:              	C:\Qtrac\Data\ME2C30710A.QZD
Name:              	 ST14R
Protocol:          	MSCAN-MV
Date:              	10/7/23
Date of birth:     	14/4/00
Age:               	23
Sex:               	M
Temperature:       	30.7
S/R sites:         	Knee CF-TA
NC/disease:        	NC
Operator:          	BY
Comments:
M-SCAN DATA (Repeat 3/3, 30.2-23m)
Scanpts: 1, 11, 551, 584
Stim. (mA)     	Amp. (mV)
MS.1           	23             	4.897
MS.2           	23             	4.92
MS.3           	23             	4.898
MS.4           	23             	4.918
MS.5           	23             	4.874
MS.6           	23             	4.883
MS.7           	23             	4.896
MS.8           	23             	4.88
MS.9           	23             	4.878
MS.10          	23             	4.907
MS.11          	23             	4.893
MS.12          	23             	4.878
MS.13          	23             	4.808
MS.14          	23             	4.806
MS.15          	23             	4.784
MS.16          	23             	4.861
MS.17          	23             	4.798
MS.18          	23             	4.894
MS.19          	23             	4.814
MS.20          	23             	4.854
MS.21          	23             	4.833
MS.22          	23             	4.841
MS.23          	23             	4.839
MS.24          	22.955         	4.826
MS.25          	22.907         	4.789
MS.26          	22.862         	4.852
MS.27          	22.817         	4.828
MS.28          	22.77          	4.818
MS.29          	22.725         	4.825
MS.30          	22.68          	4.822
MS.31          	22.635         	4.794
MS.32          	22.59          	4.741
MS.33          	22.545         	4.827
MS.34          	22.5           	4.76
MS.35          	22.455         	4.807
MS.36          	22.41          	4.817
MS.37          	22.365         	4.816
MS.38          	22.32          	4.783
MS.39          	22.275         	4.797
MS.40          	22.23          	4.823
MS.41          	22.188         	4.771
MS.42          	22.142         	4.774
MS.43          	22.097         	4.82
MS.44          	22.055         	4.761
MS.45          	22.01          	4.779
MS.46          	21.965         	4.814
MS.47          	21.922         	4.746
MS.48          	21.877         	4.761
MS.49          	21.835         	4.718
MS.50          	21.79          	4.769
MS.51          	21.747         	4.757
MS.52          	21.705         	4.71
MS.53          	21.66          	4.729
MS.54          	21.618         	4.751
MS.55          	21.575         	4.703
MS.56          	21.53          	4.739
MS.57          	21.487         	4.745
MS.58          	21.445         	4.763
MS.59          	21.403         	4.687
MS.60          	21.36          	4.716
MS.61          	21.317         	4.738
MS.62          	21.275         	4.697
MS.63          	21.233         	4.717
MS.64          	21.19          	4.686
MS.65          	21.147         	4.697
MS.66          	21.105         	4.756
MS.67          	21.062         	4.694
MS.68          	21.02          	4.676
MS.69          	20.977         	4.682
MS.70          	20.938         	4.726
MS.71          	20.895         	4.677
MS.72          	20.852         	4.736
MS.73          	20.812         	4.744
MS.74          	20.77          	4.681
MS.75          	20.727         	4.688
MS.76          	20.688         	4.678
MS.77          	20.645         	4.686
MS.78          	20.605         	4.692
MS.79          	20.562         	4.611
MS.80          	20.522         	4.67
MS.81          	20.48          	4.673
MS.82          	20.44          	4.66
MS.83          	20.4           	4.575
MS.84          	20.358         	4.664
MS.85          	20.317         	4.683
MS.86          	20.278         	4.595
MS.87          	20.237         	4.589
MS.88          	20.195         	4.588
MS.89          	20.155         	4.672
MS.90          	20.115         	4.641
MS.91          	20.075         	4.55
MS.92          	20.035         	4.557
MS.93          	19.995         	4.556
MS.94          	19.955         	4.545
MS.95          	19.915         	4.622
MS.96          	19.875         	4.63
MS.97          	19.835         	4.637
MS.98          	19.797         	4.58
MS.99          	19.757         	4.561
MS.100         	19.717         	4.565
MS.101         	19.677         	4.534
MS.102         	19.637         	4.589
MS.103         	19.6           	4.552
MS.104         	19.56          	4.528
MS.105         	19.52          	4.504
MS.106         	19.483         	4.593
MS.107         	19.442         	4.611
MS.108         	19.405         	4.612
MS.109         	19.365         	4.49
MS.110         	19.327         	4.55
MS.111         	19.288         	4.497
MS.112         	19.25          	4.474
MS.113         	19.21          	4.553
MS.114         	19.172         	4.439
MS.115         	19.135         	4.511
MS.116         	19.097         	4.489
MS.117         	19.057         	4.457
MS.118         	19.02          	4.51
MS.119         	18.983         	4.396
MS.120         	18.945         	4.449
MS.121         	18.907         	4.474
MS.122         	18.868         	4.424
MS.123         	18.83          	4.441
MS.124         	18.792         	4.418
MS.125         	18.755         	4.449
MS.126         	18.717         	4.471
MS.127         	18.68          	4.43
MS.128         	18.642         	4.4
MS.129         	18.605         	4.373
MS.130         	18.57          	4.398
MS.131         	18.532         	4.398
MS.132         	18.495         	4.387
MS.133         	18.458         	4.321
MS.134         	18.42          	4.377
MS.135         	18.385         	4.324
MS.136         	18.347         	4.315
MS.137         	18.31          	4.284
MS.138         	18.275         	4.265
MS.139         	18.237         	4.325
MS.140         	18.202         	4.21
MS.141         	18.165         	4.236
MS.142         	18.128         	4.218
MS.143         	18.092         	4.253
MS.144         	18.057         	4.271
MS.145         	18.02          	4.324
MS.146         	17.985         	4.261
MS.147         	17.948         	4.281
MS.148         	17.913         	4.304
MS.149         	17.878         	4.088
MS.150         	17.84          	4.154
MS.151         	17.805         	4.199
MS.152         	17.77          	4.091
MS.153         	17.735         	4.067
MS.154         	17.7           	4.127
MS.155         	17.663         	4.105
MS.156         	17.628         	4.072
MS.157         	17.592         	4.104
MS.158         	17.557         	4.078
MS.159         	17.522         	4.045
MS.160         	17.487         	4.088
MS.161         	17.452         	3.933
MS.162         	17.417         	3.984
MS.163         	17.382         	4.061
MS.164         	17.347         	4.061
MS.165         	17.312         	3.928
MS.166         	17.28          	3.976
MS.167         	17.245         	3.981
MS.168         	17.21          	3.966
MS.169         	17.175         	3.875
MS.170         	17.142         	3.893
MS.171         	17.108         	3.918
MS.172         	17.073         	3.809
MS.173         	17.04          	3.79
MS.174         	17.005         	3.882
MS.175         	16.97          	3.807
MS.176         	16.938         	3.847
MS.177         	16.903         	3.837
MS.178         	16.87          	3.848
MS.179         	16.835         	3.83
MS.180         	16.802         	3.835
MS.181         	16.767         	3.759
MS.182         	16.735         	3.738
MS.183         	16.702         	3.674
MS.184         	16.667         	3.767
MS.185         	16.635         	3.656
MS.186         	16.602         	3.674
MS.187         	16.567         	3.722
MS.188         	16.535         	3.626
MS.189         	16.503         	3.58
MS.190         	16.47          	3.598
MS.191         	16.438         	3.593
MS.192         	16.403         	3.562
MS.193         	16.37          	3.567
MS.194         	16.337         	3.578
MS.195         	16.305         	3.449
MS.196         	16.272         	3.539
MS.197         	16.24          	3.488
MS.198         	16.208         	3.446
MS.199         	16.175         	3.524
MS.200         	16.142         	3.53
MS.201         	16.11          	3.448
MS.202         	16.077         	3.472
MS.203         	16.047         	3.379
MS.204         	16.015         	3.393
MS.205         	15.983         	3.239
MS.206         	15.95          	3.364
MS.207         	15.917         	3.289
MS.208         	15.887         	3.337
MS.209         	15.855         	3.274
MS.210         	15.822         	3.217
MS.211         	15.792         	3.27
MS.212         	15.76          	3.168
MS.213         	15.73          	3.193
MS.214         	15.697         	3.239
MS.215         	15.665         	3.257
MS.216         	15.635         	3.163
MS.217         	15.602         	3.152
MS.218         	15.572         	3.206
MS.219         	15.54          	3.105
MS.220         	15.51          	3.096
MS.221         	15.48          	3.124
MS.222         	15.447         	3.107
MS.223         	15.417         	3.022
MS.224         	15.387         	2.993
MS.225         	15.355         	3.073
MS.226         	15.325         	3.077
MS.227         	15.295         	3.04
MS.228         	15.265         	2.993
MS.229         	15.233         	3.01
MS.230         	15.202         	3.024
MS.231         	15.172         	2.914
MS.232         	15.142         	3.011
MS.233         	15.112         	2.945
MS.234         	15.082         	2.853
MS.235         	15.052         	2.927
MS.236         	15.023         	2.941
MS.237         	14.992         	2.913
MS.238         	14.962         	2.894
MS.239         	14.932         	2.872
MS.240         	14.902         	2.842
MS.241         	14.872         	2.711
MS.242         	14.842         	2.817
MS.243         	14.812         	2.808
MS.244         	14.782         	2.727
MS.245         	14.752         	2.696
MS.246         	14.725         	2.6
MS.247         	14.695         	2.719
MS.248         	14.665         	2.73
MS.249         	14.635         	2.743
MS.250         	14.608         	2.615
MS.251         	14.577         	2.604
MS.252         	14.547         	2.643
MS.253         	14.52          	2.601
MS.254         	14.49          	2.546
MS.255         	14.462         	2.563
MS.256         	14.432         	2.527
MS.257         	14.405         	2.48
MS.258         	14.375         	2.51
MS.259         	14.347         	2.469
MS.260         	14.318         	2.494
MS.261         	14.29          	2.471
MS.262         	14.26          	2.41
MS.263         	14.233         	2.483
MS.264         	14.202         	2.368
MS.265         	14.175         	2.368
MS.266         	14.148         	2.345
MS.267         	14.117         	2.307
MS.268         	14.09          	2.368
MS.269         	14.062         	2.272
MS.270         	14.035         	2.245
MS.271         	14.005         	2.299
MS.272         	13.977         	2.246
MS.273         	13.95          	2.266
MS.274         	13.922         	2.235
MS.275         	13.895         	2.117
MS.276         	13.867         	2.158
MS.277         	13.84          	2.166
MS.278         	13.812         	2.072
MS.279         	13.785         	2.097
MS.280         	13.757         	2.08
MS.281         	13.73          	2.031
MS.282         	13.702         	1.978
MS.283         	13.675         	2.018
MS.284         	13.648         	1.876
MS.285         	13.62          	1.913
MS.286         	13.592         	1.875
MS.287         	13.565         	1.838
MS.288         	13.537         	1.754
MS.289         	13.51          	1.807
MS.290         	13.485         	1.78
MS.291         	13.457         	1.816
MS.292         	13.43          	1.749
MS.293         	13.403         	1.675
MS.294         	13.377         	1.747
MS.295         	13.35          	1.799
MS.296         	13.322         	1.708
MS.297         	13.297         	1.716
MS.298         	13.27          	1.632
MS.299         	13.242         	1.508
MS.300         	13.217         	1.581
MS.301         	13.19          	1.703
MS.302         	13.165         	1.542
MS.303         	13.137         	1.487
MS.304         	13.112         	1.422
MS.305         	13.085         	1.453
MS.306         	13.06          	1.446
MS.307         	13.032         	1.467
MS.308         	13.007         	1.339
MS.309         	12.98          	1.429
MS.310         	12.955         	1.426
MS.311         	12.93          	1.447
MS.312         	12.903         	1.453
MS.313         	12.877         	1.451
MS.314         	12.852         	1.35
MS.315         	12.827         	1.246
MS.316         	12.8           	1.229
MS.317         	12.775         	1.326
MS.318         	12.75          	1.216
MS.319         	12.725         	1.25
MS.320         	12.697         	1.152
MS.321         	12.672         	1.254
MS.322         	12.648         	1.233
MS.323         	12.622         	1.164
MS.324         	12.597         	1.082
MS.325         	12.572         	1.055
MS.326         	12.547         	1.145
MS.327         	12.523         	1.05
MS.328         	12.497         	1.102
MS.329         	12.472         	1.052
MS.330         	12.447         	1.013
MS.331         	12.422         	1.077
MS.332         	12.398         	1.096
MS.333         	12.372         	0.974
MS.334         	12.347         	0.936
MS.335         	12.322         	0.933
MS.336         	12.297         	0.882
MS.337         	12.275         	0.978
MS.338         	12.25          	0.946
MS.339         	12.225         	0.839
MS.340         	12.2           	0.881
MS.341         	12.177         	0.831
MS.342         	12.153         	0.858
MS.343         	12.127         	0.927
MS.344         	12.102         	0.848
MS.345         	12.08          	0.847
MS.346         	12.055         	0.732
MS.347         	12.03          	0.728
MS.348         	12.007         	0.75
MS.349         	11.983         	0.736
MS.350         	11.96          	0.748
MS.351         	11.935         	0.69
MS.352         	11.912         	0.771
MS.353         	11.887         	0.714
MS.354         	11.865         	0.689
MS.355         	11.84          	0.649
MS.356         	11.818         	0.674
MS.357         	11.792         	0.651
MS.358         	11.77          	0.674
MS.359         	11.745         	0.598
MS.360         	11.722         	0.62
MS.361         	11.7           	0.566
MS.362         	11.675         	0.63
MS.363         	11.653         	0.563
MS.364         	11.63          	0.543
MS.365         	11.605         	0.495
MS.366         	11.582         	0.559
MS.367         	11.56          	0.522
MS.368         	11.537         	0.548
MS.369         	11.512         	0.549
MS.370         	11.49          	0.483
MS.371         	11.467         	0.509
MS.372         	11.445         	0.453
MS.373         	11.422         	0.468
MS.374         	11.398         	0.511
MS.375         	11.375         	0.474
MS.376         	11.352         	0.47
MS.377         	11.33          	0.441
MS.378         	11.307         	0.419
MS.379         	11.285         	0.434
MS.380         	11.262         	0.445
MS.381         	11.24          	0.392
MS.382         	11.217         	0.41
MS.383         	11.195         	0.406
MS.384         	11.172         	0.438
MS.385         	11.15          	0.427
MS.386         	11.127         	0.387
MS.387         	11.105         	0.408
MS.388         	11.085         	0.399
MS.389         	11.062         	0.381
MS.390         	11.04          	0.375
MS.391         	11.017         	0.391
MS.392         	10.995         	0.362
MS.393         	10.972         	0.383
MS.394         	10.952         	0.364
MS.395         	10.93          	0.358
MS.396         	10.907         	0.358
MS.397         	10.885         	0.358
MS.398         	10.865         	0.336
MS.399         	10.842         	0.348
MS.400         	10.82          	0.353
MS.401         	10.8           	0.35
MS.402         	10.778         	0.33
MS.403         	10.757         	0.32
MS.404         	10.735         	0.306
MS.405         	10.712         	0.328
MS.406         	10.693         	0.302
MS.407         	10.67          	0.306
MS.408         	10.65          	0.329
MS.409         	10.627         	0.283
MS.410         	10.608         	0.309
MS.411         	10.585         	0.316
MS.412         	10.565         	0.302
MS.413         	10.542         	0.275
MS.414         	10.523         	0.25
MS.415         	10.502         	0.243
MS.416         	10.48          	0.257
MS.417         	10.46          	0.228
MS.418         	10.438         	0.268
MS.419         	10.417         	0.178
MS.420         	10.398         	0.236
MS.421         	10.375         	0.257
MS.422         	10.355         	0.206
MS.423         	10.335         	0.193
MS.424         	10.315         	0.201
MS.425         	10.292         	0.15
MS.426         	10.273         	0.107
MS.427         	10.252         	0.156
MS.428         	10.233         	0.17
MS.429         	10.212         	0.156
MS.430         	10.19          	0.146
MS.431         	10.17          	0.106
MS.432         	10.15          	0.155
MS.433         	10.13          	0.131
MS.434         	10.11          	0.082
MS.435         	10.09          	0.108
MS.436         	10.07          	0.104
MS.437         	10.05          	0.073
MS.438         	10.03          	0.098
MS.439         	10.01          	0.128
MS.440         	9.99           	0.106
MS.441         	9.97           	0.129
MS.442         	9.95           	0.06
MS.443         	9.93           	0.061
MS.444         	9.91           	0.102
MS.445         	9.89           	0.07
MS.446         	9.87           	0.075
MS.447         	9.85           	0.083
MS.448         	9.83           	0.063
MS.449         	9.81           	0.057
MS.450         	9.792          	0.051
MS.451         	9.773          	0.078
MS.452         	9.752          	0.046
MS.453         	9.733          	0.087
MS.454         	9.712          	0.048
MS.455         	9.695          	0.059
MS.456         	9.675          	0.055
MS.457         	9.655          	0.048
MS.458         	9.635          	0.054
MS.459         	9.617          	0.05
MS.460         	9.597          	0.054
MS.461         	9.577          	0.051
MS.462         	9.56           	0.035
MS.463         	9.54           	0.048
MS.464         	9.52           	0.035
MS.465         	9.502          	0.045
MS.466         	9.483          	0.039
MS.467         	9.465          	0.056
MS.468         	9.445          	0.034
MS.469         	9.425          	0.034
MS.470         	9.407          	0.033
MS.471         	9.387          	0.034
MS.472         	9.37           	0.03
MS.473         	9.35           	0.031
MS.474         	9.332          	0.042
MS.475         	9.315          	0.034
MS.476         	9.295          	0.032
MS.477         	9.278          	0.031
MS.478         	9.257          	0.016
MS.479         	9.24           	0.037
MS.480         	9.22           	0.027
MS.481         	9.202          	0.02
MS.482         	9.185          	0.023
MS.483         	9.165          	0.015
MS.484         	9.148          	0.03
MS.485         	9.13           	0.031
MS.486         	9.11           	0.035
MS.487         	9.092          	0.018
MS.488         	9.075          	0.023
MS.489         	9.057          	0.016
MS.490         	9.037          	0.032
MS.491         	9.02           	0.015
MS.492         	9.002          	0.021
MS.493         	8.985          	0.032
MS.494         	8.967          	0.012
MS.495         	8.948          	0.011
MS.496         	8.93           	0.029
MS.497         	8.912          	0.01
MS.498         	8.895          	0.02
MS.499         	8.877          	0.009
MS.500         	8.86           	0.014
MS.501         	8.842          	0.012
MS.502         	8.825          	0.009
MS.503         	8.807          	0.016
