File:              	n:\Qtrac\Data\MScan\Normative Controls\CP Nerve\MSCC10718C.QZD
Name:              	MI29A
Protocol:          	MSCAN-R2
Date:              	18/7/21
Start time:        	15:01:52
Age:               	21
Sex:               	F
Temperature:       	34.4
S/R sites:         	Knee CP-TA
NC/disease:        	NC
Operator:          	BJ
Comments:
M-SCAN DATA (14.2-3.9m)
Scanpts: 9, 26, 620, 642
Stim. (mA)     	Amp. (mV)
MS.1           	23.5           	6.823
MS.2           	23.5           	6.816
MS.3           	23.5           	6.764
MS.4           	23.5           	6.809
MS.5           	23.5           	6.865
MS.6           	23.5           	6.812
MS.7           	23.5           	6.794
MS.8           	23.5           	6.818
MS.9           	23.5           	6.803
MS.10          	23.5           	6.836
MS.11          	23.5           	6.826
MS.12          	23.5           	6.815
MS.13          	23.5           	6.753
MS.14          	23.5           	6.823
MS.15          	23.5           	6.81
MS.16          	23.5           	6.843
MS.17          	23.5           	6.813
MS.18          	23.5           	6.819
MS.19          	23.5           	6.803
MS.20          	23.5           	6.814
MS.21          	23.5           	6.83
MS.22          	23.5           	6.802
MS.23          	23.5           	6.809
MS.24          	23.405         	6.815
MS.25          	23.36          	6.783
MS.26          	23.312         	6.794
MS.27          	23.265         	6.774
MS.28          	23.22          	6.808
MS.29          	23.172         	6.779
MS.30          	23.127         	6.832
MS.31          	23.08          	6.832
MS.32          	23.035         	6.793
MS.33          	22.987         	6.741
MS.34          	22.942         	6.83
MS.35          	22.897         	6.829
MS.36          	22.85          	6.79
MS.37          	22.805         	6.783
MS.38          	22.76          	6.775
MS.39          	22.715         	6.76
MS.40          	22.67          	6.786
MS.41          	22.622         	6.808
MS.42          	22.577         	6.779
MS.43          	22.532         	6.779
MS.44          	22.487         	6.794
MS.45          	22.442         	6.801
MS.46          	22.397         	6.841
MS.47          	22.355         	6.821
MS.48          	22.31          	6.796
MS.49          	22.265         	6.798
MS.50          	22.22          	6.802
MS.51          	22.175         	6.803
MS.52          	22.132         	6.799
MS.53          	22.087         	6.808
MS.54          	22.042         	6.759
MS.55          	22             	6.802
MS.56          	21.955         	6.744
MS.57          	21.91          	6.757
MS.58          	21.868         	6.761
MS.59          	21.823         	6.79
MS.60          	21.78          	6.771
MS.61          	21.737         	6.814
MS.62          	21.692         	6.769
MS.63          	21.65          	6.798
MS.64          	21.608         	6.798
MS.65          	21.562         	6.741
MS.66          	21.52          	6.752
MS.67          	21.477         	6.783
MS.68          	21.435         	6.738
MS.69          	21.392         	6.752
MS.70          	21.35          	6.732
MS.71          	21.305         	6.744
MS.72          	21.262         	6.733
MS.73          	21.22          	6.766
MS.74          	21.177         	6.736
MS.75          	21.137         	6.672
MS.76          	21.095         	6.732
MS.77          	21.052         	6.666
MS.78          	21.01          	6.676
MS.79          	20.967         	6.741
MS.80          	20.925         	6.691
MS.81          	20.885         	6.688
MS.82          	20.842         	6.62
MS.83          	20.8           	6.658
MS.84          	20.76          	6.748
MS.85          	20.717         	6.604
MS.86          	20.677         	6.675
MS.87          	20.635         	6.597
MS.88          	20.595         	6.62
MS.89          	20.552         	6.604
MS.90          	20.512         	6.608
MS.91          	20.47          	6.614
MS.92          	20.43          	6.617
MS.93          	20.39          	6.678
MS.94          	20.347         	6.614
MS.95          	20.307         	6.614
MS.96          	20.267         	6.641
MS.97          	20.227         	6.666
MS.98          	20.185         	6.604
MS.99          	20.145         	6.6
MS.100         	20.105         	6.628
MS.101         	20.065         	6.626
MS.102         	20.025         	6.637
MS.103         	19.985         	6.663
MS.104         	19.945         	6.615
MS.105         	19.905         	6.619
MS.106         	19.865         	6.606
MS.107         	19.825         	6.593
MS.108         	19.788         	6.559
MS.109         	19.747         	6.598
MS.110         	19.708         	6.549
MS.111         	19.667         	6.582
MS.112         	19.63          	6.51
MS.113         	19.59          	6.515
MS.114         	19.55          	6.543
MS.115         	19.512         	6.511
MS.116         	19.472         	6.403
MS.117         	19.432         	6.46
MS.118         	19.395         	6.517
MS.119         	19.355         	6.476
MS.120         	19.317         	6.47
MS.121         	19.278         	6.504
MS.122         	19.24          	6.431
MS.123         	19.202         	6.429
MS.124         	19.163         	6.432
MS.125         	19.125         	6.458
MS.126         	19.087         	6.429
MS.127         	19.047         	6.393
MS.128         	19.01          	6.357
MS.129         	18.972         	6.422
MS.130         	18.935         	6.366
MS.131         	18.897         	6.421
MS.132         	18.86          	6.339
MS.133         	18.823         	6.455
MS.134         	18.785         	6.449
MS.135         	18.747         	6.327
MS.136         	18.71          	6.365
MS.137         	18.672         	6.274
MS.138         	18.635         	6.332
MS.139         	18.597         	6.331
MS.140         	18.56          	6.375
MS.141         	18.522         	6.243
MS.142         	18.485         	6.213
MS.143         	18.448         	6.379
MS.144         	18.413         	6.316
MS.145         	18.375         	6.298
MS.146         	18.337         	6.272
MS.147         	18.302         	6.168
MS.148         	18.265         	6.217
MS.149         	18.227         	6.248
MS.150         	18.192         	6.189
MS.151         	18.155         	6.228
MS.152         	18.12          	6.182
MS.153         	18.083         	6.184
MS.154         	18.047         	6.129
MS.155         	18.01          	6.096
MS.156         	17.975         	6.138
MS.157         	17.94          	6.091
MS.158         	17.903         	6.107
MS.159         	17.868         	6.084
MS.160         	17.833         	5.848
MS.161         	17.797         	5.985
MS.162         	17.76          	5.997
MS.163         	17.725         	5.945
MS.164         	17.69          	5.927
MS.165         	17.655         	5.852
MS.166         	17.62          	5.872
MS.167         	17.585         	5.786
MS.168         	17.55          	5.72
MS.169         	17.515         	5.811
MS.170         	17.48          	5.674
MS.171         	17.445         	5.759
MS.172         	17.41          	5.657
MS.173         	17.375         	5.715
MS.174         	17.34          	5.579
MS.175         	17.305         	5.671
MS.176         	17.27          	5.725
MS.177         	17.235         	5.779
MS.178         	17.202         	5.658
MS.179         	17.167         	5.675
MS.180         	17.132         	5.684
MS.181         	17.097         	5.626
MS.182         	17.065         	5.671
MS.183         	17.03          	5.463
MS.184         	16.997         	5.596
MS.185         	16.962         	5.508
MS.186         	16.927         	5.547
MS.187         	16.895         	5.562
MS.188         	16.86          	5.377
MS.189         	16.827         	5.494
MS.190         	16.792         	5.328
MS.191         	16.76          	5.388
MS.192         	16.727         	5.299
MS.193         	16.692         	5.299
MS.194         	16.66          	5.282
MS.195         	16.628         	5.138
MS.196         	16.592         	5.215
MS.197         	16.56          	5.153
MS.198         	16.528         	5.188
MS.199         	16.495         	5.222
MS.200         	16.46          	5.154
MS.201         	16.427         	5.2
MS.202         	16.395         	5.181
MS.203         	16.362         	5.143
MS.204         	16.33          	5.044
MS.205         	16.297         	5.072
MS.206         	16.265         	5.187
MS.207         	16.233         	5.104
MS.208         	16.2           	4.984
MS.209         	16.167         	5.131
MS.210         	16.135         	4.941
MS.211         	16.102         	5.057
MS.212         	16.07          	4.993
MS.213         	16.038         	4.932
MS.214         	16.007         	5.018
MS.215         	15.975         	4.88
MS.216         	15.943         	4.979
MS.217         	15.91          	4.849
MS.218         	15.88          	4.824
MS.219         	15.847         	4.761
MS.220         	15.815         	4.817
MS.221         	15.785         	4.889
MS.222         	15.752         	4.812
MS.223         	15.72          	4.74
MS.224         	15.69          	4.792
MS.225         	15.657         	4.9
MS.226         	15.627         	4.833
MS.227         	15.595         	4.8
MS.228         	15.565         	4.791
MS.229         	15.532         	4.767
MS.230         	15.502         	4.775
MS.231         	15.472         	4.778
MS.232         	15.44          	4.652
MS.233         	15.41          	4.648
MS.234         	15.38          	4.614
MS.235         	15.347         	4.636
MS.236         	15.318         	4.561
MS.237         	15.287         	4.449
MS.238         	15.257         	4.415
MS.239         	15.225         	4.471
MS.240         	15.195         	4.365
MS.241         	15.165         	4.31
MS.242         	15.135         	4.288
MS.243         	15.105         	4.175
MS.244         	15.075         	4.156
MS.245         	15.045         	4.11
MS.246         	15.015         	4.015
MS.247         	14.985         	4.011
MS.248         	14.955         	4.038
MS.249         	14.925         	4.104
MS.250         	14.895         	3.95
MS.251         	14.865         	4.017
MS.252         	14.835         	4.038
MS.253         	14.805         	3.899
MS.254         	14.775         	3.976
MS.255         	14.747         	3.862
MS.256         	14.717         	3.842
MS.257         	14.688         	3.856
MS.258         	14.657         	3.763
MS.259         	14.63          	3.854
MS.260         	14.6           	3.856
MS.261         	14.57          	3.788
MS.262         	14.542         	3.8
MS.263         	14.512         	3.724
MS.264         	14.483         	3.655
MS.265         	14.455         	3.754
MS.266         	14.425         	3.726
MS.267         	14.398         	3.722
MS.268         	14.367         	3.717
MS.269         	14.34          	3.687
MS.270         	14.31          	3.705
MS.271         	14.282         	3.638
MS.272         	14.252         	3.663
MS.273         	14.225         	3.722
MS.274         	14.197         	3.545
MS.275         	14.167         	3.652
MS.276         	14.14          	3.505
MS.277         	14.112         	3.51
MS.278         	14.082         	3.402
MS.279         	14.055         	3.466
MS.280         	14.028         	3.384
MS.281         	14             	3.345
MS.282         	13.97          	3.317
MS.283         	13.943         	3.296
MS.284         	13.915         	3.215
MS.285         	13.887         	3.246
MS.286         	13.86          	3.158
MS.287         	13.832         	3.191
MS.288         	13.805         	3.108
MS.289         	13.778         	3.102
MS.290         	13.75          	3.037
MS.291         	13.722         	2.965
MS.292         	13.695         	2.988
MS.293         	13.667         	2.975
MS.294         	13.64          	3.027
MS.295         	13.612         	2.842
MS.296         	13.585         	2.905
MS.297         	13.557         	2.864
MS.298         	13.53          	2.776
MS.299         	13.505         	2.832
MS.300         	13.477         	2.765
MS.301         	13.45          	2.783
MS.302         	13.422         	2.749
MS.303         	13.398         	2.672
MS.304         	13.37          	2.704
MS.305         	13.342         	2.704
MS.306         	13.318         	2.673
MS.307         	13.29          	2.64
MS.308         	13.262         	2.644
MS.309         	13.237         	2.666
MS.310         	13.21          	2.552
MS.311         	13.185         	2.546
MS.312         	13.157         	2.634
MS.313         	13.132         	2.554
MS.314         	13.105         	2.466
MS.315         	13.08          	2.471
MS.316         	13.052         	2.474
MS.317         	13.028         	2.515
MS.318         	13             	2.473
MS.319         	12.975         	2.404
MS.320         	12.947         	2.399
MS.321         	12.922         	2.368
MS.322         	12.898         	2.384
MS.323         	12.87          	2.347
MS.324         	12.845         	2.391
MS.325         	12.82          	2.247
MS.326         	12.795         	2.247
MS.327         	12.767         	2.284
MS.328         	12.742         	2.217
MS.329         	12.717         	2.207
MS.330         	12.693         	2.17
MS.331         	12.667         	2.153
MS.332         	12.642         	2.133
MS.333         	12.617         	2.136
MS.334         	12.59          	2.056
MS.335         	12.565         	1.973
MS.336         	12.54          	2.053
MS.337         	12.515         	1.912
MS.338         	12.49          	1.909
MS.339         	12.465         	1.879
MS.340         	12.44          	1.926
MS.341         	12.415         	1.917
MS.342         	12.392         	1.808
MS.343         	12.367         	1.862
MS.344         	12.342         	1.799
MS.345         	12.318         	1.76
MS.346         	12.292         	1.763
MS.347         	12.267         	1.632
MS.348         	12.242         	1.672
MS.349         	12.22          	1.681
MS.350         	12.195         	1.648
MS.351         	12.17          	1.655
MS.352         	12.145         	1.572
MS.353         	12.122         	1.595
MS.354         	12.097         	1.558
MS.355         	12.072         	1.577
MS.356         	12.05          	1.52
MS.357         	12.025         	1.545
MS.358         	12             	1.501
MS.359         	11.977         	1.543
MS.360         	11.952         	1.541
MS.361         	11.93          	1.464
MS.362         	11.905         	1.516
MS.363         	11.882         	1.515
MS.364         	11.858         	1.488
MS.365         	11.835         	1.494
MS.366         	11.81          	1.477
MS.367         	11.787         	1.362
MS.368         	11.762         	1.462
MS.369         	11.74          	1.304
MS.370         	11.717         	1.394
MS.371         	11.693         	1.274
MS.372         	11.67          	1.261
MS.373         	11.648         	1.287
MS.374         	11.622         	1.257
MS.375         	11.6           	1.199
MS.376         	11.577         	1.141
MS.377         	11.552         	1.143
MS.378         	11.53          	1.119
MS.379         	11.507         	1.102
MS.380         	11.485         	1.086
MS.381         	11.462         	1.035
MS.382         	11.438         	1.025
MS.383         	11.415         	1.031
MS.384         	11.392         	0.961
MS.385         	11.37          	0.978
MS.386         	11.347         	1.005
MS.387         	11.325         	0.966
MS.388         	11.302         	0.935
MS.389         	11.28          	0.973
MS.390         	11.257         	0.955
MS.391         	11.235         	0.948
MS.392         	11.212         	0.909
MS.393         	11.19          	0.897
MS.394         	11.167         	0.862
MS.395         	11.145         	0.852
MS.396         	11.122         	0.885
MS.397         	11.1           	0.803
MS.398         	11.077         	0.829
MS.399         	11.055         	0.806
MS.400         	11.035         	0.863
MS.401         	11.012         	0.825
MS.402         	10.99          	0.813
MS.403         	10.967         	0.802
MS.404         	10.945         	0.784
MS.405         	10.925         	0.813
MS.406         	10.903         	0.743
MS.407         	10.88          	0.819
MS.408         	10.86          	0.872
MS.409         	10.837         	0.742
MS.410         	10.815         	0.74
MS.411         	10.795         	0.739
MS.412         	10.773         	0.793
MS.413         	10.75          	0.747
MS.414         	10.73          	0.724
MS.415         	10.707         	0.723
MS.416         	10.688         	0.747
MS.417         	10.665         	0.757
MS.418         	10.645         	0.719
MS.419         	10.622         	0.697
MS.420         	10.602         	0.753
MS.421         	10.58          	0.701
MS.422         	10.56          	0.73
MS.423         	10.537         	0.619
MS.424         	10.517         	0.625
MS.425         	10.495         	0.563
MS.426         	10.475         	0.619
MS.427         	10.455         	0.604
MS.428         	10.432         	0.563
MS.429         	10.412         	0.586
MS.430         	10.392         	0.592
MS.431         	10.37          	0.62
MS.432         	10.35          	0.565
MS.433         	10.33          	0.509
MS.434         	10.31          	0.527
MS.435         	10.287         	0.579
MS.436         	10.267         	0.513
MS.437         	10.247         	0.459
MS.438         	10.227         	0.541
MS.439         	10.205         	0.485
MS.440         	10.185         	0.47
MS.441         	10.165         	0.455
MS.442         	10.145         	0.49
MS.443         	10.125         	0.463
MS.444         	10.105         	0.452
MS.445         	10.085         	0.446
MS.446         	10.065         	0.446
MS.447         	10.045         	0.41
MS.448         	10.025         	0.426
MS.449         	10.005         	0.416
MS.450         	9.985          	0.427
MS.451         	9.965          	0.425
MS.452         	9.945          	0.398
MS.453         	9.925          	0.433
MS.454         	9.905          	0.375
MS.455         	9.885          	0.361
MS.456         	9.865          	0.363
MS.457         	9.845          	0.347
MS.458         	9.825          	0.404
MS.459         	9.805          	0.333
MS.460         	9.787          	0.353
MS.461         	9.767          	0.331
MS.462         	9.747          	0.375
MS.463         	9.727          	0.332
MS.464         	9.707          	0.295
MS.465         	9.69           	0.299
MS.466         	9.67           	0.275
MS.467         	9.65           	0.261
MS.468         	9.63           	0.215
MS.469         	9.613          	0.284
MS.470         	9.592          	0.244
MS.471         	9.573          	0.261
MS.472         	9.555          	0.255
MS.473         	9.535          	0.25
MS.474         	9.515          	0.236
MS.475         	9.497          	0.264
MS.476         	9.477          	0.225
MS.477         	9.46           	0.217
MS.478         	9.44           	0.187
MS.479         	9.422          	0.173
MS.480         	9.403          	0.204
MS.481         	9.385          	0.173
MS.482         	9.365          	0.203
MS.483         	9.347          	0.192
MS.484         	9.327          	0.183
MS.485         	9.31           	0.192
MS.486         	9.29           	0.184
MS.487         	9.273          	0.173
MS.488         	9.252          	0.162
MS.489         	9.235          	0.168
MS.490         	9.217          	0.16
MS.491         	9.198          	0.172
MS.492         	9.18           	0.159
MS.493         	9.162          	0.188
MS.494         	9.142          	0.148
MS.495         	9.125          	0.131
MS.496         	9.108          	0.151
MS.497         	9.087          	0.126
MS.498         	9.07           	0.116
MS.499         	9.052          	0.104
MS.500         	9.035          	0.101
MS.501         	9.015          	0.099
MS.502         	8.997          	0.083
