File:              	n:\Qtrac\Data\MScan\Normative Controls\CP Nerve\MSCC10721C.QZD
Name:              	IM02A
Protocol:          	MSCAN-R2
Date:              	21/7/21
Start time:        	10:40:45
Age:               	70
Sex:               	F
Temperature:       	30.6
S/R sites:         	Knee CP-TA
NC/disease:        	NC
Operator:          	BJ
Comments:
M-SCAN DATA (19.4-4.8m)
Scanpts: 13, 39, 889, 921
Stim. (mA)     	Amp. (mV)
MS.1           	15             	5.613
MS.2           	15             	5.604
MS.3           	15             	5.608
MS.4           	15             	5.608
MS.5           	15             	5.605
MS.6           	15             	5.609
MS.7           	15             	5.608
MS.8           	15             	5.598
MS.9           	15             	5.607
MS.10          	15             	5.602
MS.11          	15             	5.608
MS.12          	15             	5.608
MS.13          	15             	5.614
MS.14          	15             	5.613
MS.15          	15             	5.612
MS.16          	15             	5.61
MS.17          	15             	5.608
MS.18          	15             	5.61
MS.19          	15             	5.614
MS.20          	15             	5.612
MS.21          	15             	5.619
MS.22          	15             	5.619
MS.23          	15             	5.616
MS.24          	14.94          	5.61
MS.25          	14.91          	5.615
MS.26          	14.88          	5.607
MS.27          	14.85          	5.619
MS.28          	14.82          	5.61
MS.29          	14.792         	5.607
MS.30          	14.762         	5.618
MS.31          	14.733         	5.61
MS.32          	14.702         	5.61
MS.33          	14.672         	5.599
MS.34          	14.645         	5.607
MS.35          	14.615         	5.613
MS.36          	14.585         	5.607
MS.37          	14.557         	5.604
MS.38          	14.527         	5.614
MS.39          	14.497         	5.609
MS.40          	14.47          	5.614
MS.41          	14.44          	5.616
MS.42          	14.412         	5.608
MS.43          	14.382         	5.615
MS.44          	14.355         	5.607
MS.45          	14.325         	5.618
MS.46          	14.297         	5.579
MS.47          	14.267         	5.588
MS.48          	14.24          	5.609
MS.49          	14.212         	5.602
MS.50          	14.182         	5.586
MS.51          	14.155         	5.59
MS.52          	14.127         	5.58
MS.53          	14.097         	5.594
MS.54          	14.07          	5.586
MS.55          	14.042         	5.614
MS.56          	14.015         	5.59
MS.57          	13.985         	5.604
MS.58          	13.957         	5.605
MS.59          	13.93          	5.609
MS.60          	13.903         	5.603
MS.61          	13.875         	5.593
MS.62          	13.847         	5.568
MS.63          	13.82          	5.587
MS.64          	13.792         	5.574
MS.65          	13.765         	5.58
MS.66          	13.737         	5.593
MS.67          	13.71          	5.573
MS.68          	13.682         	5.582
MS.69          	13.655         	5.59
MS.70          	13.627         	5.582
MS.71          	13.6           	5.593
MS.72          	13.572         	5.596
MS.73          	13.545         	5.598
MS.74          	13.517         	5.602
MS.75          	13.492         	5.583
MS.76          	13.465         	5.594
MS.77          	13.438         	5.598
MS.78          	13.41          	5.594
MS.79          	13.385         	5.597
MS.80          	13.358         	5.598
MS.81          	13.33          	5.596
MS.82          	13.305         	5.59
MS.83          	13.278         	5.592
MS.84          	13.25          	5.593
MS.85          	13.225         	5.563
MS.86          	13.197         	5.582
MS.87          	13.172         	5.594
MS.88          	13.145         	5.603
MS.89          	13.12          	5.599
MS.90          	13.092         	5.596
MS.91          	13.068         	5.591
MS.92          	13.04          	5.583
MS.93          	13.015         	5.598
MS.94          	12.987         	5.59
MS.95          	12.962         	5.596
MS.96          	12.938         	5.554
MS.97          	12.91          	5.588
MS.98          	12.885         	5.588
MS.99          	12.86          	5.594
MS.100         	12.832         	5.598
MS.101         	12.807         	5.563
MS.102         	12.782         	5.563
MS.103         	12.757         	5.56
MS.104         	12.73          	5.558
MS.105         	12.705         	5.563
MS.106         	12.68          	5.549
MS.107         	12.655         	5.557
MS.108         	12.63          	5.566
MS.109         	12.605         	5.553
MS.110         	12.58          	5.551
MS.111         	12.555         	5.559
MS.112         	12.53          	5.551
MS.113         	12.505         	5.566
MS.114         	12.48          	5.551
MS.115         	12.455         	5.557
MS.116         	12.43          	5.557
MS.117         	12.405         	5.562
MS.118         	12.38          	5.559
MS.119         	12.355         	5.566
MS.120         	12.33          	5.558
MS.121         	12.305         	5.563
MS.122         	12.28          	5.56
MS.123         	12.257         	5.557
MS.124         	12.233         	5.551
MS.125         	12.207         	5.557
MS.126         	12.182         	5.552
MS.127         	12.157         	5.551
MS.128         	12.135         	5.547
MS.129         	12.11          	5.547
MS.130         	12.085         	5.549
MS.131         	12.062         	5.559
MS.132         	12.037         	5.583
MS.133         	12.012         	5.552
MS.134         	11.99          	5.543
MS.135         	11.965         	5.548
MS.136         	11.943         	5.551
MS.137         	11.917         	5.579
MS.138         	11.895         	5.536
MS.139         	11.87          	5.599
MS.140         	11.847         	5.57
MS.141         	11.822         	5.551
MS.142         	11.8           	5.542
MS.143         	11.775         	5.557
MS.144         	11.752         	5.557
MS.145         	11.73          	5.577
MS.146         	11.705         	5.543
MS.147         	11.682         	5.582
MS.148         	11.657         	5.551
MS.149         	11.635         	5.574
MS.150         	11.613         	5.553
MS.151         	11.59          	5.566
MS.152         	11.565         	5.592
MS.153         	11.542         	5.571
MS.154         	11.52          	5.548
MS.155         	11.497         	5.579
MS.156         	11.472         	5.586
MS.157         	11.45          	5.571
MS.158         	11.427         	5.568
MS.159         	11.405         	5.569
MS.160         	11.382         	5.562
MS.161         	11.36          	5.568
MS.162         	11.337         	5.555
MS.163         	11.315         	5.554
MS.164         	11.292         	5.56
MS.165         	11.27          	5.551
MS.166         	11.247         	5.524
MS.167         	11.225         	5.549
MS.168         	11.202         	5.549
MS.169         	11.18          	5.559
MS.170         	11.157         	5.546
MS.171         	11.135         	5.533
MS.172         	11.113         	5.551
MS.173         	11.09          	5.542
MS.174         	11.068         	5.552
MS.175         	11.045         	5.548
MS.176         	11.023         	5.547
MS.177         	11.002         	5.551
MS.178         	10.98          	5.57
MS.179         	10.957         	5.546
MS.180         	10.935         	5.546
MS.181         	10.915         	5.553
MS.182         	10.892         	5.548
MS.183         	10.87          	5.533
MS.184         	10.847         	5.555
MS.185         	10.827         	5.54
MS.186         	10.805         	5.548
MS.187         	10.785         	5.529
MS.188         	10.762         	5.533
MS.189         	10.74          	5.537
MS.190         	10.72          	5.538
MS.191         	10.698         	5.53
MS.192         	10.677         	5.549
MS.193         	10.655         	5.518
MS.194         	10.635         	5.521
MS.195         	10.613         	5.53
MS.196         	10.592         	5.546
MS.197         	10.57          	5.535
MS.198         	10.55          	5.522
MS.199         	10.528         	5.509
MS.200         	10.507         	5.52
MS.201         	10.485         	5.515
MS.202         	10.465         	5.531
MS.203         	10.445         	5.532
MS.204         	10.422         	5.514
MS.205         	10.403         	5.527
MS.206         	10.382         	5.522
MS.207         	10.36          	5.516
MS.208         	10.34          	5.524
MS.209         	10.32          	5.52
MS.210         	10.3           	5.52
MS.211         	10.278         	5.513
MS.212         	10.257         	5.507
MS.213         	10.238         	5.503
MS.214         	10.217         	5.496
MS.215         	10.198         	5.507
MS.216         	10.175         	5.511
MS.217         	10.155         	5.509
MS.218         	10.135         	5.504
MS.219         	10.115         	5.502
MS.220         	10.095         	5.479
MS.221         	10.075         	5.508
MS.222         	10.055         	5.507
MS.223         	10.035         	5.511
MS.224         	10.015         	5.491
MS.225         	9.995          	5.491
MS.226         	9.975          	5.492
MS.227         	9.955          	5.483
MS.228         	9.935          	5.481
MS.229         	9.915          	5.5
MS.230         	9.895          	5.507
MS.231         	9.875          	5.493
MS.232         	9.855          	5.461
MS.233         	9.835          	5.465
MS.234         	9.818          	5.482
MS.235         	9.797          	5.476
MS.236         	9.778          	5.479
MS.237         	9.757          	5.472
MS.238         	9.738          	5.464
MS.239         	9.717          	5.455
MS.240         	9.7            	5.469
MS.241         	9.68           	5.463
MS.242         	9.66           	5.459
MS.243         	9.64           	5.474
MS.244         	9.622          	5.459
MS.245         	9.602          	5.47
MS.246         	9.582          	5.461
MS.247         	9.565          	5.47
MS.248         	9.545          	5.464
MS.249         	9.525          	5.461
MS.250         	9.507          	5.455
MS.251         	9.488          	5.457
MS.252         	9.47           	5.448
MS.253         	9.45           	5.439
MS.254         	9.432          	5.448
MS.255         	9.412          	5.426
MS.256         	9.395          	5.441
MS.257         	9.375          	5.452
MS.258         	9.358          	5.425
MS.259         	9.337          	5.43
MS.260         	9.32           	5.419
MS.261         	9.3            	5.433
MS.262         	9.283          	5.428
MS.263         	9.262          	5.438
MS.264         	9.245          	5.408
MS.265         	9.225          	5.431
MS.266         	9.207          	5.422
MS.267         	9.19           	5.427
MS.268         	9.17           	5.402
MS.269         	9.153          	5.393
MS.270         	9.135          	5.388
MS.271         	9.115          	5.385
MS.272         	9.097          	5.387
MS.273         	9.08           	5.377
MS.274         	9.062          	5.405
MS.275         	9.042          	5.406
MS.276         	9.025          	5.41
MS.277         	9.007          	5.372
MS.278         	8.99           	5.372
MS.279         	8.972          	5.361
MS.280         	8.952          	5.359
MS.281         	8.935          	5.378
MS.282         	8.917          	5.397
MS.283         	8.9            	5.35
MS.284         	8.882          	5.337
MS.285         	8.865          	5.382
MS.286         	8.847          	5.342
MS.287         	8.83           	5.367
MS.288         	8.812          	5.374
MS.289         	8.795          	5.364
MS.290         	8.775          	5.341
MS.291         	8.757          	5.349
MS.292         	8.74           	5.321
MS.293         	8.722          	5.292
MS.294         	8.707          	5.298
MS.295         	8.69           	5.293
MS.296         	8.672          	5.31
MS.297         	8.655          	5.289
MS.298         	8.637          	5.217
MS.299         	8.62           	5.264
MS.300         	8.602          	5.278
MS.301         	8.585          	5.276
MS.302         	8.568          	5.275
MS.303         	8.55           	5.276
MS.304         	8.535          	5.199
MS.305         	8.517          	5.203
MS.306         	8.5            	5.199
MS.307         	8.483          	5.197
MS.308         	8.465          	5.208
MS.309         	8.45           	5.203
MS.310         	8.432          	5.188
MS.311         	8.415          	5.182
MS.312         	8.398          	5.154
MS.313         	8.382          	5.173
MS.314         	8.365          	5.151
MS.315         	8.347          	5.164
MS.316         	8.332          	5.137
MS.317         	8.315          	5.125
MS.318         	8.297          	5.129
MS.319         	8.283          	5.106
MS.320         	8.265          	5.154
MS.321         	8.247          	5.111
MS.322         	8.233          	5.1
MS.323         	8.215          	5.1
MS.324         	8.2            	5.089
MS.325         	8.182          	5.085
MS.326         	8.167          	5.067
MS.327         	8.15           	5.07
MS.328         	8.135          	5.067
MS.329         	8.117          	5.043
MS.330         	8.102          	5.081
MS.331         	8.085          	5.05
MS.332         	8.07           	5.048
MS.333         	8.052          	5.068
MS.334         	8.037          	5.01
MS.335         	8.02           	4.996
MS.336         	8.005          	4.982
MS.337         	7.99           	4.974
MS.338         	7.972          	5.02
MS.339         	7.957          	5.023
MS.340         	7.94           	5.011
MS.341         	7.925          	4.95
MS.342         	7.91           	4.917
MS.343         	7.892          	4.95
MS.344         	7.878          	4.941
MS.345         	7.862          	4.977
MS.346         	7.847          	4.944
MS.347         	7.83           	4.916
MS.348         	7.815          	4.928
MS.349         	7.8            	4.905
MS.350         	7.785          	4.9
MS.351         	7.767          	4.923
MS.352         	7.753          	4.873
MS.353         	7.737          	4.855
MS.354         	7.722          	4.871
MS.355         	7.707          	4.891
MS.356         	7.69           	4.89
MS.357         	7.675          	4.867
MS.358         	7.66           	4.835
MS.359         	7.645          	4.816
MS.360         	7.63           	4.856
MS.361         	7.615          	4.839
MS.362         	7.6            	4.863
MS.363         	7.585          	4.814
MS.364         	7.57           	4.824
MS.365         	7.555          	4.803
MS.366         	7.537          	4.758
MS.367         	7.523          	4.836
MS.368         	7.507          	4.814
MS.369         	7.492          	4.801
MS.370         	7.477          	4.779
MS.371         	7.462          	4.781
MS.372         	7.447          	4.753
MS.373         	7.435          	4.736
MS.374         	7.42           	4.8
MS.375         	7.405          	4.785
MS.376         	7.39           	4.724
MS.377         	7.375          	4.708
MS.378         	7.36           	4.711
MS.379         	7.345          	4.702
MS.380         	7.33           	4.728
MS.381         	7.315          	4.723
MS.382         	7.302          	4.729
MS.383         	7.287          	4.692
MS.384         	7.273          	4.722
MS.385         	7.257          	4.655
MS.386         	7.242          	4.668
MS.387         	7.227          	4.688
MS.388         	7.215          	4.629
MS.389         	7.2            	4.611
MS.390         	7.185          	4.689
MS.391         	7.17           	4.624
MS.392         	7.157          	4.625
MS.393         	7.142          	4.62
MS.394         	7.128          	4.609
MS.395         	7.115          	4.591
MS.396         	7.1            	4.6
MS.397         	7.085          	4.574
MS.398         	7.072          	4.559
MS.399         	7.057          	4.587
MS.400         	7.043          	4.508
MS.401         	7.03           	4.557
MS.402         	7.015          	4.501
MS.403         	7              	4.459
MS.404         	6.987          	4.495
MS.405         	6.972          	4.534
MS.406         	6.96           	4.515
MS.407         	6.945          	4.5
MS.408         	6.932          	4.495
MS.409         	6.918          	4.469
MS.410         	6.902          	4.442
MS.411         	6.89           	4.442
MS.412         	6.875          	4.407
MS.413         	6.862          	4.364
MS.414         	6.847          	4.412
MS.415         	6.835          	4.365
MS.416         	6.822          	4.364
MS.417         	6.807          	4.357
MS.418         	6.795          	4.359
MS.419         	6.78           	4.33
MS.420         	6.767          	4.316
MS.421         	6.753          	4.32
MS.422         	6.74           	4.276
MS.423         	6.727          	4.28
MS.424         	6.712          	4.327
MS.425         	6.7            	4.275
MS.426         	6.685          	4.222
MS.427         	6.672          	4.191
MS.428         	6.66           	4.23
MS.429         	6.645          	4.224
MS.430         	6.632          	4.277
MS.431         	6.62           	4.177
MS.432         	6.608          	4.138
MS.433         	6.592          	4.265
MS.434         	6.58           	4.192
MS.435         	6.567          	4.191
MS.436         	6.555          	4.161
MS.437         	6.54           	4.121
MS.438         	6.527          	4.113
MS.439         	6.515          	4.169
MS.440         	6.503          	4.066
MS.441         	6.487          	4.121
MS.442         	6.475          	4.1
MS.443         	6.462          	4.138
MS.444         	6.45           	4.033
MS.445         	6.438          	4.028
MS.446         	6.425          	4.015
MS.447         	6.41           	3.979
MS.448         	6.398          	3.975
MS.449         	6.385          	3.981
MS.450         	6.372          	4.06
MS.451         	6.36           	3.965
MS.452         	6.347          	3.931
MS.453         	6.335          	3.984
MS.454         	6.322          	3.993
MS.455         	6.31           	3.905
MS.456         	6.297          	3.86
MS.457         	6.285          	3.86
MS.458         	6.273          	3.938
MS.459         	6.26           	3.916
MS.460         	6.247          	3.749
MS.461         	6.235          	3.835
MS.462         	6.222          	3.903
MS.463         	6.21           	3.85
MS.464         	6.197          	3.831
MS.465         	6.185          	3.837
MS.466         	6.172          	3.834
MS.467         	6.16           	3.805
MS.468         	6.148          	3.772
MS.469         	6.135          	3.802
MS.470         	6.122          	3.8
MS.471         	6.11           	3.701
MS.472         	6.097          	3.743
MS.473         	6.088          	3.8
MS.474         	6.075          	3.726
MS.475         	6.062          	3.693
MS.476         	6.05           	3.729
MS.477         	6.037          	3.688
MS.478         	6.025          	3.594
MS.479         	6.012          	3.696
MS.480         	6.003          	3.643
MS.481         	5.99           	3.618
MS.482         	5.977          	3.561
MS.483         	5.965          	3.492
MS.484         	5.955          	3.479
MS.485         	5.942          	3.512
MS.486         	5.93           	3.547
MS.487         	5.918          	3.467
MS.488         	5.907          	3.552
MS.489         	5.895          	3.407
MS.490         	5.882          	3.501
MS.491         	5.87           	3.344
MS.492         	5.86           	3.229
MS.493         	5.847          	3.281
MS.494         	5.835          	3.422
MS.495         	5.825          	3.381
MS.496         	5.812          	3.359
MS.497         	5.8            	3.254
MS.498         	5.79           	3.264
MS.499         	5.777          	3.253
MS.500         	5.767          	3.325
MS.501         	5.755          	3.218
MS.502         	5.742          	3.275
MS.503         	5.733          	3.235
