File:              	n:\Qtrac\Data\MScan\Normative Controls\CP Nerve\MSCC10714C.QZD
Name:              	IM02A
Protocol:          	MSCAN-R2
Date:              	14/7/21
Start time:        	11:19:20
Age:               	70
Sex:               	F
Temperature:       	30.4
S/R sites:         	Knee CP-TA
NC/disease:        	NC
Operator:          	BJ
Comments:
M-SCAN DATA (11.1-2.9m)
Scanpts: 37, 48, 844, 865
Stim. (mA)     	Amp. (mV)
MS.1           	15.5           	6.122
MS.2           	15.5           	6.133
MS.3           	15.5           	6.129
MS.4           	15.5           	6.104
MS.5           	15.5           	6.08
MS.6           	15.5           	6.093
MS.7           	15.5           	6.083
MS.8           	15.5           	6.083
MS.9           	15.5           	6.084
MS.10          	15.5           	6.088
MS.11          	15.5           	6.083
MS.12          	15.5           	6.084
MS.13          	15.5           	6.082
MS.14          	15.5           	6.078
MS.15          	15.5           	6.086
MS.16          	15.5           	6.082
MS.17          	15.5           	6.075
MS.18          	15.5           	6.08
MS.19          	15.5           	6.078
MS.20          	15.5           	6.075
MS.21          	15.5           	6.075
MS.22          	15.5           	6.078
MS.23          	15.5           	6.097
MS.24          	15.438         	6.072
MS.25          	15.407         	6.067
MS.26          	15.377         	6.067
MS.27          	15.345         	6.068
MS.28          	15.315         	6.071
MS.29          	15.285         	6.06
MS.30          	15.255         	6.064
MS.31          	15.222         	6.067
MS.32          	15.193         	6.056
MS.33          	15.162         	6.061
MS.34          	15.132         	6.062
MS.35          	15.102         	6.055
MS.36          	15.072         	6.058
MS.37          	15.042         	6.069
MS.38          	15.012         	6.063
MS.39          	14.983         	6.068
MS.40          	14.952         	6.069
MS.41          	14.922         	6.066
MS.42          	14.892         	6.06
MS.43          	14.862         	6.067
MS.44          	14.832         	6.063
MS.45          	14.802         	6.063
MS.46          	14.773         	6.067
MS.47          	14.745         	6.068
MS.48          	14.715         	6.066
MS.49          	14.685         	6.064
MS.50          	14.655         	6.06
MS.51          	14.627         	6.056
MS.52          	14.597         	6.06
MS.53          	14.568         	6.038
MS.54          	14.54          	6.064
MS.55          	14.51          	6.063
MS.56          	14.48          	6.068
MS.57          	14.452         	6.064
MS.58          	14.422         	6.063
MS.59          	14.395         	6.055
MS.60          	14.365         	6.064
MS.61          	14.337         	6.04
MS.62          	14.307         	6.063
MS.63          	14.28          	6.057
MS.64          	14.25          	6.072
MS.65          	14.222         	6.034
MS.66          	14.195         	6.067
MS.67          	14.165         	6.038
MS.68          	14.137         	6.045
MS.69          	14.11          	6.035
MS.70          	14.08          	6.042
MS.71          	14.052         	6.057
MS.72          	14.025         	6.046
MS.73          	13.997         	6.039
MS.74          	13.97          	6.058
MS.75          	13.94          	6.05
MS.76          	13.912         	6.052
MS.77          	13.885         	6.044
MS.78          	13.858         	6.05
MS.79          	13.83          	6.047
MS.80          	13.802         	6.049
MS.81          	13.775         	6.053
MS.82          	13.747         	6.053
MS.83          	13.72          	6.044
MS.84          	13.693         	6.05
MS.85          	13.665         	6.044
MS.86          	13.637         	6.04
MS.87          	13.61          	6.047
MS.88          	13.582         	6.042
MS.89          	13.555         	6.05
MS.90          	13.53          	6.044
MS.91          	13.502         	6.028
MS.92          	13.475         	6.046
MS.93          	13.447         	6.035
MS.94          	13.42          	6.038
MS.95          	13.395         	6.033
MS.96          	13.367         	6.055
MS.97          	13.34          	6.041
MS.98          	13.315         	6.045
MS.99          	13.287         	6.033
MS.100         	13.26          	6.039
MS.101         	13.235         	6.041
MS.102         	13.207         	6.045
MS.103         	13.182         	6.042
MS.104         	13.155         	6.047
MS.105         	13.13          	6.047
MS.106         	13.102         	6.05
MS.107         	13.077         	6.05
MS.108         	13.05          	6.045
MS.109         	13.025         	6.041
MS.110         	12.997         	6.049
MS.111         	12.972         	6.041
MS.112         	12.947         	6.05
MS.113         	12.92          	6.051
MS.114         	12.895         	6.044
MS.115         	12.87          	6.045
MS.116         	12.842         	6.045
MS.117         	12.818         	6.033
MS.118         	12.792         	6.045
MS.119         	12.767         	6.055
MS.120         	12.74          	6.042
MS.121         	12.715         	6.035
MS.122         	12.69          	6.035
MS.123         	12.665         	6.04
MS.124         	12.64          	6.038
MS.125         	12.615         	6.041
MS.126         	12.59          	6.042
MS.127         	12.565         	6.038
MS.128         	12.54          	6.022
MS.129         	12.515         	6.038
MS.130         	12.49          	6.038
MS.131         	12.465         	6.04
MS.132         	12.44          	6.049
MS.133         	12.415         	6.021
MS.134         	12.39          	6.029
MS.135         	12.365         	6.034
MS.136         	12.34          	6.018
MS.137         	12.315         	6.001
MS.138         	12.29          	5.99
MS.139         	12.265         	6.025
MS.140         	12.242         	6.001
MS.141         	12.217         	6.008
MS.142         	12.193         	5.983
MS.143         	12.167         	5.983
MS.144         	12.145         	5.977
MS.145         	12.12          	5.977
MS.146         	12.095         	6.007
MS.147         	12.072         	5.978
MS.148         	12.047         	5.984
MS.149         	12.023         	5.989
MS.150         	12             	5.979
MS.151         	11.975         	5.997
MS.152         	11.95          	5.969
MS.153         	11.927         	5.972
MS.154         	11.903         	5.941
MS.155         	11.88          	5.983
MS.156         	11.855         	5.98
MS.157         	11.832         	5.97
MS.158         	11.807         	5.966
MS.159         	11.785         	5.942
MS.160         	11.762         	5.936
MS.161         	11.738         	5.935
MS.162         	11.715         	5.961
MS.163         	11.69          	5.944
MS.164         	11.667         	5.927
MS.165         	11.645         	5.937
MS.166         	11.622         	5.948
MS.167         	11.597         	5.948
MS.168         	11.575         	5.928
MS.169         	11.552         	5.951
MS.170         	11.528         	5.93
MS.171         	11.505         	5.955
MS.172         	11.483         	5.918
MS.173         	11.46          	5.916
MS.174         	11.438         	5.924
MS.175         	11.415         	5.927
MS.176         	11.39          	5.918
MS.177         	11.367         	5.902
MS.178         	11.345         	5.913
MS.179         	11.322         	5.908
MS.180         	11.3           	5.906
MS.181         	11.278         	5.901
MS.182         	11.255         	5.92
MS.183         	11.233         	5.906
MS.184         	11.21          	5.905
MS.185         	11.188         	5.901
MS.186         	11.165         	5.902
MS.187         	11.142         	5.898
MS.188         	11.12          	5.896
MS.189         	11.1           	5.898
MS.190         	11.077         	5.903
MS.191         	11.055         	5.906
MS.192         	11.032         	5.897
MS.193         	11.01          	5.889
MS.194         	10.988         	5.887
MS.195         	10.967         	5.883
MS.196         	10.945         	5.884
MS.197         	10.922         	5.88
MS.198         	10.9           	5.89
MS.199         	10.88          	5.895
MS.200         	10.858         	5.887
MS.201         	10.835         	5.87
MS.202         	10.815         	5.806
MS.203         	10.792         	5.874
MS.204         	10.77          	5.865
MS.205         	10.75          	5.861
MS.206         	10.727         	5.856
MS.207         	10.707         	5.867
MS.208         	10.685         	5.825
MS.209         	10.662         	5.823
MS.210         	10.642         	5.762
MS.211         	10.62          	5.818
MS.212         	10.6           	5.831
MS.213         	10.577         	5.833
MS.214         	10.557         	5.826
MS.215         	10.537         	5.848
MS.216         	10.515         	5.803
MS.217         	10.495         	5.811
MS.218         	10.472         	5.743
MS.219         	10.452         	5.739
MS.220         	10.432         	5.742
MS.221         	10.41          	5.732
MS.222         	10.39          	5.737
MS.223         	10.37          	5.72
MS.224         	10.347         	5.688
MS.225         	10.327         	5.704
MS.226         	10.307         	5.721
MS.227         	10.287         	5.725
MS.228         	10.265         	5.706
MS.229         	10.245         	5.693
MS.230         	10.225         	5.706
MS.231         	10.205         	5.698
MS.232         	10.185         	5.69
MS.233         	10.165         	5.679
MS.234         	10.142         	5.706
MS.235         	10.122         	5.673
MS.236         	10.102         	5.648
MS.237         	10.082         	5.676
MS.238         	10.062         	5.631
MS.239         	10.042         	5.634
MS.240         	10.023         	5.624
MS.241         	10.002         	5.638
MS.242         	9.983          	5.647
MS.243         	9.962          	5.636
MS.244         	9.943          	5.631
MS.245         	9.922          	5.621
MS.246         	9.903          	5.638
MS.247         	9.882          	5.62
MS.248         	9.863          	5.621
MS.249         	9.842          	5.599
MS.250         	9.825          	5.585
MS.251         	9.805          	5.618
MS.252         	9.785          	5.598
MS.253         	9.765          	5.574
MS.254         	9.745          	5.586
MS.255         	9.727          	5.566
MS.256         	9.707          	5.594
MS.257         	9.688          	5.566
MS.258         	9.667          	5.583
MS.259         	9.65           	5.562
MS.260         	9.63           	5.57
MS.261         	9.61           	5.574
MS.262         	9.59           	5.527
MS.263         	9.573          	5.542
MS.264         	9.552          	5.568
MS.265         	9.532          	5.493
MS.266         	9.515          	5.551
MS.267         	9.495          	5.569
MS.268         	9.477          	5.525
MS.269         	9.457          	5.548
MS.270         	9.44           	5.53
MS.271         	9.42           	5.555
MS.272         	9.4            	5.538
MS.273         	9.382          	5.54
MS.274         	9.363          	5.487
MS.275         	9.345          	5.504
MS.276         	9.327          	5.514
MS.277         	9.307          	5.48
MS.278         	9.29           	5.509
MS.279         	9.27           	5.482
MS.280         	9.252          	5.464
MS.281         	9.233          	5.468
MS.282         	9.215          	5.469
MS.283         	9.198          	5.436
MS.284         	9.177          	5.466
MS.285         	9.16           	5.455
MS.286         	9.142          	5.457
MS.287         	9.122          	5.452
MS.288         	9.105          	5.441
MS.289         	9.087          	5.438
MS.290         	9.07           	5.439
MS.291         	9.05           	5.424
MS.292         	9.033          	5.42
MS.293         	9.015          	5.443
MS.294         	8.997          	5.42
MS.295         	8.977          	5.402
MS.296         	8.96           	5.409
MS.297         	8.943          	5.383
MS.298         	8.925          	5.425
MS.299         	8.908          	5.389
MS.300         	8.89           	5.389
MS.301         	8.872          	5.405
MS.302         	8.852          	5.382
MS.303         	8.835          	5.392
MS.304         	8.818          	5.371
MS.305         	8.8            	5.403
MS.306         	8.783          	5.365
MS.307         	8.765          	5.394
MS.308         	8.747          	5.36
MS.309         	8.73           	5.358
MS.310         	8.712          	5.345
MS.311         	8.695          	5.378
MS.312         	8.677          	5.375
MS.313         	8.66           	5.361
MS.314         	8.642          	5.295
MS.315         	8.627          	5.303
MS.316         	8.61           	5.347
MS.317         	8.592          	5.297
MS.318         	8.575          	5.334
MS.319         	8.557          	5.332
MS.320         	8.54           	5.303
MS.321         	8.523          	5.32
MS.322         	8.507          	5.239
MS.323         	8.49           	5.259
MS.324         	8.472          	5.26
MS.325         	8.455          	5.232
MS.326         	8.44           	5.255
MS.327         	8.422          	5.245
MS.328         	8.405          	5.242
MS.329         	8.387          	5.203
MS.330         	8.372          	5.181
MS.331         	8.355          	5.222
MS.332         	8.337          	5.216
MS.333         	8.323          	5.16
MS.334         	8.305          	5.143
MS.335         	8.287          	5.179
MS.336         	8.273          	5.175
MS.337         	8.255          	5.151
MS.338         	8.238          	5.142
MS.339         	8.222          	5.16
MS.340         	8.205          	5.106
MS.341         	8.19           	5.101
MS.342         	8.172          	5.094
MS.343         	8.158          	5.083
MS.344         	8.14           	5.11
MS.345         	8.125          	5.067
MS.346         	8.108          	5.05
MS.347         	8.092          	5.067
MS.348         	8.075          	5.006
MS.349         	8.06           	5.043
MS.350         	8.042          	5.029
MS.351         	8.028          	5.02
MS.352         	8.01           	4.956
MS.353         	7.995          	5
MS.354         	7.98           	4.934
MS.355         	7.962          	4.977
MS.356         	7.947          	4.973
MS.357         	7.932          	4.955
MS.358         	7.915          	4.977
MS.359         	7.9            	4.985
MS.360         	7.885          	4.961
MS.361         	7.867          	4.937
MS.362         	7.852          	4.922
MS.363         	7.837          	4.938
MS.364         	7.82           	4.935
MS.365         	7.805          	4.913
MS.366         	7.79           	4.885
MS.367         	7.775          	4.894
MS.368         	7.76           	4.807
MS.369         	7.742          	4.88
MS.370         	7.727          	4.919
MS.371         	7.712          	4.799
MS.372         	7.697          	4.843
MS.373         	7.682          	4.777
MS.374         	7.668          	4.833
MS.375         	7.65           	4.789
MS.376         	7.635          	4.749
MS.377         	7.62           	4.744
MS.378         	7.605          	4.833
MS.379         	7.59           	4.712
MS.380         	7.575          	4.698
MS.381         	7.56           	4.695
MS.382         	7.545          	4.696
MS.383         	7.53           	4.708
MS.384         	7.515          	4.672
MS.385         	7.5            	4.686
MS.386         	7.485          	4.697
MS.387         	7.47           	4.69
MS.388         	7.455          	4.687
MS.389         	7.44           	4.622
MS.390         	7.425          	4.712
MS.391         	7.41           	4.674
MS.392         	7.395          	4.662
MS.393         	7.38           	4.662
MS.394         	7.365          	4.635
MS.395         	7.35           	4.598
MS.396         	7.337          	4.609
MS.397         	7.322          	4.645
MS.398         	7.307          	4.531
MS.399         	7.293          	4.525
MS.400         	7.277          	4.578
MS.401         	7.262          	4.495
MS.402         	7.25           	4.553
MS.403         	7.235          	4.542
MS.404         	7.22           	4.513
MS.405         	7.205          	4.497
MS.406         	7.19           	4.515
MS.407         	7.177          	4.38
MS.408         	7.162          	4.463
MS.409         	7.148          	4.42
MS.410         	7.132          	4.375
MS.411         	7.12           	4.358
MS.412         	7.105          	4.424
MS.413         	7.09           	4.36
MS.414         	7.077          	4.365
MS.415         	7.062          	4.358
MS.416         	7.047          	4.297
MS.417         	7.035          	4.313
MS.418         	7.02           	4.197
MS.419         	7.007          	4.196
MS.420         	6.992          	4.192
MS.421         	6.977          	4.253
MS.422         	6.965          	4.176
MS.423         	6.95           	4.233
MS.424         	6.938          	4.159
MS.425         	6.922          	4.2
MS.426         	6.91           	4.141
MS.427         	6.895          	4.16
MS.428         	6.882          	4.178
MS.429         	6.867          	4.147
MS.430         	6.855          	4.089
MS.431         	6.84           	4.095
MS.432         	6.827          	4.099
MS.433         	6.812          	4.005
MS.434         	6.8            	4.095
MS.435         	6.785          	3.981
MS.436         	6.773          	4
MS.437         	6.757          	3.987
MS.438         	6.745          	3.965
MS.439         	6.733          	3.953
MS.440         	6.717          	4.028
MS.441         	6.705          	4.008
MS.442         	6.692          	3.912
MS.443         	6.677          	3.972
MS.444         	6.665          	3.887
MS.445         	6.652          	3.857
MS.446         	6.637          	3.929
MS.447         	6.625          	3.901
MS.448         	6.612          	3.859
MS.449         	6.597          	3.873
MS.450         	6.585          	3.804
MS.451         	6.572          	3.741
MS.452         	6.56           	3.776
MS.453         	6.545          	3.79
MS.454         	6.532          	3.754
MS.455         	6.52           	3.715
MS.456         	6.507          	3.704
MS.457         	6.492          	3.721
MS.458         	6.48           	3.677
MS.459         	6.467          	3.649
MS.460         	6.455          	3.713
MS.461         	6.442          	3.701
MS.462         	6.43           	3.645
MS.463         	6.418          	3.663
MS.464         	6.402          	3.627
MS.465         	6.39           	3.658
MS.466         	6.378          	3.674
MS.467         	6.365          	3.584
MS.468         	6.352          	3.618
MS.469         	6.34           	3.582
MS.470         	6.327          	3.589
MS.471         	6.315          	3.612
MS.472         	6.302          	3.556
MS.473         	6.29           	3.48
MS.474         	6.277          	3.48
MS.475         	6.265          	3.51
MS.476         	6.253          	3.557
MS.477         	6.24           	3.494
MS.478         	6.227          	3.457
MS.479         	6.215          	3.474
MS.480         	6.202          	3.448
MS.481         	6.19           	3.442
MS.482         	6.177          	3.484
MS.483         	6.165          	3.464
MS.484         	6.152          	3.405
MS.485         	6.14           	3.466
MS.486         	6.128          	3.398
MS.487         	6.115          	3.467
MS.488         	6.102          	3.427
MS.489         	6.09           	3.378
MS.490         	6.08           	3.367
MS.491         	6.067          	3.372
MS.492         	6.055          	3.357
MS.493         	6.043          	3.394
MS.494         	6.03           	3.292
MS.495         	6.017          	3.318
MS.496         	6.007          	3.313
MS.497         	5.995          	3.289
MS.498         	5.983          	3.28
MS.499         	5.97           	3.246
MS.500         	5.957          	3.282
MS.501         	5.947          	3.242
MS.502         	5.935          	3.253
MS.503         	5.922          	3.206
