File:              	n:\Qtrac\Data\MScan\Normative Controls\CP Nerve\MSCC10731F.QZD
Name:              	MI06W
Protocol:          	MSCAN-R2
Date:              	31/7/21
Start time:        	11:55:52
Age:               	20
Sex:               	M
Temperature:       	32.9
S/R sites:         	Knee CP-TA
NC/disease:        	NC
Operator:          	BJ
Comments:
M-SCAN DATA (Repeat 3/3, 30.8-18.8m)
Scanpts: 17, 42, 700, 720
Stim. (mA)     	Amp. (mV)
MS.1           	14.5           	8.271
MS.2           	14.5           	8.259
MS.3           	14.47          	8.279
MS.4           	14.443         	8.268
MS.5           	14.412         	8.252
MS.6           	14.385         	8.275
MS.7           	14.355         	8.257
MS.8           	14.327         	8.263
MS.9           	14.297         	8.252
MS.10          	14.27          	8.243
MS.11          	14.242         	8.268
MS.12          	14.212         	8.267
MS.13          	14.185         	8.265
MS.14          	14.155         	8.301
MS.15          	14.127         	8.264
MS.16          	14.1           	8.264
MS.17          	14.072         	8.264
MS.18          	14.042         	8.262
MS.19          	14.015         	8.253
MS.20          	13.987         	8.245
MS.21          	13.96          	8.265
MS.22          	13.932         	8.26
MS.23          	13.903         	8.264
MS.24          	13.875         	8.262
MS.25          	13.847         	8.267
MS.26          	13.82          	8.25
MS.27          	13.792         	8.269
MS.28          	13.765         	8.271
MS.29          	13.737         	8.26
MS.30          	13.71          	8.274
MS.31          	13.682         	8.267
MS.32          	13.655         	8.236
MS.33          	13.627         	8.262
MS.34          	13.6           	8.24
MS.35          	13.575         	8.25
MS.36          	13.547         	8.243
MS.37          	13.52          	8.245
MS.38          	13.492         	8.253
MS.39          	13.465         	8.239
MS.40          	13.44          	8.258
MS.41          	13.412         	8.248
MS.42          	13.385         	8.237
MS.43          	13.358         	8.252
MS.44          	13.332         	8.268
MS.45          	13.305         	8.281
MS.46          	13.278         	8.252
MS.47          	13.252         	8.262
MS.48          	13.225         	8.253
MS.49          	13.2           	8.258
MS.50          	13.172         	8.26
MS.51          	13.148         	8.262
MS.52          	13.12          	8.247
MS.53          	13.095         	8.247
MS.54          	13.068         	8.265
MS.55          	13.042         	8.257
MS.56          	13.015         	8.242
MS.57          	12.99          	8.254
MS.58          	12.962         	8.273
MS.59          	12.938         	8.279
MS.60          	12.912         	8.285
MS.61          	12.885         	8.265
MS.62          	12.86          	8.263
MS.63          	12.835         	8.246
MS.64          	12.81          	8.257
MS.65          	12.782         	8.247
MS.66          	12.757         	8.246
MS.67          	12.733         	8.252
MS.68          	12.707         	8.257
MS.69          	12.682         	8.276
MS.70          	12.655         	8.25
MS.71          	12.63          	8.264
MS.72          	12.605         	8.25
MS.73          	12.58          	8.263
MS.74          	12.555         	8.25
MS.75          	12.53          	8.254
MS.76          	12.505         	8.262
MS.77          	12.48          	8.245
MS.78          	12.455         	8.256
MS.79          	12.43          	8.247
MS.80          	12.405         	8.251
MS.81          	12.38          	8.193
MS.82          	12.355         	8.229
MS.83          	12.332         	8.219
MS.84          	12.307         	8.235
MS.85          	12.282         	8.241
MS.86          	12.257         	8.258
MS.87          	12.233         	8.234
MS.88          	12.207         	8.248
MS.89          	12.185         	8.245
MS.90          	12.16          	8.248
MS.91          	12.135         	8.246
MS.92          	12.113         	8.251
MS.93          	12.087         	8.269
MS.94          	12.062         	8.258
MS.95          	12.04          	8.229
MS.96          	12.015         	8.253
MS.97          	11.99          	8.24
MS.98          	11.967         	8.242
MS.99          	11.943         	8.239
MS.100         	11.92          	8.224
MS.101         	11.895         	8.228
MS.102         	11.872         	8.19
MS.103         	11.847         	8.218
MS.104         	11.825         	8.198
MS.105         	11.8           	8.215
MS.106         	11.778         	8.231
MS.107         	11.752         	8.197
MS.108         	11.73          	8.195
MS.109         	11.707         	8.267
MS.110         	11.682         	8.202
MS.111         	11.66          	8.197
MS.112         	11.637         	8.217
MS.113         	11.613         	8.174
MS.114         	11.59          	8.228
MS.115         	11.568         	8.182
MS.116         	11.545         	8.207
MS.117         	11.52          	8.193
MS.118         	11.497         	8.21
MS.119         	11.475         	8.235
MS.120         	11.452         	8.228
MS.121         	11.43          	8.191
MS.122         	11.405         	8.206
MS.123         	11.382         	8.185
MS.124         	11.36          	8.202
MS.125         	11.337         	8.195
MS.126         	11.315         	8.179
MS.127         	11.292         	8.202
MS.128         	11.27          	8.196
MS.129         	11.247         	8.186
MS.130         	11.225         	8.188
MS.131         	11.202         	8.203
MS.132         	11.18          	8.19
MS.133         	11.157         	8.177
MS.134         	11.135         	8.191
MS.135         	11.113         	8.192
MS.136         	11.09          	8.192
MS.137         	11.07          	8.187
MS.138         	11.047         	8.187
MS.139         	11.025         	8.174
MS.140         	11.002         	8.152
MS.141         	10.98          	8.163
MS.142         	10.96          	8.17
MS.143         	10.938         	8.157
MS.144         	10.915         	8.17
MS.145         	10.892         	8.16
MS.146         	10.872         	8.151
MS.147         	10.85          	8.143
MS.148         	10.827         	8.137
MS.149         	10.807         	8.132
MS.150         	10.785         	8.143
MS.151         	10.762         	8.164
MS.152         	10.742         	8.136
MS.153         	10.72          	8.165
MS.154         	10.7           	8.165
MS.155         	10.677         	8.146
MS.156         	10.657         	8.179
MS.157         	10.635         	8.164
MS.158         	10.613         	8.12
MS.159         	10.592         	8.165
MS.160         	10.573         	8.125
MS.161         	10.55          	8.129
MS.162         	10.53          	8.202
MS.163         	10.507         	8.136
MS.164         	10.488         	8.153
MS.165         	10.465         	8.143
MS.166         	10.445         	8.207
MS.167         	10.425         	8.163
MS.168         	10.403         	8.151
MS.169         	10.382         	8.158
MS.170         	10.363         	8.071
MS.171         	10.342         	8.146
MS.172         	10.32          	8.079
MS.173         	10.3           	8.134
MS.174         	10.28          	8.076
MS.175         	10.26          	8.087
MS.176         	10.238         	8.153
MS.177         	10.217         	8.124
MS.178         	10.198         	8.114
MS.179         	10.177         	8.053
MS.180         	10.157         	8.116
MS.181         	10.137         	8.093
MS.182         	10.117         	8.115
MS.183         	10.095         	8.138
MS.184         	10.075         	8.08
MS.185         	10.055         	7.992
MS.186         	10.035         	8.018
MS.187         	10.015         	7.971
MS.188         	9.995          	7.902
MS.189         	9.975          	7.971
MS.190         	9.955          	7.86
MS.191         	9.935          	8.063
MS.192         	9.915          	7.942
MS.193         	9.895          	7.997
MS.194         	9.877          	7.911
MS.195         	9.858          	7.922
MS.196         	9.837          	7.866
MS.197         	9.818          	7.953
MS.198         	9.797          	8.051
MS.199         	9.778          	7.98
MS.200         	9.757          	7.968
MS.201         	9.74           	8.004
MS.202         	9.72           	7.979
MS.203         	9.7            	8.022
MS.204         	9.68           	7.863
MS.205         	9.662          	7.92
MS.206         	9.642          	8.042
MS.207         	9.622          	7.764
MS.208         	9.602          	7.866
MS.209         	9.585          	7.72
MS.210         	9.565          	7.728
MS.211         	9.547          	7.82
MS.212         	9.528          	7.88
MS.213         	9.507          	7.825
MS.214         	9.49           	7.808
MS.215         	9.47           	7.722
MS.216         	9.452          	7.755
MS.217         	9.432          	7.848
MS.218         	9.412          	7.664
MS.219         	9.395          	7.742
MS.220         	9.375          	7.791
MS.221         	9.358          	7.668
MS.222         	9.337          	7.689
MS.223         	9.32           	7.563
MS.224         	9.302          	7.737
MS.225         	9.283          	7.756
MS.226         	9.265          	7.548
MS.227         	9.245          	7.568
MS.228         	9.227          	7.561
MS.229         	9.207          	7.428
MS.230         	9.19           	7.461
MS.231         	9.172          	7.565
MS.232         	9.153          	7.397
MS.233         	9.135          	7.489
MS.234         	9.117          	7.437
MS.235         	9.1            	7.327
MS.236         	9.08           	7.411
MS.237         	9.062          	7.394
MS.238         	9.045          	7.537
MS.239         	9.028          	7.372
MS.240         	9.007          	7.358
MS.241         	8.99           	7.296
MS.242         	8.972          	7.291
MS.243         	8.955          	7.205
MS.244         	8.938          	7.378
MS.245         	8.917          	7.34
MS.246         	8.9            	7.423
MS.247         	8.882          	7.323
MS.248         	8.865          	7.36
MS.249         	8.847          	7.476
MS.250         	8.83           	7.238
MS.251         	8.812          	7.205
MS.252         	8.795          	7.223
MS.253         	8.778          	7.208
MS.254         	8.76           	7.164
MS.255         	8.742          	7.206
MS.256         	8.725          	7.179
MS.257         	8.707          	7.297
MS.258         	8.69           	7.172
MS.259         	8.672          	7.012
MS.260         	8.655          	7.136
MS.261         	8.637          	7.175
MS.262         	8.62           	7.057
MS.263         	8.602          	7.112
MS.264         	8.585          	6.973
MS.265         	8.57           	7.063
MS.266         	8.552          	7.109
MS.267         	8.535          	6.968
MS.268         	8.517          	7.013
MS.269         	8.5            	6.991
MS.270         	8.483          	6.835
MS.271         	8.467          	6.951
MS.272         	8.45           	6.843
MS.273         	8.432          	6.996
MS.274         	8.415          	6.849
MS.275         	8.4            	6.94
MS.276         	8.382          	7.001
MS.277         	8.365          	6.794
MS.278         	8.35           	6.836
MS.279         	8.332          	6.82
MS.280         	8.315          	6.884
MS.281         	8.3            	6.98
MS.282         	8.283          	6.595
MS.283         	8.265          	6.654
MS.284         	8.25           	6.786
MS.285         	8.233          	6.725
MS.286         	8.217          	6.704
MS.287         	8.2            	6.691
MS.288         	8.182          	6.51
MS.289         	8.167          	6.747
MS.290         	8.15           	6.656
MS.291         	8.135          	6.556
MS.292         	8.117          	6.44
MS.293         	8.102          	6.506
MS.294         	8.085          	6.498
MS.295         	8.07           	6.483
MS.296         	8.055          	6.404
MS.297         	8.037          	6.519
MS.298         	8.023          	6.47
MS.299         	8.005          	6.461
MS.300         	7.99           	6.462
MS.301         	7.972          	6.545
MS.302         	7.957          	6.426
MS.303         	7.942          	6.531
MS.304         	7.925          	6.367
MS.305         	7.91           	6.268
MS.306         	7.895          	6.417
MS.307         	7.878          	6.364
MS.308         	7.862          	6.177
MS.309         	7.847          	6.222
MS.310         	7.832          	6.219
MS.311         	7.815          	6.252
MS.312         	7.8            	6.35
MS.313         	7.785          	5.995
MS.314         	7.77           	6.097
MS.315         	7.753          	6.265
MS.316         	7.737          	6.022
MS.317         	7.722          	6.257
MS.318         	7.707          	5.967
MS.319         	7.692          	6.046
MS.320         	7.677          	5.951
MS.321         	7.66           	5.939
MS.322         	7.645          	5.835
MS.323         	7.63           	5.811
MS.324         	7.615          	5.811
MS.325         	7.6            	5.83
MS.326         	7.585          	5.938
MS.327         	7.57           	5.873
MS.328         	7.555          	5.823
MS.329         	7.54           	5.709
MS.330         	7.525          	5.702
MS.331         	7.51           	5.701
MS.332         	7.495          	5.784
MS.333         	7.48           	5.912
MS.334         	7.465          	5.605
MS.335         	7.45           	5.757
MS.336         	7.435          	5.686
MS.337         	7.42           	5.394
MS.338         	7.405          	5.443
MS.339         	7.39           	5.392
MS.340         	7.375          	5.322
MS.341         	7.36           	5.208
MS.342         	7.345          	5.33
MS.343         	7.332          	5.233
MS.344         	7.317          	5.143
MS.345         	7.302          	5.116
MS.346         	7.287          	5.26
MS.347         	7.273          	5.002
MS.348         	7.257          	5.072
MS.349         	7.245          	5.056
MS.350         	7.23           	4.988
MS.351         	7.215          	5.024
MS.352         	7.2            	5.043
MS.353         	7.185          	4.889
MS.354         	7.172          	4.846
MS.355         	7.157          	4.823
MS.356         	7.142          	4.855
MS.357         	7.13           	4.841
MS.358         	7.115          	4.64
MS.359         	7.1            	4.861
MS.360         	7.085          	4.611
MS.361         	7.072          	4.661
MS.362         	7.057          	4.722
MS.363         	7.045          	4.641
MS.364         	7.03           	4.677
MS.365         	7.015          	4.69
MS.366         	7.003          	4.497
MS.367         	6.987          	4.5
MS.368         	6.972          	4.319
MS.369         	6.96           	4.463
MS.370         	6.945          	4.214
MS.371         	6.932          	4.318
MS.372         	6.918          	4.308
MS.373         	6.905          	4.315
MS.374         	6.89           	4.357
MS.375         	6.878          	4.364
MS.376         	6.862          	4.353
MS.377         	6.85           	4.211
MS.378         	6.835          	4.153
MS.379         	6.822          	4.216
MS.380         	6.807          	4.131
MS.381         	6.795          	4.047
MS.382         	6.78           	4.164
MS.383         	6.767          	4.012
MS.384         	6.755          	3.965
MS.385         	6.74           	4.003
MS.386         	6.727          	3.922
MS.387         	6.712          	3.851
MS.388         	6.7            	3.832
MS.389         	6.688          	3.75
MS.390         	6.672          	3.862
MS.391         	6.66           	3.705
MS.392         	6.648          	3.832
MS.393         	6.632          	3.876
MS.394         	6.62           	3.632
MS.395         	6.608          	3.444
MS.396         	6.595          	3.732
MS.397         	6.58           	3.562
MS.398         	6.567          	3.517
MS.399         	6.555          	3.478
MS.400         	6.543          	3.485
MS.401         	6.527          	3.309
MS.402         	6.515          	3.317
MS.403         	6.503          	3.379
MS.404         	6.49           	3.24
MS.405         	6.477          	3.385
MS.406         	6.462          	3.22
MS.407         	6.45           	3.292
MS.408         	6.438          	3.274
MS.409         	6.425          	3.036
MS.410         	6.412          	3.169
MS.411         	6.4            	3.149
MS.412         	6.387          	3.09
MS.413         	6.372          	3.093
MS.414         	6.36           	3.06
MS.415         	6.347          	2.91
MS.416         	6.335          	3.009
MS.417         	6.322          	3.062
MS.418         	6.31           	2.997
MS.419         	6.297          	2.971
MS.420         	6.285          	2.939
MS.421         	6.273          	2.955
MS.422         	6.26           	2.885
MS.423         	6.247          	2.983
MS.424         	6.235          	2.893
MS.425         	6.222          	2.723
MS.426         	6.21           	2.833
MS.427         	6.197          	2.776
MS.428         	6.185          	2.758
MS.429         	6.172          	2.692
MS.430         	6.16           	2.676
MS.431         	6.148          	2.736
MS.432         	6.135          	2.577
MS.433         	6.122          	2.737
MS.434         	6.112          	2.549
MS.435         	6.1            	2.471
MS.436         	6.088          	2.484
MS.437         	6.075          	2.411
MS.438         	6.062          	2.515
MS.439         	6.05           	2.542
MS.440         	6.037          	2.455
MS.441         	6.027          	2.321
MS.442         	6.015          	2.374
MS.443         	6.003          	2.386
MS.444         	5.99           	2.318
MS.445         	5.977          	2.225
MS.446         	5.967          	2.384
MS.447         	5.955          	2.355
MS.448         	5.942          	2.177
MS.449         	5.93           	2.183
MS.450         	5.92           	2.208
MS.451         	5.907          	2.202
MS.452         	5.895          	2.107
MS.453         	5.882          	2.173
MS.454         	5.872          	2.153
MS.455         	5.86           	2.039
MS.456         	5.847          	2.047
MS.457         	5.838          	1.99
MS.458         	5.825          	1.946
MS.459         	5.812          	1.976
MS.460         	5.802          	1.969
MS.461         	5.79           	1.978
MS.462         	5.777          	1.764
MS.463         	5.767          	1.801
MS.464         	5.755          	1.703
MS.465         	5.745          	1.654
MS.466         	5.733          	1.632
MS.467         	5.72           	1.517
MS.468         	5.71           	1.594
MS.469         	5.697          	1.593
MS.470         	5.688          	1.514
MS.471         	5.675          	1.439
MS.472         	5.665          	1.39
MS.473         	5.652          	1.343
MS.474         	5.642          	1.415
MS.475         	5.63           	1.315
MS.476         	5.62           	1.349
MS.477         	5.608          	1.328
MS.478         	5.597          	1.246
MS.479         	5.585          	1.239
MS.480         	5.575          	1.141
MS.481         	5.562          	1.188
MS.482         	5.552          	1.107
MS.483         	5.54           	1.107
MS.484         	5.53           	1.178
MS.485         	5.517          	1.318
MS.486         	5.507          	1.171
MS.487         	5.497          	1.078
MS.488         	5.485          	1.051
MS.489         	5.475          	1.022
MS.490         	5.465          	1.023
MS.491         	5.452          	0.953
MS.492         	5.443          	0.964
MS.493         	5.43           	0.984
MS.494         	5.42           	0.968
MS.495         	5.41           	0.833
MS.496         	5.398          	0.886
MS.497         	5.387          	0.857
MS.498         	5.378          	0.809
MS.499         	5.367          	0.811
MS.500         	5.355          	0.819
MS.501         	5.345          	0.701
MS.502         	5.335          	0.808
