File:              	n:\Qtrac\Data\MScan\Normative Controls\CP Nerve\MSCC10807C.QZD
Name:              	WE08N
Protocol:          	MSCAN-R2
Date:              	7/8/21
Start time:        	09:41:46
Age:               	58
Sex:               	M
Temperature:       	33
S/R sites:         	Knee CP-TA
NC/disease:        	NC
Operator:          	BJ
Comments:
M-SCAN DATA (13.9-3.1m)
Scanpts: 62, 78, 675, 694
Stim. (mA)     	Amp. (mV)
MS.1           	21.5           	6.25
MS.2           	21.5           	6.256
MS.3           	21.5           	6.271
MS.4           	21.5           	6.262
MS.5           	21.5           	6.267
MS.6           	21.5           	6.256
MS.7           	21.5           	6.259
MS.8           	21.5           	6.26
MS.9           	21.5           	6.279
MS.10          	21.5           	6.276
MS.11          	21.5           	6.288
MS.12          	21.5           	6.292
MS.13          	21.5           	6.283
MS.14          	21.5           	6.294
MS.15          	21.5           	6.317
MS.16          	21.5           	6.294
MS.17          	21.5           	6.298
MS.18          	21.5           	6.298
MS.19          	21.5           	6.293
MS.20          	21.5           	6.288
MS.21          	21.5           	6.294
MS.22          	21.5           	6.295
MS.23          	21.5           	6.301
MS.24          	21.415         	6.302
MS.25          	21.372         	6.307
MS.26          	21.327         	6.312
MS.27          	21.285         	6.309
MS.28          	21.243         	6.3
MS.29          	21.2           	6.309
MS.30          	21.157         	6.318
MS.31          	21.118         	6.313
MS.32          	21.075         	6.316
MS.33          	21.032         	6.32
MS.34          	20.99          	6.332
MS.35          	20.948         	6.333
MS.36          	20.907         	6.332
MS.37          	20.865         	6.334
MS.38          	20.823         	6.326
MS.39          	20.78          	6.323
MS.40          	20.74          	6.334
MS.41          	20.698         	6.328
MS.42          	20.657         	6.339
MS.43          	20.615         	6.345
MS.44          	20.575         	6.328
MS.45          	20.532         	6.329
MS.46          	20.493         	6.343
MS.47          	20.452         	6.337
MS.48          	20.41          	6.335
MS.49          	20.37          	6.35
MS.50          	20.33          	6.323
MS.51          	20.288         	6.354
MS.52          	20.247         	6.337
MS.53          	20.208         	6.342
MS.54          	20.167         	6.327
MS.55          	20.127         	6.366
MS.56          	20.087         	6.35
MS.57          	20.047         	6.367
MS.58          	20.007         	6.36
MS.59          	19.967         	6.318
MS.60          	19.927         	6.337
MS.61          	19.887         	6.318
MS.62          	19.847         	6.331
MS.63          	19.807         	6.326
MS.64          	19.767         	6.354
MS.65          	19.727         	6.335
MS.66          	19.69          	6.349
MS.67          	19.65          	6.34
MS.68          	19.61          	6.367
MS.69          	19.57          	6.334
MS.70          	19.532         	6.36
MS.71          	19.493         	6.351
MS.72          	19.455         	6.343
MS.73          	19.415         	6.362
MS.74          	19.377         	6.339
MS.75          	19.337         	6.348
MS.76          	19.3           	6.356
MS.77          	19.26          	6.367
MS.78          	19.222         	6.322
MS.79          	19.182         	6.305
MS.80          	19.145         	6.342
MS.81          	19.108         	6.311
MS.82          	19.067         	6.327
MS.83          	19.03          	6.355
MS.84          	18.993         	6.305
MS.85          	18.955         	6.346
MS.86          	18.917         	6.334
MS.87          	18.88          	6.296
MS.88          	18.842         	6.318
MS.89          	18.802         	6.302
MS.90          	18.765         	6.288
MS.91          	18.727         	6.292
MS.92          	18.69          	6.292
MS.93          	18.655         	6.311
MS.94          	18.618         	6.307
MS.95          	18.58          	6.335
MS.96          	18.542         	6.306
MS.97          	18.505         	6.3
MS.98          	18.467         	6.288
MS.99          	18.432         	6.296
MS.100         	18.395         	6.285
MS.101         	18.358         	6.284
MS.102         	18.32          	6.289
MS.103         	18.285         	6.309
MS.104         	18.247         	6.3
MS.105         	18.212         	6.295
MS.106         	18.175         	6.284
MS.107         	18.137         	6.261
MS.108         	18.102         	6.265
MS.109         	18.067         	6.245
MS.110         	18.03          	6.261
MS.111         	17.995         	6.277
MS.112         	17.958         	6.26
MS.113         	17.922         	6.262
MS.114         	17.887         	6.292
MS.115         	17.85          	6.268
MS.116         	17.815         	6.233
MS.117         	17.78          	6.309
MS.118         	17.745         	6.309
MS.119         	17.708         	6.27
MS.120         	17.672         	6.281
MS.121         	17.637         	6.318
MS.122         	17.602         	6.244
MS.123         	17.567         	6.26
MS.124         	17.532         	6.276
MS.125         	17.497         	6.278
MS.126         	17.462         	6.283
MS.127         	17.427         	6.255
MS.128         	17.392         	6.277
MS.129         	17.358         	6.18
MS.130         	17.323         	6.208
MS.131         	17.288         	6.274
MS.132         	17.255         	6.243
MS.133         	17.22          	6.213
MS.134         	17.185         	6.239
MS.135         	17.15          	6.185
MS.136         	17.118         	6.128
MS.137         	17.083         	6.2
MS.138         	17.047         	6.191
MS.139         	17.015         	6.143
MS.140         	16.98          	6.193
MS.141         	16.948         	6.139
MS.142         	16.913         	6.246
MS.143         	16.878         	6.232
MS.144         	16.845         	6.268
MS.145         	16.812         	6.191
MS.146         	16.778         	6.207
MS.147         	16.745         	6.107
MS.148         	16.71          	6.183
MS.149         	16.677         	6.095
MS.150         	16.645         	6.212
MS.151         	16.61          	6.073
MS.152         	16.577         	6.069
MS.153         	16.545         	6.082
MS.154         	16.512         	5.851
MS.155         	16.477         	6.033
MS.156         	16.445         	5.952
MS.157         	16.413         	6.051
MS.158         	16.38          	6.035
MS.159         	16.347         	6.001
MS.160         	16.315         	6.007
MS.161         	16.282         	6.018
MS.162         	16.25          	6.066
MS.163         	16.217         	6.017
MS.164         	16.185         	6.024
MS.165         	16.153         	6.039
MS.166         	16.12          	6.022
MS.167         	16.087         	5.98
MS.168         	16.055         	5.957
MS.169         	16.022         	6
MS.170         	15.992         	5.953
MS.171         	15.96          	5.916
MS.172         	15.927         	5.845
MS.173         	15.895         	5.901
MS.174         	15.865         	5.861
MS.175         	15.832         	5.809
MS.176         	15.8           	5.853
MS.177         	15.77          	5.848
MS.178         	15.737         	5.905
MS.179         	15.705         	5.896
MS.180         	15.675         	5.815
MS.181         	15.642         	5.824
MS.182         	15.612         	5.808
MS.183         	15.58          	5.791
MS.184         	15.55          	5.808
MS.185         	15.52          	5.847
MS.186         	15.487         	5.762
MS.187         	15.457         	5.781
MS.188         	15.425         	5.791
MS.189         	15.395         	5.73
MS.190         	15.365         	5.773
MS.191         	15.332         	5.752
MS.192         	15.302         	5.769
MS.193         	15.273         	5.77
MS.194         	15.242         	5.735
MS.195         	15.212         	5.769
MS.196         	15.18          	5.781
MS.197         	15.15          	5.742
MS.198         	15.12          	5.754
MS.199         	15.09          	5.721
MS.200         	15.06          	5.726
MS.201         	15.03          	5.629
MS.202         	15             	5.621
MS.203         	14.97          	5.69
MS.204         	14.94          	5.658
MS.205         	14.91          	5.625
MS.206         	14.88          	5.698
MS.207         	14.85          	5.586
MS.208         	14.82          	5.667
MS.209         	14.792         	5.635
MS.210         	14.762         	5.538
MS.211         	14.733         	5.599
MS.212         	14.702         	5.551
MS.213         	14.672         	5.56
MS.214         	14.645         	5.509
MS.215         	14.615         	5.441
MS.216         	14.585         	5.525
MS.217         	14.557         	5.425
MS.218         	14.527         	5.613
MS.219         	14.497         	5.565
MS.220         	14.47          	5.552
MS.221         	14.44          	5.518
MS.222         	14.412         	5.508
MS.223         	14.382         	5.488
MS.224         	14.355         	5.511
MS.225         	14.325         	5.372
MS.226         	14.297         	5.475
MS.227         	14.267         	5.438
MS.228         	14.24          	5.46
MS.229         	14.212         	5.442
MS.230         	14.182         	5.474
MS.231         	14.155         	5.502
MS.232         	14.127         	5.291
MS.233         	14.097         	5.394
MS.234         	14.07          	5.406
MS.235         	14.042         	5.364
MS.236         	14.015         	5.386
MS.237         	13.985         	5.333
MS.238         	13.957         	5.222
MS.239         	13.93          	5.161
MS.240         	13.903         	5.432
MS.241         	13.875         	5.134
MS.242         	13.847         	5.203
MS.243         	13.82          	5.243
MS.244         	13.792         	5.168
MS.245         	13.765         	5.211
MS.246         	13.737         	5.145
MS.247         	13.71          	5.143
MS.248         	13.682         	5.214
MS.249         	13.655         	5.088
MS.250         	13.627         	5.183
MS.251         	13.6           	5.26
MS.252         	13.572         	5.062
MS.253         	13.545         	5.251
MS.254         	13.517         	5.082
MS.255         	13.492         	5.057
MS.256         	13.465         	5.128
MS.257         	13.438         	5.178
MS.258         	13.41          	5.071
MS.259         	13.385         	5.133
MS.260         	13.358         	5.181
MS.261         	13.33          	4.882
MS.262         	13.305         	5.068
MS.263         	13.278         	4.989
MS.264         	13.25          	5.052
MS.265         	13.225         	4.877
MS.266         	13.197         	4.977
MS.267         	13.172         	4.902
MS.268         	13.145         	5
MS.269         	13.12          	5.021
MS.270         	13.092         	4.976
MS.271         	13.068         	4.956
MS.272         	13.04          	4.878
MS.273         	13.015         	4.95
MS.274         	12.987         	4.944
MS.275         	12.962         	4.845
MS.276         	12.938         	4.756
MS.277         	12.91          	4.904
MS.278         	12.885         	4.838
MS.279         	12.86          	4.873
MS.280         	12.832         	4.856
MS.281         	12.807         	4.723
MS.282         	12.782         	4.872
MS.283         	12.757         	4.745
MS.284         	12.73          	4.825
MS.285         	12.705         	4.657
MS.286         	12.68          	4.657
MS.287         	12.655         	4.688
MS.288         	12.63          	4.702
MS.289         	12.605         	4.646
MS.290         	12.58          	4.796
MS.291         	12.555         	4.862
MS.292         	12.53          	4.596
MS.293         	12.505         	4.606
MS.294         	12.48          	4.803
MS.295         	12.455         	4.68
MS.296         	12.43          	4.623
MS.297         	12.405         	4.5
MS.298         	12.38          	4.39
MS.299         	12.355         	4.373
MS.300         	12.33          	4.486
MS.301         	12.305         	4.512
MS.302         	12.28          	4.496
MS.303         	12.257         	4.504
MS.304         	12.233         	4.347
MS.305         	12.207         	4.452
MS.306         	12.182         	4.469
MS.307         	12.157         	4.441
MS.308         	12.135         	4.269
MS.309         	12.11          	4.398
MS.310         	12.085         	4.282
MS.311         	12.062         	4.231
MS.312         	12.037         	4.191
MS.313         	12.012         	4.078
MS.314         	11.99          	4.229
MS.315         	11.965         	4.122
MS.316         	11.943         	4.191
MS.317         	11.917         	4.188
MS.318         	11.895         	4.165
MS.319         	11.87          	4.114
MS.320         	11.847         	4.069
MS.321         	11.822         	4.03
MS.322         	11.8           	4.021
MS.323         	11.775         	3.884
MS.324         	11.752         	3.94
MS.325         	11.73          	3.813
MS.326         	11.705         	3.969
MS.327         	11.682         	3.865
MS.328         	11.657         	3.933
MS.329         	11.635         	3.802
MS.330         	11.613         	3.845
MS.331         	11.59          	3.901
MS.332         	11.565         	3.813
MS.333         	11.542         	3.779
MS.334         	11.52          	3.618
MS.335         	11.497         	3.467
MS.336         	11.472         	3.622
MS.337         	11.45          	3.506
MS.338         	11.427         	3.536
MS.339         	11.405         	3.69
MS.340         	11.382         	3.505
MS.341         	11.36          	3.488
MS.342         	11.337         	3.491
MS.343         	11.315         	3.395
MS.344         	11.292         	3.396
MS.345         	11.27          	3.306
MS.346         	11.247         	3.313
MS.347         	11.225         	3.318
MS.348         	11.202         	3.336
MS.349         	11.18          	3.352
MS.350         	11.157         	3.416
MS.351         	11.135         	3.295
MS.352         	11.113         	3.367
MS.353         	11.09          	3.086
MS.354         	11.068         	3.281
MS.355         	11.045         	3.197
MS.356         	11.023         	3.107
MS.357         	11.002         	3.21
MS.358         	10.98          	3.121
MS.359         	10.957         	3.221
MS.360         	10.935         	3.03
MS.361         	10.915         	3.158
MS.362         	10.892         	3.163
MS.363         	10.87          	2.921
MS.364         	10.847         	2.971
MS.365         	10.827         	2.921
MS.366         	10.805         	2.964
MS.367         	10.785         	2.865
MS.368         	10.762         	2.885
MS.369         	10.74          	3.075
MS.370         	10.72          	2.753
MS.371         	10.698         	2.832
MS.372         	10.677         	2.881
MS.373         	10.655         	2.932
MS.374         	10.635         	2.791
MS.375         	10.613         	2.863
MS.376         	10.592         	2.837
MS.377         	10.57          	2.847
MS.378         	10.55          	2.744
MS.379         	10.528         	2.725
MS.380         	10.507         	2.827
MS.381         	10.485         	2.683
MS.382         	10.465         	2.645
MS.383         	10.445         	2.786
MS.384         	10.422         	2.759
MS.385         	10.403         	2.717
MS.386         	10.382         	2.677
MS.387         	10.36          	2.661
MS.388         	10.34          	2.616
MS.389         	10.32          	2.629
MS.390         	10.3           	2.565
MS.391         	10.278         	2.451
MS.392         	10.257         	2.566
MS.393         	10.238         	2.52
MS.394         	10.217         	2.56
MS.395         	10.198         	2.368
MS.396         	10.175         	2.424
MS.397         	10.155         	2.22
MS.398         	10.135         	2.318
MS.399         	10.115         	2.419
MS.400         	10.095         	2.5
MS.401         	10.075         	2.247
MS.402         	10.055         	2.291
MS.403         	10.035         	2.25
MS.404         	10.015         	2.111
MS.405         	9.995          	2.183
MS.406         	9.975          	2.247
MS.407         	9.955          	2.109
MS.408         	9.935          	2.045
MS.409         	9.915          	2.224
MS.410         	9.895          	2.146
MS.411         	9.875          	2.089
MS.412         	9.855          	2.05
MS.413         	9.835          	2.029
MS.414         	9.818          	2.162
MS.415         	9.797          	1.799
MS.416         	9.778          	2.048
MS.417         	9.757          	1.912
MS.418         	9.738          	1.84
MS.419         	9.717          	1.79
MS.420         	9.7            	1.888
MS.421         	9.68           	1.995
MS.422         	9.66           	1.903
MS.423         	9.64           	1.896
MS.424         	9.622          	1.842
MS.425         	9.602          	1.813
MS.426         	9.582          	1.844
MS.427         	9.565          	1.726
MS.428         	9.545          	1.837
MS.429         	9.525          	1.809
MS.430         	9.507          	1.698
MS.431         	9.488          	1.758
MS.432         	9.47           	1.721
MS.433         	9.45           	1.721
MS.434         	9.432          	1.698
MS.435         	9.412          	1.686
MS.436         	9.395          	1.721
MS.437         	9.375          	1.68
MS.438         	9.358          	1.794
MS.439         	9.337          	1.708
MS.440         	9.32           	1.676
MS.441         	9.3            	1.591
MS.442         	9.283          	1.688
MS.443         	9.262          	1.536
MS.444         	9.245          	1.578
MS.445         	9.225          	1.613
MS.446         	9.207          	1.493
MS.447         	9.19           	1.577
MS.448         	9.17           	1.573
MS.449         	9.153          	1.578
MS.450         	9.135          	1.57
MS.451         	9.115          	1.541
MS.452         	9.097          	1.422
MS.453         	9.08           	1.599
MS.454         	9.062          	1.53
MS.455         	9.042          	1.633
MS.456         	9.025          	1.477
MS.457         	9.007          	1.298
MS.458         	8.99           	1.425
MS.459         	8.972          	1.434
MS.460         	8.952          	1.396
MS.461         	8.935          	1.439
MS.462         	8.917          	1.229
MS.463         	8.9            	1.423
MS.464         	8.882          	1.312
MS.465         	8.865          	1.313
MS.466         	8.847          	1.321
MS.467         	8.83           	1.3
MS.468         	8.812          	1.285
MS.469         	8.795          	1.263
MS.470         	8.775          	1.276
MS.471         	8.757          	1.119
MS.472         	8.74           	1.011
MS.473         	8.722          	1.104
MS.474         	8.707          	1.072
MS.475         	8.69           	1.162
MS.476         	8.672          	1.161
MS.477         	8.655          	1.017
MS.478         	8.637          	1.108
MS.479         	8.62           	1.161
MS.480         	8.602          	1.064
MS.481         	8.585          	0.961
MS.482         	8.568          	1.108
MS.483         	8.55           	1.062
MS.484         	8.535          	0.941
MS.485         	8.517          	0.807
MS.486         	8.5            	0.94
MS.487         	8.483          	0.834
MS.488         	8.465          	0.859
MS.489         	8.45           	1.017
MS.490         	8.432          	0.767
MS.491         	8.415          	0.715
MS.492         	8.398          	0.756
MS.493         	8.382          	0.679
MS.494         	8.365          	0.63
MS.495         	8.347          	0.836
MS.496         	8.332          	0.636
MS.497         	8.315          	0.592
MS.498         	8.297          	0.618
MS.499         	8.283          	0.627
MS.500         	8.265          	0.699
MS.501         	8.247          	0.641
MS.502         	8.233          	0.594
MS.503         	8.215          	0.623
