File:              	n:\Qtrac\Data\MScan\Normative Controls\CP Nerve\MSCC10602C.QZD
Name:              	QU15N
Protocol:          	MSCAN-R2
Date:              	2/6/21
Start time:        	15:01:04
Age:               	23
Sex:               	F
Temperature:       	31.7
S/R sites:         	Knee CP-TA
NC/disease:        	NC
Operator:          	KJ
Comments:
M-SCAN DATA (Repeat 1/2, 11.5-3.4m)
Scanpts: 94, 148, 841, 862
Stim. (mA)     	Amp. (mV)
MS.1           	19.5           	8.07
MS.2           	19.5           	8.079
MS.3           	19.5           	8.079
MS.4           	19.5           	8.073
MS.5           	19.5           	8.077
MS.6           	19.5           	8.064
MS.7           	19.5           	8.085
MS.8           	19.5           	8.052
MS.9           	19.5           	8.064
MS.10          	19.5           	8.073
MS.11          	19.5           	8.064
MS.12          	19.5           	8.073
MS.13          	19.5           	8.06
MS.14          	19.5           	8.086
MS.15          	19.5           	8.11
MS.16          	19.5           	8.116
MS.17          	19.5           	8.109
MS.18          	19.5           	8.121
MS.19          	19.5           	8.091
MS.20          	19.5           	8.081
MS.21          	19.5           	8.049
MS.22          	19.5           	8.091
MS.23          	19.5           	8.082
MS.24          	19.422         	8.143
MS.25          	19.382         	8.063
MS.26          	19.345         	8.068
MS.27          	19.305         	8.076
MS.28          	19.267         	8.103
MS.29          	19.23          	8.115
MS.30          	19.19          	8.126
MS.31          	19.153         	8.082
MS.32          	19.115         	8.136
MS.33          	19.075         	8.11
MS.34          	19.038         	8.148
MS.35          	19             	8.123
MS.36          	18.962         	8.129
MS.37          	18.922         	8.137
MS.38          	18.885         	8.14
MS.39          	18.847         	8.105
MS.40          	18.81          	8.14
MS.41          	18.772         	8.105
MS.42          	18.735         	8.197
MS.43          	18.698         	8.121
MS.44          	18.66          	8.099
MS.45          	18.622         	8.115
MS.46          	18.585         	8.094
MS.47          	18.55          	8.104
MS.48          	18.512         	8.134
MS.49          	18.475         	8.119
MS.50          	18.438         	8.105
MS.51          	18.4           	7.998
MS.52          	18.365         	8.042
MS.53          	18.327         	8.163
MS.54          	18.29          	8.132
MS.55          	18.255         	8.159
MS.56          	18.217         	8.141
MS.57          	18.182         	8.145
MS.58          	18.145         	8.142
MS.59          	18.11          	8.182
MS.60          	18.073         	8.203
MS.61          	18.038         	8.131
MS.62          	18             	8.169
MS.63          	17.965         	8.145
MS.64          	17.93          	8.105
MS.65          	17.892         	8.11
MS.66          	17.858         	8.093
MS.67          	17.823         	8.077
MS.68          	17.785         	8.066
MS.69          	17.75          	8.102
MS.70          	17.715         	8.105
MS.71          	17.68          	8.163
MS.72          	17.645         	8.102
MS.73          	17.61          	8.148
MS.74          	17.575         	8.157
MS.75          	17.538         	8.127
MS.76          	17.503         	8.145
MS.77          	17.467         	8.146
MS.78          	17.435         	8.187
MS.79          	17.4           	8.177
MS.80          	17.365         	8.175
MS.81          	17.33          	8.209
MS.82          	17.295         	8.192
MS.83          	17.26          	8.157
MS.84          	17.225         	8.185
MS.85          	17.192         	8.203
MS.86          	17.157         	8.185
MS.87          	17.122         	8.201
MS.88          	17.087         	8.237
MS.89          	17.055         	8.141
MS.90          	17.02          	8.21
MS.91          	16.987         	8.193
MS.92          	16.952         	8.215
MS.93          	16.917         	8.23
MS.94          	16.885         	8.204
MS.95          	16.85          	8.204
MS.96          	16.817         	8.154
MS.97          	16.782         	8.224
MS.98          	16.75          	8.158
MS.99          	16.717         	8.223
MS.100         	16.682         	8.224
MS.101         	16.65          	8.21
MS.102         	16.618         	8.219
MS.103         	16.583         	8.239
MS.104         	16.55          	8.179
MS.105         	16.517         	8.223
MS.106         	16.485         	8.173
MS.107         	16.452         	8.206
MS.108         	16.417         	8.218
MS.109         	16.385         	8.225
MS.110         	16.352         	8.176
MS.111         	16.32          	8.176
MS.112         	16.288         	8.182
MS.113         	16.255         	8.156
MS.114         	16.222         	8.175
MS.115         	16.19          	8.168
MS.116         	16.157         	8.181
MS.117         	16.125         	8.195
MS.118         	16.092         	8.218
MS.119         	16.062         	8.169
MS.120         	16.03          	8.185
MS.121         	15.997         	8.203
MS.122         	15.965         	8.192
MS.123         	15.932         	8.184
MS.124         	15.902         	8.177
MS.125         	15.87          	8.214
MS.126         	15.837         	8.22
MS.127         	15.807         	8.202
MS.128         	15.775         	8.198
MS.129         	15.742         	8.218
MS.130         	15.712         	8.239
MS.131         	15.68          	8.193
MS.132         	15.65          	8.237
MS.133         	15.617         	8.235
MS.134         	15.587         	8.209
MS.135         	15.555         	8.215
MS.136         	15.525         	8.232
MS.137         	15.492         	8.23
MS.138         	15.462         	8.191
MS.139         	15.432         	8.175
MS.140         	15.4           	8.198
MS.141         	15.37          	8.201
MS.142         	15.34          	8.204
MS.143         	15.307         	8.197
MS.144         	15.277         	8.226
MS.145         	15.247         	8.221
MS.146         	15.217         	8.259
MS.147         	15.188         	8.218
MS.148         	15.155         	8.214
MS.149         	15.125         	8.223
MS.150         	15.095         	8.253
MS.151         	15.065         	8.213
MS.152         	15.035         	8.232
MS.153         	15.005         	8.301
MS.154         	14.975         	8.231
MS.155         	14.945         	8.242
MS.156         	14.915         	8.213
MS.157         	14.885         	8.217
MS.158         	14.855         	8.223
MS.159         	14.827         	8.218
MS.160         	14.797         	8.206
MS.161         	14.767         	8.204
MS.162         	14.737         	8.268
MS.163         	14.707         	8.239
MS.164         	14.68          	8.245
MS.165         	14.65          	8.198
MS.166         	14.62          	8.267
MS.167         	14.59          	8.274
MS.168         	14.562         	8.241
MS.169         	14.532         	8.243
MS.170         	14.505         	8.273
MS.171         	14.475         	8.207
MS.172         	14.445         	8.231
MS.173         	14.417         	8.169
MS.174         	14.387         	8.232
MS.175         	14.36          	8.237
MS.176         	14.33          	8.208
MS.177         	14.302         	8.197
MS.178         	14.273         	8.26
MS.179         	14.245         	8.262
MS.180         	14.217         	8.23
MS.181         	14.188         	8.208
MS.182         	14.16          	8.199
MS.183         	14.132         	8.188
MS.184         	14.102         	8.192
MS.185         	14.075         	8.221
MS.186         	14.047         	8.225
MS.187         	14.02          	8.226
MS.188         	13.99          	8.232
MS.189         	13.962         	8.181
MS.190         	13.935         	8.22
MS.191         	13.907         	8.21
MS.192         	13.88          	8.213
MS.193         	13.852         	8.175
MS.194         	13.825         	8.157
MS.195         	13.797         	8.148
MS.196         	13.77          	8.151
MS.197         	13.742         	8.137
MS.198         	13.715         	8.195
MS.199         	13.688         	8.228
MS.200         	13.66          	8.252
MS.201         	13.632         	8.236
MS.202         	13.605         	8.215
MS.203         	13.577         	8.275
MS.204         	13.55          	8.248
MS.205         	13.523         	8.242
MS.206         	13.495         	8.24
MS.207         	13.47          	8.165
MS.208         	13.443         	8.159
MS.209         	13.415         	8.132
MS.210         	13.387         	8.157
MS.211         	13.362         	8.18
MS.212         	13.335         	8.193
MS.213         	13.307         	8.212
MS.214         	13.282         	8.23
MS.215         	13.255         	8.179
MS.216         	13.23          	8.193
MS.217         	13.202         	8.182
MS.218         	13.175         	8.165
MS.219         	13.15          	8.193
MS.220         	13.122         	8.174
MS.221         	13.097         	8.165
MS.222         	13.07          	8.177
MS.223         	13.045         	8.218
MS.224         	13.02          	8.185
MS.225         	12.992         	8.195
MS.226         	12.967         	8.182
MS.227         	12.94          	8.186
MS.228         	12.915         	8.179
MS.229         	12.89          	8.185
MS.230         	12.862         	8.181
MS.231         	12.837         	8.175
MS.232         	12.812         	8.152
MS.233         	12.787         	8.156
MS.234         	12.76          	8.135
MS.235         	12.735         	8.131
MS.236         	12.71          	8.141
MS.237         	12.685         	8.141
MS.238         	12.66          	8.125
MS.239         	12.635         	8.137
MS.240         	12.61          	8.134
MS.241         	12.585         	8.136
MS.242         	12.557         	8.149
MS.243         	12.532         	8.129
MS.244         	12.507         	8.162
MS.245         	12.483         	8.167
MS.246         	12.457         	8.136
MS.247         	12.432         	8.151
MS.248         	12.41          	8.159
MS.249         	12.385         	8.138
MS.250         	12.36          	8.157
MS.251         	12.335         	8.171
MS.252         	12.31          	8.164
MS.253         	12.285         	8.138
MS.254         	12.26          	8.053
MS.255         	12.238         	8.081
MS.256         	12.212         	8.132
MS.257         	12.188         	8.135
MS.258         	12.162         	8.132
MS.259         	12.14          	8.141
MS.260         	12.115         	8.153
MS.261         	12.09          	8.152
MS.262         	12.065         	8.14
MS.263         	12.042         	8.127
MS.264         	12.017         	8.125
MS.265         	11.995         	8.098
MS.266         	11.97          	8.13
MS.267         	11.945         	8.14
MS.268         	11.922         	8.125
MS.269         	11.898         	8.092
MS.270         	11.875         	8.071
MS.271         	11.85          	8.119
MS.272         	11.827         	8.115
MS.273         	11.802         	8.125
MS.274         	11.78          	8.107
MS.275         	11.757         	8.081
MS.276         	11.733         	8.118
MS.277         	11.71          	8.105
MS.278         	11.685         	8.029
MS.279         	11.662         	8.098
MS.280         	11.64          	8.102
MS.281         	11.617         	8.077
MS.282         	11.592         	8.09
MS.283         	11.57          	8.077
MS.284         	11.547         	8.086
MS.285         	11.525         	8.024
MS.286         	11.5           	8.029
MS.287         	11.477         	8.015
MS.288         	11.455         	7.99
MS.289         	11.432         	8.024
MS.290         	11.41          	7.96
MS.291         	11.387         	8.005
MS.292         	11.363         	8.036
MS.293         	11.34          	7.972
MS.294         	11.318         	7.958
MS.295         	11.295         	7.971
MS.296         	11.273         	7.954
MS.297         	11.25          	7.969
MS.298         	11.227         	7.993
MS.299         	11.205         	8.026
MS.300         	11.182         	7.878
MS.301         	11.16          	7.972
MS.302         	11.137         	7.946
MS.303         	11.117         	8.032
MS.304         	11.095         	7.864
MS.305         	11.073         	7.935
MS.306         	11.05          	7.942
MS.307         	11.028         	7.861
MS.308         	11.005         	7.827
MS.309         	10.983         	7.947
MS.310         	10.962         	7.87
MS.311         	10.94          	7.844
MS.312         	10.917         	7.833
MS.313         	10.895         	7.872
MS.314         	10.875         	7.85
MS.315         	10.852         	7.883
MS.316         	10.83          	7.843
MS.317         	10.81          	7.783
MS.318         	10.787         	7.791
MS.319         	10.765         	7.819
MS.320         	10.745         	7.814
MS.321         	10.722         	7.844
MS.322         	10.702         	7.749
MS.323         	10.68          	7.726
MS.324         	10.66          	7.845
MS.325         	10.637         	7.708
MS.326         	10.617         	7.725
MS.327         	10.595         	7.711
MS.328         	10.575         	7.72
MS.329         	10.552         	7.712
MS.330         	10.532         	7.69
MS.331         	10.51          	7.726
MS.332         	10.49          	7.703
MS.333         	10.47          	7.638
MS.334         	10.448         	7.716
MS.335         	10.427         	7.743
MS.336         	10.407         	7.643
MS.337         	10.385         	7.7
MS.338         	10.365         	7.605
MS.339         	10.345         	7.587
MS.340         	10.323         	7.689
MS.341         	10.302         	7.664
MS.342         	10.282         	7.643
MS.343         	10.262         	7.649
MS.344         	10.24          	7.628
MS.345         	10.22          	7.634
MS.346         	10.2           	7.615
MS.347         	10.18          	7.598
MS.348         	10.16          	7.501
MS.349         	10.14          	7.593
MS.350         	10.12          	7.606
MS.351         	10.097         	7.45
MS.352         	10.077         	7.529
MS.353         	10.057         	7.501
MS.354         	10.037         	7.528
MS.355         	10.017         	7.468
MS.356         	9.997          	7.448
MS.357         	9.977          	7.456
MS.358         	9.957          	7.545
MS.359         	9.938          	7.443
MS.360         	9.917          	7.41
MS.361         	9.9            	7.501
MS.362         	9.88           	7.391
MS.363         	9.86           	7.29
MS.364         	9.84           	7.278
MS.365         	9.82           	7.224
MS.366         	9.8            	7.333
MS.367         	9.78           	7.339
MS.368         	9.76           	7.229
MS.369         	9.742          	7.196
MS.370         	9.722          	7.256
MS.371         	9.702          	7.129
MS.372         	9.682          	7.2
MS.373         	9.665          	7.195
MS.374         	9.645          	7.219
MS.375         	9.625          	7.18
MS.376         	9.605          	7.233
MS.377         	9.587          	7.085
MS.378         	9.568          	7.031
MS.379         	9.55           	7.001
MS.380         	9.53           	7.15
MS.381         	9.51           	7.043
MS.382         	9.492          	7.015
MS.383         	9.472          	6.997
MS.384         	9.452          	7.026
MS.385         	9.435          	7.059
MS.386         	9.415          	7.015
MS.387         	9.398          	7.062
MS.388         	9.377          	6.956
MS.389         	9.36           	6.895
MS.390         	9.34           	6.946
MS.391         	9.323          	6.841
MS.392         	9.302          	6.93
MS.393         	9.285          	6.914
MS.394         	9.267          	6.818
MS.395         	9.247          	6.863
MS.396         	9.23           	6.87
MS.397         	9.21           	6.804
MS.398         	9.193          	6.742
MS.399         	9.175          	6.835
MS.400         	9.155          	6.783
MS.401         	9.137          	6.887
MS.402         	9.12           	6.733
MS.403         	9.1            	6.683
MS.404         	9.082          	6.846
MS.405         	9.065          	6.81
MS.406         	9.047          	6.66
MS.407         	9.028          	6.764
MS.408         	9.01           	6.743
MS.409         	8.992          	6.71
MS.410         	8.975          	6.621
MS.411         	8.957          	6.688
MS.412         	8.94           	6.608
MS.413         	8.92           	6.567
MS.414         	8.903          	6.556
MS.415         	8.885          	6.578
MS.416         	8.867          	6.536
MS.417         	8.85           	6.55
MS.418         	8.832          	6.447
MS.419         	8.815          	6.329
MS.420         	8.797          	6.423
MS.421         	8.78           	6.331
MS.422         	8.762          	6.454
MS.423         	8.745          	6.384
MS.424         	8.727          	6.329
MS.425         	8.71           	6.263
MS.426         	8.693          	6.335
MS.427         	8.675          	6.161
MS.428         	8.658          	6.116
MS.429         	8.64           	6.195
MS.430         	8.622          	6.178
MS.431         	8.605          	6.056
MS.432         	8.587          	6.007
MS.433         	8.57           	6.035
MS.434         	8.555          	6.161
MS.435         	8.537          	6.133
MS.436         	8.52           	5.847
MS.437         	8.502          	5.836
MS.438         	8.485          	5.791
MS.439         	8.47           	5.852
MS.440         	8.452          	5.906
MS.441         	8.435          	6.018
MS.442         	8.417          	5.894
MS.443         	8.403          	5.659
MS.444         	8.385          	5.769
MS.445         	8.367          	5.935
MS.446         	8.35           	5.696
MS.447         	8.335          	5.674
MS.448         	8.318          	5.687
MS.449         	8.302          	5.602
MS.450         	8.285          	5.581
MS.451         	8.267          	5.559
MS.452         	8.252          	5.5
MS.453         	8.235          	5.331
MS.454         	8.217          	5.41
MS.455         	8.202          	5.267
MS.456         	8.185          	5.265
MS.457         	8.17           	5.314
MS.458         	8.153          	5.289
MS.459         	8.137          	5.087
MS.460         	8.12           	5.337
MS.461         	8.105          	5.031
MS.462         	8.087          	4.966
MS.463         	8.073          	5.035
MS.464         	8.055          	5.033
MS.465         	8.04           	5.128
MS.466         	8.025          	5.089
MS.467         	8.007          	4.991
MS.468         	7.992          	4.788
MS.469         	7.975          	4.883
MS.470         	7.96           	4.731
MS.471         	7.945          	4.692
MS.472         	7.927          	4.716
MS.473         	7.912          	4.829
MS.474         	7.898          	4.449
MS.475         	7.88           	4.625
MS.476         	7.865          	4.584
MS.477         	7.85           	4.471
MS.478         	7.832          	4.281
MS.479         	7.817          	4.435
MS.480         	7.802          	4.493
MS.481         	7.787          	4.403
MS.482         	7.77           	4.331
MS.483         	7.755          	4.531
MS.484         	7.74           	4.425
MS.485         	7.725          	4.271
MS.486         	7.71           	4.139
MS.487         	7.695          	4.258
MS.488         	7.677          	4.199
MS.489         	7.662          	4.039
MS.490         	7.648          	4.021
MS.491         	7.632          	4.196
MS.492         	7.617          	3.878
MS.493         	7.602          	3.892
MS.494         	7.587          	3.824
MS.495         	7.572          	3.976
MS.496         	7.557          	4.031
MS.497         	7.543          	3.868
MS.498         	7.527          	3.79
MS.499         	7.512          	3.735
MS.500         	7.497          	3.854
MS.501         	7.482          	3.678
MS.502         	7.467          	3.593
