File:              	n:\Qtrac\Data\MScan\Normative Controls\CP Nerve\MSCC10715C.QZD
Name:              	MO28A
Protocol:          	MSCAN-R2
Date:              	15/7/21
Start time:        	14:59:39
Age:               	54
Sex:               	F
Temperature:       	31.4
S/R sites:         	Knee CP-TA
NC/disease:        	NC
Operator:          	BJ
Comments:
M-SCAN DATA (11.7-5.5m)
Scanpts: 84, 97, 601, 625
Stim. (mA)     	Amp. (mV)
MS.1           	21             	8.108
MS.2           	21             	8.176
MS.3           	20.958         	8.188
MS.4           	20.915         	8.149
MS.5           	20.875         	8.121
MS.6           	20.833         	8.17
MS.7           	20.79          	8.085
MS.8           	20.75          	8.152
MS.9           	20.708         	8.131
MS.10          	20.667         	8.149
MS.11          	20.625         	8.136
MS.12          	20.585         	8.134
MS.13          	20.542         	8.138
MS.14          	20.502         	8.132
MS.15          	20.46          	8.132
MS.16          	20.42          	8.137
MS.17          	20.38          	8.151
MS.18          	20.337         	8.136
MS.19          	20.297         	8.152
MS.20          	20.257         	8.142
MS.21          	20.217         	8.151
MS.22          	20.177         	8.158
MS.23          	20.137         	8.134
MS.24          	20.095         	8.152
MS.25          	20.055         	8.127
MS.26          	20.015         	8.153
MS.27          	19.975         	8.156
MS.28          	19.935         	8.187
MS.29          	19.895         	8.163
MS.30          	19.858         	8.184
MS.31          	19.817         	8.181
MS.32          	19.778         	8.182
MS.33          	19.737         	8.197
MS.34          	19.698         	8.159
MS.35          	19.66          	8.174
MS.36          	19.62          	8.18
MS.37          	19.58          	8.156
MS.38          	19.54          	8.154
MS.39          	19.502         	8.18
MS.40          	19.462         	8.174
MS.41          	19.425         	8.167
MS.42          	19.385         	8.179
MS.43          	19.347         	8.156
MS.44          	19.307         	8.168
MS.45          	19.27          	8.22
MS.46          	19.23          	8.21
MS.47          	19.192         	8.181
MS.48          	19.155         	8.199
MS.49          	19.115         	8.197
MS.50          	19.077         	8.16
MS.51          	19.04          	8.199
MS.52          	19.002         	8.158
MS.53          	18.962         	8.154
MS.54          	18.925         	8.168
MS.55          	18.887         	8.202
MS.56          	18.85          	8.173
MS.57          	18.812         	8.174
MS.58          	18.775         	8.203
MS.59          	18.737         	8.203
MS.60          	18.7           	8.197
MS.61          	18.663         	8.209
MS.62          	18.625         	8.182
MS.63          	18.587         	8.208
MS.64          	18.55          	8.21
MS.65          	18.515         	8.202
MS.66          	18.477         	8.21
MS.67          	18.44          	8.209
MS.68          	18.403         	8.214
MS.69          	18.368         	8.214
MS.70          	18.33          	8.175
MS.71          	18.292         	8.196
MS.72          	18.257         	8.204
MS.73          	18.22          	8.168
MS.74          	18.182         	8.212
MS.75          	18.147         	8.207
MS.76          	18.11          	8.212
MS.77          	18.075         	8.206
MS.78          	18.04          	8.214
MS.79          	18.003         	8.217
MS.80          	17.967         	8.213
MS.81          	17.93          	8.217
MS.82          	17.895         	8.239
MS.83          	17.86          	8.247
MS.84          	17.823         	8.229
MS.85          	17.788         	8.245
MS.86          	17.753         	8.223
MS.87          	17.717         	8.217
MS.88          	17.682         	8.246
MS.89          	17.645         	8.235
MS.90          	17.61          	8.252
MS.91          	17.575         	8.22
MS.92          	17.54          	8.208
MS.93          	17.505         	8.237
MS.94          	17.47          	8.243
MS.95          	17.435         	8.235
MS.96          	17.4           	8.235
MS.97          	17.365         	8.252
MS.98          	17.333         	8.24
MS.99          	17.297         	8.235
MS.100         	17.262         	8.226
MS.101         	17.227         	8.214
MS.102         	17.192         	8.254
MS.103         	17.16          	8.226
MS.104         	17.125         	8.219
MS.105         	17.09          	8.256
MS.106         	17.057         	8.185
MS.107         	17.022         	8.245
MS.108         	16.987         	8.17
MS.109         	16.955         	8.171
MS.110         	16.92          	8.226
MS.111         	16.887         	8.187
MS.112         	16.852         	8.202
MS.113         	16.82          	8.174
MS.114         	16.785         	8.256
MS.115         	16.753         	8.239
MS.116         	16.717         	8.19
MS.117         	16.685         	8.202
MS.118         	16.653         	8.181
MS.119         	16.618         	8.202
MS.120         	16.585         	8.186
MS.121         	16.552         	8.157
MS.122         	16.52          	8.157
MS.123         	16.485         	8.158
MS.124         	16.452         	8.204
MS.125         	16.42          	8.17
MS.126         	16.387         	8.177
MS.127         	16.355         	8.134
MS.128         	16.323         	8.182
MS.129         	16.29          	8.184
MS.130         	16.257         	8.175
MS.131         	16.225         	8.176
MS.132         	16.192         	8.145
MS.133         	16.16          	8.146
MS.134         	16.128         	8.131
MS.135         	16.095         	8.129
MS.136         	16.062         	8.187
MS.137         	16.03          	8.171
MS.138         	16             	8.141
MS.139         	15.967         	8.156
MS.140         	15.935         	8.138
MS.141         	15.902         	8.164
MS.142         	15.872         	8.127
MS.143         	15.84          	8.156
MS.144         	15.807         	8.118
MS.145         	15.777         	8.148
MS.146         	15.745         	8.148
MS.147         	15.712         	8.124
MS.148         	15.682         	8.043
MS.149         	15.65          	8.125
MS.150         	15.62          	8.103
MS.151         	15.587         	8.088
MS.152         	15.557         	8.077
MS.153         	15.525         	8.064
MS.154         	15.495         	8.157
MS.155         	15.465         	7.981
MS.156         	15.432         	8.037
MS.157         	15.402         	8.08
MS.158         	15.372         	8.115
MS.159         	15.34          	8.035
MS.160         	15.31          	8.138
MS.161         	15.28          	7.985
MS.162         	15.25          	8
MS.163         	15.217         	8
MS.164         	15.188         	7.833
MS.165         	15.157         	7.988
MS.166         	15.127         	7.92
MS.167         	15.097         	8.052
MS.168         	15.068         	7.965
MS.169         	15.037         	7.911
MS.170         	15.007         	7.932
MS.171         	14.977         	7.842
MS.172         	14.947         	7.85
MS.173         	14.917         	7.787
MS.174         	14.887         	7.917
MS.175         	14.858         	7.906
MS.176         	14.827         	7.848
MS.177         	14.797         	7.809
MS.178         	14.77          	7.772
MS.179         	14.74          	7.847
MS.180         	14.71          	7.811
MS.181         	14.68          	7.874
MS.182         	14.65          	7.737
MS.183         	14.622         	7.76
MS.184         	14.592         	7.791
MS.185         	14.562         	7.738
MS.186         	14.535         	7.744
MS.187         	14.505         	7.781
MS.188         	14.477         	7.684
MS.189         	14.447         	7.736
MS.190         	14.417         	7.729
MS.191         	14.39          	7.755
MS.192         	14.36          	7.784
MS.193         	14.332         	7.703
MS.194         	14.305         	7.737
MS.195         	14.275         	7.719
MS.196         	14.247         	7.694
MS.197         	14.217         	7.74
MS.198         	14.19          	7.766
MS.199         	14.162         	7.756
MS.200         	14.132         	7.78
MS.201         	14.105         	7.743
MS.202         	14.077         	7.727
MS.203         	14.047         	7.695
MS.204         	14.02          	7.772
MS.205         	13.992         	7.739
MS.206         	13.965         	7.626
MS.207         	13.938         	7.692
MS.208         	13.91          	7.719
MS.209         	13.88          	7.726
MS.210         	13.852         	7.544
MS.211         	13.825         	7.659
MS.212         	13.797         	7.61
MS.213         	13.77          	7.654
MS.214         	13.742         	7.456
MS.215         	13.715         	7.566
MS.216         	13.688         	7.45
MS.217         	13.66          	7.5
MS.218         	13.632         	7.482
MS.219         	13.605         	7.543
MS.220         	13.58          	7.505
MS.221         	13.552         	7.521
MS.222         	13.525         	7.316
MS.223         	13.497         	7.4
MS.224         	13.47          	7.242
MS.225         	13.445         	7.35
MS.226         	13.417         	7.428
MS.227         	13.39          	7.203
MS.228         	13.362         	7.426
MS.229         	13.337         	7.366
MS.230         	13.31          	7.352
MS.231         	13.282         	7.313
MS.232         	13.257         	7.179
MS.233         	13.23          	7.037
MS.234         	13.205         	6.902
MS.235         	13.177         	7.021
MS.236         	13.153         	7.125
MS.237         	13.125         	7.188
MS.238         	13.1           	7.019
MS.239         	13.072         	6.993
MS.240         	13.047         	7.02
MS.241         	13.02          	7.058
MS.242         	12.995         	7.07
MS.243         	12.967         	7.083
MS.244         	12.943         	7.089
MS.245         	12.917         	7.061
MS.246         	12.89          	6.996
MS.247         	12.865         	7.018
MS.248         	12.84          	6.862
MS.249         	12.815         	6.897
MS.250         	12.787         	6.71
MS.251         	12.762         	6.737
MS.252         	12.738         	6.648
MS.253         	12.712         	6.709
MS.254         	12.688         	6.814
MS.255         	12.66          	6.865
MS.256         	12.635         	6.544
MS.257         	12.61          	6.599
MS.258         	12.585         	6.67
MS.259         	12.56          	6.719
MS.260         	12.535         	6.525
MS.261         	12.51          	6.493
MS.262         	12.485         	6.514
MS.263         	12.46          	6.483
MS.264         	12.435         	6.293
MS.265         	12.41          	6.315
MS.266         	12.385         	6.459
MS.267         	12.36          	6.293
MS.268         	12.335         	6.418
MS.269         	12.312         	6.27
MS.270         	12.287         	6.123
MS.271         	12.262         	6.281
MS.272         	12.238         	6.03
MS.273         	12.212         	6.288
MS.274         	12.19          	6.115
MS.275         	12.165         	6.082
MS.276         	12.14          	6.133
MS.277         	12.115         	6.006
MS.278         	12.092         	5.997
MS.279         	12.068         	5.972
MS.280         	12.042         	5.876
MS.281         	12.02          	5.894
MS.282         	11.995         	5.83
MS.283         	11.972         	5.851
MS.284         	11.947         	5.927
MS.285         	11.922         	5.706
MS.286         	11.9           	5.692
MS.287         	11.875         	5.54
MS.288         	11.852         	5.706
MS.289         	11.827         	5.568
MS.290         	11.805         	5.603
MS.291         	11.782         	5.571
MS.292         	11.757         	5.536
MS.293         	11.735         	5.525
MS.294         	11.71          	5.355
MS.295         	11.688         	5.565
MS.296         	11.665         	5.659
MS.297         	11.64          	5.354
MS.298         	11.617         	5.447
MS.299         	11.595         	5.406
MS.300         	11.57          	5.582
MS.301         	11.547         	5.267
MS.302         	11.525         	5.227
MS.303         	11.502         	5.304
MS.304         	11.48          	5.123
MS.305         	11.455         	5.198
MS.306         	11.432         	5.291
MS.307         	11.41          	5.128
MS.308         	11.387         	5.199
MS.309         	11.365         	5.118
MS.310         	11.342         	5.032
MS.311         	11.32          	4.808
MS.312         	11.297         	4.969
MS.313         	11.275         	4.794
MS.314         	11.252         	4.869
MS.315         	11.23          	4.716
MS.316         	11.207         	4.73
MS.317         	11.185         	4.647
MS.318         	11.162         	4.741
MS.319         	11.14          	4.607
MS.320         	11.117         	4.634
MS.321         	11.095         	4.604
MS.322         	11.073         	4.369
MS.323         	11.05          	4.447
MS.324         	11.03          	4.594
MS.325         	11.007         	4.478
MS.326         	10.985         	4.343
MS.327         	10.962         	4.438
MS.328         	10.94          	4.209
MS.329         	10.92          	4.387
MS.330         	10.898         	4.266
MS.331         	10.875         	4.235
MS.332         	10.855         	4.114
MS.333         	10.832         	4.147
MS.334         	10.81          	3.883
MS.335         	10.79          	3.876
MS.336         	10.767         	4.034
MS.337         	10.745         	3.864
MS.338         	10.725         	3.835
MS.339         	10.702         	3.824
MS.340         	10.682         	3.824
MS.341         	10.66          	3.768
MS.342         	10.64          	3.585
MS.343         	10.617         	3.773
MS.344         	10.597         	3.553
MS.345         	10.575         	3.488
MS.346         	10.555         	3.392
MS.347         	10.532         	3.422
MS.348         	10.512         	3.384
MS.349         	10.49          	3.331
MS.350         	10.47          	3.339
MS.351         	10.45          	3.423
MS.352         	10.427         	3.339
MS.353         	10.407         	3.241
MS.354         	10.387         	3.26
MS.355         	10.365         	3.182
MS.356         	10.345         	3.009
MS.357         	10.325         	3.118
MS.358         	10.305         	2.987
MS.359         	10.282         	3.302
MS.360         	10.262         	3.077
MS.361         	10.242         	2.903
MS.362         	10.222         	2.832
MS.363         	10.202         	2.958
MS.364         	10.18          	2.932
MS.365         	10.16          	2.9
MS.366         	10.14          	2.85
MS.367         	10.12          	2.899
MS.368         	10.1           	2.894
MS.369         	10.08          	2.626
MS.370         	10.06          	2.864
MS.371         	10.04          	2.948
MS.372         	10.02          	2.712
MS.373         	10             	2.799
MS.374         	9.98           	2.866
MS.375         	9.96           	2.725
MS.376         	9.94           	2.77
MS.377         	9.92           	2.684
MS.378         	9.9            	2.603
MS.379         	9.88           	2.593
MS.380         	9.86           	2.438
MS.381         	9.84           	2.513
MS.382         	9.82           	2.523
MS.383         	9.802          	2.252
MS.384         	9.782          	2.39
MS.385         	9.762          	2.239
MS.386         	9.742          	2.3
MS.387         	9.722          	2.301
MS.388         	9.705          	2.288
MS.389         	9.685          	2.206
MS.390         	9.665          	2.124
MS.391         	9.645          	2.12
MS.392         	9.627          	2.029
MS.393         	9.608          	2.202
MS.394         	9.587          	2.336
MS.395         	9.57           	2.107
MS.396         	9.55           	2.17
MS.397         	9.53           	2.343
MS.398         	9.512          	2.449
MS.399         	9.492          	2.164
MS.400         	9.472          	2.18
MS.401         	9.455          	2.195
MS.402         	9.435          	2.178
MS.403         	9.417          	2.168
MS.404         	9.398          	2.089
MS.405         	9.38           	1.968
MS.406         	9.36           	2.109
MS.407         	9.342          	2.019
MS.408         	9.323          	1.985
MS.409         	9.305          	1.945
MS.410         	9.285          	1.93
MS.411         	9.267          	1.971
MS.412         	9.25           	1.815
MS.413         	9.23           	1.808
MS.414         	9.212          	1.893
MS.415         	9.193          	1.862
MS.416         	9.175          	1.709
MS.417         	9.158          	1.808
MS.418         	9.137          	1.779
MS.419         	9.12           	1.637
MS.420         	9.102          	1.531
MS.421         	9.085          	1.47
MS.422         	9.065          	1.517
MS.423         	9.047          	1.659
MS.424         	9.03           	1.46
MS.425         	9.012          	1.434
MS.426         	8.992          	1.472
MS.427         	8.975          	1.494
MS.428         	8.957          	1.401
MS.429         	8.94           	1.401
MS.430         	8.922          	1.271
MS.431         	8.905          	1.292
MS.432         	8.887          	1.343
MS.433         	8.867          	1.318
MS.434         	8.85           	1.293
MS.435         	8.832          	1.194
MS.436         	8.815          	1.217
MS.437         	8.797          	1.233
MS.438         	8.78           	1.227
MS.439         	8.762          	1.117
MS.440         	8.745          	1.165
MS.441         	8.727          	1.256
MS.442         	8.71           	1.075
MS.443         	8.693          	1.128
MS.444         	8.675          	1.152
MS.445         	8.658          	1.14
MS.446         	8.64           	1.013
MS.447         	8.625          	1.129
MS.448         	8.608          	1.107
MS.449         	8.59           	1.1
MS.450         	8.573          	1.093
MS.451         	8.555          	1.069
MS.452         	8.537          	0.995
MS.453         	8.52           	0.963
MS.454         	8.505          	0.978
MS.455         	8.488          	0.98
MS.456         	8.47           	1.006
MS.457         	8.452          	0.941
MS.458         	8.435          	0.859
MS.459         	8.42           	0.894
MS.460         	8.403          	0.869
MS.461         	8.385          	0.83
MS.462         	8.37           	0.964
MS.463         	8.352          	0.959
MS.464         	8.335          	0.833
MS.465         	8.32           	0.92
MS.466         	8.302          	0.806
MS.467         	8.285          	0.8
MS.468         	8.27           	0.834
MS.469         	8.252          	0.848
MS.470         	8.235          	0.822
MS.471         	8.22           	0.724
MS.472         	8.202          	0.753
MS.473         	8.188          	0.653
MS.474         	8.17           	0.758
MS.475         	8.155          	0.774
MS.476         	8.137          	0.575
MS.477         	8.122          	0.691
MS.478         	8.105          	0.604
MS.479         	8.09           	0.636
MS.480         	8.073          	0.652
MS.481         	8.057          	0.56
MS.482         	8.04           	0.646
MS.483         	8.025          	0.603
MS.484         	8.007          	0.614
MS.485         	7.992          	0.547
MS.486         	7.977          	0.59
MS.487         	7.96           	0.536
MS.488         	7.945          	0.493
MS.489         	7.93           	0.553
MS.490         	7.912          	0.52
MS.491         	7.898          	0.493
MS.492         	7.882          	0.526
MS.493         	7.865          	0.419
MS.494         	7.85           	0.47
MS.495         	7.835          	0.493
MS.496         	7.817          	0.441
MS.497         	7.802          	0.345
MS.498         	7.787          	0.463
MS.499         	7.773          	0.4
MS.500         	7.757          	0.338
MS.501         	7.74           	0.436
MS.502         	7.725          	0.394
MS.503         	7.71           	0.227
