File:              	C:\Qtrac\Data\Daniel M Sørensen\MScan multicentre study\Data from centres\Oxford\Processed data\ATC01218C.QZD
Name:              	UK.OXF.NC.9.2
Protocol:          	MSCAN-R2
Date:              	18/12/20
Start time:        	10:57:55
Age:               	35
Sex:               	F
Temperature:       	32.2
S/R sites:         	TA
NC/disease:        	NC
Operator:          	AT
Comments:          	Peroneal N TA 2nd
M-SCAN DATA (9.5-1.6m)
Scanpts: 6, 20, 660, 678
Stim. (mA)     	Amp. (mV)
MS.1           	28             	4.79
MS.2           	28             	4.757
MS.3           	28             	4.743
MS.4           	28             	4.727
MS.5           	28             	4.727
MS.6           	28             	4.733
MS.7           	28             	4.737
MS.8           	28             	4.715
MS.9           	28             	4.683
MS.10          	28             	4.717
MS.11          	28             	4.709
MS.12          	28             	4.677
MS.13          	28             	4.737
MS.14          	28             	4.725
MS.15          	28             	4.705
MS.16          	28             	4.719
MS.17          	28             	4.707
MS.18          	28             	4.725
MS.19          	28             	4.713
MS.20          	28             	4.745
MS.21          	28             	4.695
MS.22          	28             	4.721
MS.23          	28             	4.673
MS.24          	27.887         	4.699
MS.25          	27.832         	4.683
MS.26          	27.778         	4.669
MS.27          	27.722         	4.715
MS.28          	27.665         	4.669
MS.29          	27.61          	4.691
MS.30          	27.555         	4.669
MS.31          	27.5           	4.699
MS.32          	27.445         	4.693
MS.33          	27.39          	4.701
MS.34          	27.335         	4.687
MS.35          	27.282         	4.697
MS.36          	27.227         	4.667
MS.37          	27.172         	4.713
MS.38          	27.118         	4.669
MS.39          	27.065         	4.693
MS.40          	27.01          	4.719
MS.41          	26.955         	4.671
MS.42          	26.903         	4.689
MS.43          	26.847         	4.699
MS.44          	26.795         	4.679
MS.45          	26.74          	4.683
MS.46          	26.688         	4.711
MS.47          	26.635         	4.689
MS.48          	26.58          	4.695
MS.49          	26.528         	4.693
MS.50          	26.475         	4.695
MS.51          	26.422         	4.645
MS.52          	26.37          	4.691
MS.53          	26.317         	4.693
MS.54          	26.265         	4.695
MS.55          	26.212         	4.675
MS.56          	26.16          	4.693
MS.57          	26.108         	4.661
MS.58          	26.055         	4.679
MS.59          	26.002         	4.703
MS.60          	25.95          	4.685
MS.61          	25.9           	4.695
MS.62          	25.847         	4.683
MS.63          	25.795         	4.673
MS.64          	25.745         	4.657
MS.65          	25.692         	4.679
MS.66          	25.64          	4.639
MS.67          	25.59          	4.661
MS.68          	25.54          	4.659
MS.69          	25.487         	4.643
MS.70          	25.438         	4.629
MS.71          	25.385         	4.625
MS.72          	25.335         	4.622
MS.73          	25.285         	4.667
MS.74          	25.235         	4.625
MS.75          	25.185         	4.633
MS.76          	25.132         	4.631
MS.77          	25.082         	4.608
MS.78          	25.032         	4.61
MS.79          	24.983         	4.582
MS.80          	24.932         	4.645
MS.81          	24.882         	4.616
MS.82          	24.832         	4.6
MS.83          	24.785         	4.586
MS.84          	24.735         	4.59
MS.85          	24.685         	4.574
MS.86          	24.635         	4.578
MS.87          	24.587         	4.57
MS.88          	24.538         	4.57
MS.89          	24.487         	4.604
MS.90          	24.44          	4.566
MS.91          	24.39          	4.625
MS.92          	24.342         	4.588
MS.93          	24.292         	4.612
MS.94          	24.245         	4.596
MS.95          	24.198         	4.598
MS.96          	24.147         	4.614
MS.97          	24.1           	4.564
MS.98          	24.052         	4.59
MS.99          	24.002         	4.584
MS.100         	23.955         	4.568
MS.101         	23.907         	4.59
MS.102         	23.86          	4.586
MS.103         	23.812         	4.582
MS.104         	23.765         	4.56
MS.105         	23.717         	4.54
MS.106         	23.67          	4.558
MS.107         	23.622         	4.594
MS.108         	23.575         	4.562
MS.109         	23.528         	4.602
MS.110         	23.48          	4.604
MS.111         	23.435         	4.594
MS.112         	23.387         	4.558
MS.113         	23.34          	4.544
MS.114         	23.295         	4.586
MS.115         	23.247         	4.576
MS.116         	23.2           	4.556
MS.117         	23.155         	4.568
MS.118         	23.108         	4.55
MS.119         	23.062         	4.592
MS.120         	23.017         	4.54
MS.121         	22.97          	4.526
MS.122         	22.925         	4.508
MS.123         	22.877         	4.49
MS.124         	22.832         	4.526
MS.125         	22.788         	4.55
MS.126         	22.743         	4.54
MS.127         	22.698         	4.536
MS.128         	22.65          	4.502
MS.129         	22.605         	4.556
MS.130         	22.56          	4.556
MS.131         	22.515         	4.534
MS.132         	22.47          	4.5
MS.133         	22.425         	4.524
MS.134         	22.38          	4.508
MS.135         	22.335         	4.486
MS.136         	22.292         	4.498
MS.137         	22.247         	4.502
MS.138         	22.202         	4.484
MS.139         	22.157         	4.461
MS.140         	22.115         	4.459
MS.141         	22.07          	4.447
MS.142         	22.025         	4.455
MS.143         	21.983         	4.431
MS.144         	21.938         	4.445
MS.145         	21.892         	4.443
MS.146         	21.85          	4.463
MS.147         	21.807         	4.467
MS.148         	21.762         	4.439
MS.149         	21.72          	4.415
MS.150         	21.675         	4.425
MS.151         	21.632         	4.435
MS.152         	21.59          	4.445
MS.153         	21.545         	4.437
MS.154         	21.502         	4.435
MS.155         	21.46          	4.389
MS.156         	21.417         	4.457
MS.157         	21.375         	4.417
MS.158         	21.333         	4.437
MS.159         	21.29          	4.409
MS.160         	21.247         	4.409
MS.161         	21.205         	4.373
MS.162         	21.163         	4.429
MS.163         	21.12          	4.391
MS.164         	21.077         	4.395
MS.165         	21.035         	4.405
MS.166         	20.993         	4.423
MS.167         	20.952         	4.401
MS.168         	20.91          	4.437
MS.169         	20.868         	4.405
MS.170         	20.825         	4.389
MS.171         	20.785         	4.401
MS.172         	20.743         	4.375
MS.173         	20.702         	4.369
MS.174         	20.66          	4.361
MS.175         	20.62          	4.351
MS.176         	20.577         	4.314
MS.177         	20.538         	4.328
MS.178         	20.495         	4.3
MS.179         	20.455         	4.334
MS.180         	20.413         	4.334
MS.181         	20.372         	4.284
MS.182         	20.333         	4.29
MS.183         	20.292         	4.276
MS.184         	20.25          	4.254
MS.185         	20.21          	4.286
MS.186         	20.17          	4.256
MS.187         	20.13          	4.222
MS.188         	20.09          	4.22
MS.189         	20.05          	4.222
MS.190         	20.01          	4.21
MS.191         	19.97          	4.193
MS.192         	19.93          	4.195
MS.193         	19.89          	4.143
MS.194         	19.85          	4.101
MS.195         	19.81          	4.222
MS.196         	19.77          	4.151
MS.197         	19.73          	4.127
MS.198         	19.692         	4.02
MS.199         	19.653         	4.067
MS.200         	19.612         	3.996
MS.201         	19.575         	4.065
MS.202         	19.535         	4.093
MS.203         	19.495         	3.982
MS.204         	19.458         	4.065
MS.205         	19.417         	3.994
MS.206         	19.38          	4.032
MS.207         	19.34          	3.976
MS.208         	19.302         	4.05
MS.209         	19.262         	3.954
MS.210         	19.225         	3.95
MS.211         	19.188         	3.998
MS.212         	19.147         	3.996
MS.213         	19.11          	4
MS.214         	19.073         	3.897
MS.215         	19.032         	3.899
MS.216         	18.995         	3.827
MS.217         	18.958         	3.907
MS.218         	18.92          	3.879
MS.219         	18.882         	3.881
MS.220         	18.845         	3.843
MS.221         	18.807         	3.797
MS.222         	18.77          	3.835
MS.223         	18.733         	3.853
MS.224         	18.695         	3.859
MS.225         	18.657         	3.803
MS.226         	18.62          	3.775
MS.227         	18.583         	3.754
MS.228         	18.545         	3.71
MS.229         	18.507         	3.597
MS.230         	18.47          	3.748
MS.231         	18.435         	3.716
MS.232         	18.397         	3.66
MS.233         	18.36          	3.63
MS.234         	18.325         	3.625
MS.235         	18.288         	3.625
MS.236         	18.25          	3.613
MS.237         	18.215         	3.589
MS.238         	18.177         	3.476
MS.239         	18.142         	3.599
MS.240         	18.105         	3.426
MS.241         	18.07          	3.452
MS.242         	18.032         	3.489
MS.243         	17.997         	3.478
MS.244         	17.96          	3.4
MS.245         	17.925         	3.388
MS.246         	17.89          	3.376
MS.247         	17.852         	3.482
MS.248         	17.817         	3.331
MS.249         	17.782         	3.261
MS.250         	17.747         	3.225
MS.251         	17.712         	3.289
MS.252         	17.675         	3.267
MS.253         	17.64          	3.207
MS.254         	17.605         	3.225
MS.255         	17.57          	3.198
MS.256         	17.535         	3.203
MS.257         	17.5           	3.148
MS.258         	17.465         	3.162
MS.259         	17.43          	3.148
MS.260         	17.395         	3.098
MS.261         	17.36          	3.142
MS.262         	17.325         	3.088
MS.263         	17.292         	3.068
MS.264         	17.257         	3.053
MS.265         	17.222         	3.011
MS.266         	17.188         	3.027
MS.267         	17.153         	3.003
MS.268         	17.12          	2.997
MS.269         	17.085         	3.009
MS.270         	17.05          	2.963
MS.271         	17.017         	2.999
MS.272         	16.983         	3.011
MS.273         	16.95          	2.989
MS.274         	16.915         	2.914
MS.275         	16.88          	2.852
MS.276         	16.847         	2.846
MS.277         	16.815         	2.848
MS.278         	16.78          	2.933
MS.279         	16.747         	2.896
MS.280         	16.712         	2.828
MS.281         	16.68          	2.749
MS.282         	16.647         	2.776
MS.283         	16.612         	2.82
MS.284         	16.58          	2.776
MS.285         	16.547         	2.784
MS.286         	16.515         	2.633
MS.287         	16.48          	2.647
MS.288         	16.448         	2.671
MS.289         	16.415         	2.667
MS.290         	16.382         	2.612
MS.291         	16.35          	2.657
MS.292         	16.317         	2.59
MS.293         	16.285         	2.606
MS.294         	16.253         	2.612
MS.295         	16.22          	2.518
MS.296         	16.188         	2.534
MS.297         	16.155         	2.574
MS.298         	16.122         	2.52
MS.299         	16.09          	2.52
MS.300         	16.057         	2.469
MS.301         	16.025         	2.498
MS.302         	15.995         	2.453
MS.303         	15.962         	2.471
MS.304         	15.93          	2.429
MS.305         	15.898         	2.429
MS.306         	15.867         	2.391
MS.307         	15.835         	2.332
MS.308         	15.802         	2.29
MS.309         	15.773         	2.425
MS.310         	15.74          	2.28
MS.311         	15.707         	2.294
MS.312         	15.677         	2.308
MS.313         	15.645         	2.238
MS.314         	15.615         	2.274
MS.315         	15.582         	2.179
MS.316         	15.552         	2.26
MS.317         	15.52          	2.197
MS.318         	15.49          	2.177
MS.319         	15.46          	2.288
MS.320         	15.427         	2.161
MS.321         	15.398         	2.089
MS.322         	15.367         	2.117
MS.323         	15.335         	2.038
MS.324         	15.305         	2.03
MS.325         	15.275         	2.038
MS.326         	15.245         	2.071
MS.327         	15.215         	2.06
MS.328         	15.182         	2.01
MS.329         	15.152         	1.966
MS.330         	15.122         	1.986
MS.331         	15.092         	1.94
MS.332         	15.062         	1.986
MS.333         	15.032         	1.934
MS.334         	15.002         	1.956
MS.335         	14.972         	1.94
MS.336         	14.943         	1.924
MS.337         	14.912         	1.881
MS.338         	14.882         	1.849
MS.339         	14.852         	1.847
MS.340         	14.822         	1.871
MS.341         	14.792         	1.897
MS.342         	14.765         	1.811
MS.343         	14.735         	1.873
MS.344         	14.705         	1.855
MS.345         	14.675         	1.823
MS.346         	14.648         	1.797
MS.347         	14.617         	1.732
MS.348         	14.587         	1.756
MS.349         	14.56          	1.734
MS.350         	14.53          	1.742
MS.351         	14.5           	1.7
MS.352         	14.472         	1.706
MS.353         	14.443         	1.676
MS.354         	14.415         	1.684
MS.355         	14.385         	1.635
MS.356         	14.358         	1.666
MS.357         	14.327         	1.658
MS.358         	14.3           	1.613
MS.359         	14.27          	1.605
MS.360         	14.242         	1.605
MS.361         	14.212         	1.579
MS.362         	14.185         	1.507
MS.363         	14.157         	1.539
MS.364         	14.127         	1.509
MS.365         	14.1           	1.551
MS.366         	14.072         	1.517
MS.367         	14.045         	1.495
MS.368         	14.015         	1.505
MS.369         	13.987         	1.476
MS.370         	13.96          	1.436
MS.371         	13.932         	1.448
MS.372         	13.905         	1.446
MS.373         	13.877         	1.398
MS.374         	13.85          	1.39
MS.375         	13.82          	1.4
MS.376         	13.792         	1.354
MS.377         	13.765         	1.327
MS.378         	13.737         	1.299
MS.379         	13.71          	1.291
MS.380         	13.682         	1.277
MS.381         	13.657         	1.219
MS.382         	13.63          	1.215
MS.383         	13.602         	1.219
MS.384         	13.575         	1.237
MS.385         	13.547         	1.217
MS.386         	13.52          	1.17
MS.387         	13.492         	1.138
MS.388         	13.467         	1.19
MS.389         	13.44          	1.14
MS.390         	13.412         	1.164
MS.391         	13.385         	1.102
MS.392         	13.36          	1.112
MS.393         	13.332         	1.088
MS.394         	13.305         	1.027
MS.395         	13.28          	1.07
MS.396         	13.252         	1.049
MS.397         	13.225         	0.949
MS.398         	13.2           	0.977
MS.399         	13.172         	0.949
MS.400         	13.148         	0.924
MS.401         	13.12          	0.991
MS.402         	13.095         	0.924
MS.403         	13.068         	0.876
MS.404         	13.042         	0.836
MS.405         	13.017         	0.816
MS.406         	12.99          	0.769
MS.407         	12.965         	0.755
MS.408         	12.938         	0.731
MS.409         	12.912         	0.753
MS.410         	12.887         	0.856
MS.411         	12.86          	0.777
MS.412         	12.835         	0.767
MS.413         	12.81          	0.755
MS.414         	12.785         	0.701
MS.415         	12.757         	0.747
MS.416         	12.733         	0.729
MS.417         	12.707         	0.679
MS.418         	12.682         	0.638
MS.419         	12.657         	0.622
MS.420         	12.632         	0.626
MS.421         	12.608         	0.647
MS.422         	12.58          	0.638
MS.423         	12.555         	0.558
MS.424         	12.53          	0.56
MS.425         	12.505         	0.538
MS.426         	12.48          	0.536
MS.427         	12.455         	0.546
MS.428         	12.43          	0.516
MS.429         	12.405         	0.465
MS.430         	12.382         	0.491
MS.431         	12.358         	0.485
MS.432         	12.332         	0.463
MS.433         	12.307         	0.51
MS.434         	12.282         	0.425
MS.435         	12.257         	0.397
MS.436         	12.235         	0.487
MS.437         	12.21          	0.423
MS.438         	12.185         	0.445
MS.439         	12.16          	0.443
MS.440         	12.137         	0.409
MS.441         	12.113         	0.379
MS.442         	12.087         	0.35
MS.443         	12.062         	0.367
MS.444         	12.04          	0.294
MS.445         	12.015         	0.288
MS.446         	11.992         	0.363
MS.447         	11.967         	0.258
MS.448         	11.943         	0.302
MS.449         	11.92          	0.264
MS.450         	11.895         	0.31
MS.451         	11.872         	0.258
MS.452         	11.847         	0.236
MS.453         	11.825         	0.246
MS.454         	11.8           	0.248
MS.455         	11.778         	0.284
MS.456         	11.755         	0.246
MS.457         	11.73          	0.189
MS.458         	11.707         	0.197
MS.459         	11.685         	0.179
MS.460         	11.66          	0.24
MS.461         	11.637         	0.207
MS.462         	11.615         	0.222
MS.463         	11.59          	0.175
MS.464         	11.568         	0.199
MS.465         	11.545         	0.214
MS.466         	11.523         	0.155
MS.467         	11.497         	0.159
MS.468         	11.475         	0.171
MS.469         	11.452         	0.197
MS.470         	11.43          	0.189
MS.471         	11.407         	0.193
MS.472         	11.385         	0.129
MS.473         	11.36          	0.143
MS.474         	11.337         	0.187
MS.475         	11.315         	0.149
MS.476         	11.292         	0.135
MS.477         	11.27          	0.119
MS.478         	11.247         	0.107
MS.479         	11.225         	0.117
MS.480         	11.202         	0.107
MS.481         	11.18          	0.123
MS.482         	11.157         	0.129
MS.483         	11.135         	0.103
MS.484         	11.115         	0.099
MS.485         	11.092         	0.109
MS.486         	11.07          	0.103
MS.487         	11.047         	0.113
MS.488         	11.025         	0.111
MS.489         	11.002         	0.133
MS.490         	10.983         	0.103
MS.491         	10.96          	0.113
MS.492         	10.938         	0.117
MS.493         	10.915         	0.095
MS.494         	10.895         	0.103
MS.495         	10.872         	0.117
MS.496         	10.85          	0.095
MS.497         	10.827         	0.085
MS.498         	10.807         	0.095
MS.499         	10.785         	0.099
MS.500         	10.765         	0.089
MS.501         	10.742         	0.089
