File:              	C:\Qtrac\Data\Daniel M Sørensen\MScan multicentre study\Data from centres\Oxford\Processed data\ATC01215D.QZD
Name:              	UK.OXF.NC.8.2
Protocol:          	MSCAN-R2
Date:              	15/12/20
Start time:        	15:49:18
Age:               	30
Sex:               	F
Temperature:       	34.1
S/R sites:         	TA
NC/disease:        	NC
Operator:          	AT
Comments:          	Peroneal N TA 2nd
M-SCAN DATA (10.1-1.6m)
Scanpts: 83, 88, 565, 590
Stim. (mA)     	Amp. (mV)
MS.1           	35             	4.518
MS.2           	35             	4.514
MS.3           	35             	4.496
MS.4           	35             	4.471
MS.5           	35             	4.455
MS.6           	35             	4.447
MS.7           	35             	4.447
MS.8           	35             	4.459
MS.9           	35             	4.498
MS.10          	35             	4.479
MS.11          	35             	4.473
MS.12          	35             	4.461
MS.13          	35             	4.473
MS.14          	35             	4.492
MS.15          	35             	4.502
MS.16          	35             	4.49
MS.17          	35             	4.508
MS.18          	35             	4.54
MS.19          	35             	4.536
MS.20          	35             	4.516
MS.21          	35             	4.53
MS.22          	35             	4.492
MS.23          	35             	4.512
MS.24          	34.86          	4.492
MS.25          	34.79          	4.484
MS.26          	34.72          	4.475
MS.27          	34.653         	4.486
MS.28          	34.583         	4.484
MS.29          	34.513         	4.463
MS.30          	34.445         	4.469
MS.31          	34.375         	4.467
MS.32          	34.307         	4.459
MS.33          	34.237         	4.471
MS.34          	34.17          	4.486
MS.35          	34.103         	4.49
MS.36          	34.032         	4.502
MS.37          	33.965         	4.538
MS.38          	33.897         	4.502
MS.39          	33.83          	4.512
MS.40          	33.763         	4.461
MS.41          	33.695         	4.492
MS.42          	33.627         	4.496
MS.43          	33.56          	4.514
MS.44          	33.493         	4.51
MS.45          	33.427         	4.496
MS.46          	33.36          	4.54
MS.47          	33.292         	4.544
MS.48          	33.228         	4.53
MS.49          	33.16          	4.53
MS.50          	33.092         	4.554
MS.51          	33.028         	4.558
MS.52          	32.962         	4.52
MS.53          	32.895         	4.506
MS.54          	32.83          	4.526
MS.55          	32.765         	4.532
MS.56          	32.7           	4.53
MS.57          	32.632         	4.574
MS.58          	32.568         	4.566
MS.59          	32.502         	4.568
MS.60          	32.438         	4.56
MS.61          	32.372         	4.522
MS.62          	32.31          	4.536
MS.63          	32.245         	4.536
MS.64          	32.18          	4.544
MS.65          	32.115         	4.532
MS.66          	32.052         	4.556
MS.67          	31.987         	4.516
MS.68          	31.922         	4.508
MS.69          	31.86          	4.516
MS.70          	31.795         	4.524
MS.71          	31.733         	4.534
MS.72          	31.67          	4.55
MS.73          	31.605         	4.542
MS.74          	31.542         	4.57
MS.75          	31.48          	4.564
MS.76          	31.417         	4.578
MS.77          	31.355         	4.564
MS.78          	31.292         	4.582
MS.79          	31.23          	4.564
MS.80          	31.167         	4.604
MS.81          	31.105         	4.596
MS.82          	31.042         	4.582
MS.83          	30.98          	4.604
MS.84          	30.917         	4.576
MS.85          	30.858         	4.598
MS.86          	30.795         	4.574
MS.87          	30.733         	4.584
MS.88          	30.672         	4.56
MS.89          	30.61          	4.602
MS.90          	30.55          	4.562
MS.91          	30.487         	4.55
MS.92          	30.427         	4.546
MS.93          	30.367         	4.582
MS.94          	30.305         	4.592
MS.95          	30.245         	4.538
MS.96          	30.185         	4.592
MS.97          	30.125         	4.582
MS.98          	30.065         	4.53
MS.99          	30.005         	4.52
MS.100         	29.945         	4.544
MS.101         	29.885         	4.522
MS.102         	29.825         	4.53
MS.103         	29.765         	4.544
MS.104         	29.705         	4.548
MS.105         	29.647         	4.524
MS.106         	29.587         	4.516
MS.107         	29.528         	4.592
MS.108         	29.47          	4.562
MS.109         	29.41          	4.514
MS.110         	29.352         	4.594
MS.111         	29.292         	4.538
MS.112         	29.235         	4.52
MS.113         	29.175         	4.544
MS.114         	29.117         	4.548
MS.115         	29.06          	4.508
MS.116         	29.002         	4.518
MS.117         	28.942         	4.53
MS.118         	28.885         	4.562
MS.119         	28.827         	4.576
MS.120         	28.77          	4.54
MS.121         	28.712         	4.51
MS.122         	28.655         	4.504
MS.123         	28.597         	4.492
MS.124         	28.54          	4.494
MS.125         	28.485         	4.486
MS.126         	28.427         	4.492
MS.127         	28.37          	4.473
MS.128         	28.312         	4.475
MS.129         	28.257         	4.477
MS.130         	28.2           	4.453
MS.131         	28.145         	4.49
MS.132         	28.087         	4.425
MS.133         	28.032         	4.33
MS.134         	27.975         	4.405
MS.135         	27.92          	4.399
MS.136         	27.865         	4.246
MS.137         	27.807         	4.351
MS.138         	27.752         	4.345
MS.139         	27.698         	4.322
MS.140         	27.642         	4.264
MS.141         	27.587         	4.256
MS.142         	27.532         	4.3
MS.143         	27.477         	4.296
MS.144         	27.422         	4.159
MS.145         	27.368         	4.093
MS.146         	27.312         	4.173
MS.147         	27.257         	4.113
MS.148         	27.202         	4.067
MS.149         	27.15          	4.185
MS.150         	27.095         	4.085
MS.151         	27.04          	4.014
MS.152         	26.987         	4.063
MS.153         	26.932         	4.153
MS.154         	26.88          	3.988
MS.155         	26.825         	3.966
MS.156         	26.772         	3.98
MS.157         	26.717         	4.059
MS.158         	26.665         	4.02
MS.159         	26.612         	3.96
MS.160         	26.557         	4.048
MS.161         	26.505         	4.006
MS.162         	26.452         	3.988
MS.163         	26.4           	3.918
MS.164         	26.347         	3.966
MS.165         	26.295         	3.986
MS.166         	26.243         	3.857
MS.167         	26.19          	3.887
MS.168         	26.137         	3.849
MS.169         	26.085         	3.833
MS.170         	26.032         	3.819
MS.171         	25.98          	3.807
MS.172         	25.927         	3.744
MS.173         	25.877         	3.752
MS.174         	25.825         	3.823
MS.175         	25.772         	3.813
MS.176         	25.722         	3.658
MS.177         	25.67          	3.714
MS.178         	25.62          	3.758
MS.179         	25.567         	3.692
MS.180         	25.517         	3.678
MS.181         	25.465         	3.694
MS.182         	25.415         	3.68
MS.183         	25.365         	3.716
MS.184         	25.312         	3.636
MS.185         	25.262         	3.68
MS.186         	25.212         	3.601
MS.187         	25.163         	3.605
MS.188         	25.112         	3.593
MS.189         	25.062         	3.571
MS.190         	25.012         	3.579
MS.191         	24.962         	3.549
MS.192         	24.913         	3.611
MS.193         	24.862         	3.541
MS.194         	24.812         	3.527
MS.195         	24.762         	3.47
MS.196         	24.712         	3.503
MS.197         	24.665         	3.456
MS.198         	24.615         	3.482
MS.199         	24.565         	3.45
MS.200         	24.517         	3.452
MS.201         	24.467         	3.448
MS.202         	24.417         	3.434
MS.203         	24.37          	3.388
MS.204         	24.32          	3.412
MS.205         	24.272         	3.416
MS.206         	24.225         	3.309
MS.207         	24.175         	3.46
MS.208         	24.127         	3.339
MS.209         	24.08          	3.376
MS.210         	24.03          	3.297
MS.211         	23.983         	3.263
MS.212         	23.935         	3.243
MS.213         	23.887         	3.221
MS.214         	23.84          	3.198
MS.215         	23.792         	3.17
MS.216         	23.745         	3.142
MS.217         	23.698         	3.094
MS.218         	23.65          	3.07
MS.219         	23.602         	3.156
MS.220         	23.555         	3.108
MS.221         	23.507         	3.064
MS.222         	23.46          	2.947
MS.223         	23.415         	2.945
MS.224         	23.368         	2.945
MS.225         	23.32          	3.017
MS.226         	23.275         	2.91
MS.227         	23.227         	2.886
MS.228         	23.18          	2.812
MS.229         	23.135         	2.659
MS.230         	23.087         	2.606
MS.231         	23.042         	2.475
MS.232         	22.997         	2.63
MS.233         	22.95          	2.562
MS.234         	22.905         	2.536
MS.235         	22.86          	2.544
MS.236         	22.812         	2.492
MS.237         	22.767         	2.479
MS.238         	22.722         	2.415
MS.239         	22.677         	2.443
MS.240         	22.632         	2.52
MS.241         	22.587         	2.58
MS.242         	22.54          	2.409
MS.243         	22.495         	2.427
MS.244         	22.45          	2.431
MS.245         	22.407         	2.417
MS.246         	22.362         	2.391
MS.247         	22.317         	2.375
MS.248         	22.272         	2.357
MS.249         	22.227         	2.383
MS.250         	22.182         	2.411
MS.251         	22.14          	2.397
MS.252         	22.095         	2.457
MS.253         	22.05          	2.417
MS.254         	22.007         	2.344
MS.255         	21.962         	2.32
MS.256         	21.92          	2.276
MS.257         	21.875         	2.23
MS.258         	21.833         	2.206
MS.259         	21.788         	2.147
MS.260         	21.745         	2.135
MS.261         	21.7           	2.183
MS.262         	21.657         	2.107
MS.263         	21.615         	2.095
MS.264         	21.57          	2.127
MS.265         	21.528         	2.127
MS.266         	21.485         	2.093
MS.267         	21.442         	2.056
MS.268         	21.4           	2.026
MS.269         	21.355         	2.006
MS.270         	21.312         	1.998
MS.271         	21.27          	1.98
MS.272         	21.227         	1.976
MS.273         	21.185         	1.988
MS.274         	21.142         	1.954
MS.275         	21.102         	1.96
MS.276         	21.06          	1.934
MS.277         	21.017         	1.905
MS.278         	20.975         	1.938
MS.279         	20.932         	1.924
MS.280         	20.892         	1.915
MS.281         	20.85          	1.889
MS.282         	20.807         	1.905
MS.283         	20.767         	1.857
MS.284         	20.725         	1.853
MS.285         	20.682         	1.813
MS.286         	20.642         	1.859
MS.287         	20.6           	1.785
MS.288         	20.56          	1.809
MS.289         	20.52          	1.797
MS.290         	20.477         	1.783
MS.291         	20.438         	1.768
MS.292         	20.395         	1.75
MS.293         	20.355         	1.776
MS.294         	20.315         	1.734
MS.295         	20.275         	1.734
MS.296         	20.233         	1.716
MS.297         	20.192         	1.742
MS.298         	20.153         	1.676
MS.299         	20.112         	1.638
MS.300         	20.073         	1.595
MS.301         	20.032         	1.583
MS.302         	19.993         	1.605
MS.303         	19.952         	1.577
MS.304         	19.913         	1.585
MS.305         	19.872         	1.567
MS.306         	19.833         	1.581
MS.307         	19.792         	1.535
MS.308         	19.755         	1.541
MS.309         	19.715         	1.543
MS.310         	19.675         	1.499
MS.311         	19.635         	1.511
MS.312         	19.597         	1.48
MS.313         	19.557         	1.444
MS.314         	19.517         	1.464
MS.315         	19.48          	1.507
MS.316         	19.44          	1.482
MS.317         	19.403         	1.476
MS.318         	19.362         	1.436
MS.319         	19.325         	1.408
MS.320         	19.285         	1.424
MS.321         	19.247         	1.404
MS.322         	19.208         	1.354
MS.323         	19.17          	1.366
MS.324         	19.132         	1.382
MS.325         	19.092         	1.345
MS.326         	19.055         	1.339
MS.327         	19.017         	1.337
MS.328         	18.98          	1.368
MS.329         	18.942         	1.356
MS.330         	18.903         	1.283
MS.331         	18.865         	1.289
MS.332         	18.827         	1.271
MS.333         	18.79          	1.251
MS.334         	18.753         	1.261
MS.335         	18.715         	1.241
MS.336         	18.677         	1.204
MS.337         	18.64          	1.267
MS.338         	18.602         	1.198
MS.339         	18.565         	1.168
MS.340         	18.53          	1.184
MS.341         	18.493         	1.2
MS.342         	18.455         	1.168
MS.343         	18.417         	1.144
MS.344         	18.382         	1.106
MS.345         	18.345         	1.146
MS.346         	18.307         	1.094
MS.347         	18.272         	1.116
MS.348         	18.235         	1.154
MS.349         	18.198         	1.076
MS.350         	18.163         	1.096
MS.351         	18.125         	1.082
MS.352         	18.09          	1.031
MS.353         	18.052         	1.027
MS.354         	18.017         	0.987
MS.355         	17.983         	0.985
MS.356         	17.945         	0.995
MS.357         	17.91          	0.947
MS.358         	17.875         	0.965
MS.359         	17.837         	0.951
MS.360         	17.802         	0.935
MS.361         	17.767         	0.922
MS.362         	17.733         	0.896
MS.363         	17.695         	0.902
MS.364         	17.66          	0.937
MS.365         	17.625         	0.876
MS.366         	17.59          	0.878
MS.367         	17.555         	0.84
MS.368         	17.52          	0.854
MS.369         	17.485         	0.804
MS.370         	17.45          	0.812
MS.371         	17.415         	0.826
MS.372         	17.38          	0.9
MS.373         	17.345         	0.802
MS.374         	17.31          	0.812
MS.375         	17.278         	0.81
MS.376         	17.243         	0.796
MS.377         	17.208         	0.804
MS.378         	17.172         	0.786
MS.379         	17.14          	0.79
MS.380         	17.105         	0.788
MS.381         	17.07          	0.846
MS.382         	17.038         	0.802
MS.383         	17.003         	0.779
MS.384         	16.967         	0.761
MS.385         	16.935         	0.745
MS.386         	16.9           	0.731
MS.387         	16.868         	0.735
MS.388         	16.833         	0.753
MS.389         	16.8           	0.727
MS.390         	16.765         	0.737
MS.391         	16.733         	0.749
MS.392         	16.7           	0.707
MS.393         	16.665         	0.723
MS.394         	16.632         	0.653
MS.395         	16.6           	0.751
MS.396         	16.565         	0.727
MS.397         	16.532         	0.649
MS.398         	16.5           	0.729
MS.399         	16.467         	0.729
MS.400         	16.435         	0.725
MS.401         	16.4           	0.632
MS.402         	16.368         	0.683
MS.403         	16.335         	0.632
MS.404         	16.302         	0.554
MS.405         	16.27          	0.638
MS.406         	16.237         	0.59
MS.407         	16.205         	0.675
MS.408         	16.172         	0.641
MS.409         	16.14          	0.552
MS.410         	16.108         	0.568
MS.411         	16.077         	0.588
MS.412         	16.045         	0.574
MS.413         	16.012         	0.63
MS.414         	15.98          	0.552
MS.415         	15.947         	0.576
MS.416         	15.917         	0.546
MS.417         	15.885         	0.544
MS.418         	15.852         	0.5
MS.419         	15.82          	0.483
MS.420         	15.79          	0.497
MS.421         	15.757         	0.429
MS.422         	15.727         	0.471
MS.423         	15.695         	0.453
MS.424         	15.662         	0.435
MS.425         	15.632         	0.421
MS.426         	15.6           	0.407
MS.427         	15.57          	0.467
MS.428         	15.54          	0.375
MS.429         	15.507         	0.359
MS.430         	15.477         	0.397
MS.431         	15.445         	0.387
MS.432         	15.415         	0.383
MS.433         	15.385         	0.373
MS.434         	15.352         	0.334
MS.435         	15.322         	0.361
MS.436         	15.292         	0.365
MS.437         	15.262         	0.354
MS.438         	15.23          	0.352
MS.439         	15.2           	0.288
MS.440         	15.17          	0.361
MS.441         	15.14          	0.288
MS.442         	15.11          	0.296
MS.443         	15.08          	0.354
MS.444         	15.05          	0.306
MS.445         	15.02          	0.274
MS.446         	14.99          	0.316
MS.447         	14.96          	0.268
MS.448         	14.93          	0.308
MS.449         	14.9           	0.258
MS.450         	14.87          	0.288
MS.451         	14.84          	0.286
MS.452         	14.81          	0.274
MS.453         	14.78          	0.306
MS.454         	14.752         	0.244
MS.455         	14.722         	0.254
MS.456         	14.693         	0.244
MS.457         	14.662         	0.242
MS.458         	14.635         	0.228
MS.459         	14.605         	0.256
MS.460         	14.575         	0.211
MS.461         	14.547         	0.234
MS.462         	14.517         	0.195
MS.463         	14.487         	0.205
MS.464         	14.46          	0.183
MS.465         	14.43          	0.195
MS.466         	14.403         	0.195
MS.467         	14.372         	0.173
MS.468         	14.345         	0.169
MS.469         	14.315         	0.187
MS.470         	14.287         	0.145
MS.471         	14.257         	0.161
MS.472         	14.23          	0.135
MS.473         	14.202         	0.131
MS.474         	14.172         	0.141
MS.475         	14.145         	0.109
MS.476         	14.117         	0.139
MS.477         	14.087         	0.117
MS.478         	14.06          	0.117
MS.479         	14.032         	0.133
MS.480         	14.005         	0.127
MS.481         	13.975         	0.147
MS.482         	13.947         	0.135
MS.483         	13.92          	0.135
MS.484         	13.892         	0.113
MS.485         	13.865         	0.141
MS.486         	13.837         	0.123
MS.487         	13.81          	0.113
MS.488         	13.782         	0.107
MS.489         	13.755         	0.091
MS.490         	13.727         	0.113
MS.491         	13.7           	0.129
MS.492         	13.672         	0.111
MS.493         	13.645         	0.105
MS.494         	13.617         	0.093
MS.495         	13.59          	0.105
MS.496         	13.562         	0.103
MS.497         	13.535         	0.105
MS.498         	13.51          	0.087
MS.499         	13.483         	0.105
MS.500         	13.455         	0.083
