File:              	C:\Qtrac\Data\Daniel M Sørensen\MScan multicentre study\Data from centres\Oxford\Processed data\ATC01218A.QZD
Name:              	UK.OXF.NC.9.2
Protocol:          	MSCAN-R2
Date:              	18/12/20
Start time:        	10:17:10
Age:               	35
Sex:               	F
Temperature:       	33.4
S/R sites:         	APB
NC/disease:        	NC
Operator:          	AT
Comments:          	Median N ABP 2nd
M-SCAN DATA (9-1.3m)
Scanpts: 90, 99, 792, 814
Stim. (mA)     	Amp. (mV)
MS.1           	21.5           	4.727
MS.2           	21.5           	4.727
MS.3           	21.5           	4.739
MS.4           	21.5           	4.727
MS.5           	21.5           	4.667
MS.6           	21.5           	4.709
MS.7           	21.5           	4.713
MS.8           	21.5           	4.635
MS.9           	21.5           	4.685
MS.10          	21.5           	4.651
MS.11          	21.5           	4.711
MS.12          	21.5           	4.737
MS.13          	21.5           	4.673
MS.14          	21.5           	4.685
MS.15          	21.5           	4.778
MS.16          	21.5           	4.671
MS.17          	21.5           	4.753
MS.18          	21.5           	4.784
MS.19          	21.5           	4.806
MS.20          	21.5           	4.836
MS.21          	21.5           	4.737
MS.22          	21.5           	4.77
MS.23          	21.5           	4.763
MS.24          	21.415         	4.713
MS.25          	21.372         	4.778
MS.26          	21.327         	4.792
MS.27          	21.285         	4.774
MS.28          	21.243         	4.79
MS.29          	21.2           	4.858
MS.30          	21.157         	4.659
MS.31          	21.118         	4.711
MS.32          	21.075         	4.673
MS.33          	21.032         	4.669
MS.34          	20.99          	4.759
MS.35          	20.948         	4.685
MS.36          	20.907         	4.683
MS.37          	20.865         	4.661
MS.38          	20.823         	4.695
MS.39          	20.78          	4.667
MS.40          	20.74          	4.717
MS.41          	20.698         	4.741
MS.42          	20.657         	4.751
MS.43          	20.615         	4.707
MS.44          	20.575         	4.673
MS.45          	20.532         	4.693
MS.46          	20.493         	4.715
MS.47          	20.452         	4.717
MS.48          	20.41          	4.747
MS.49          	20.37          	4.723
MS.50          	20.33          	4.729
MS.51          	20.288         	4.693
MS.52          	20.247         	4.743
MS.53          	20.208         	4.711
MS.54          	20.167         	4.661
MS.55          	20.127         	4.675
MS.56          	20.087         	4.669
MS.57          	20.047         	4.697
MS.58          	20.007         	4.725
MS.59          	19.967         	4.82
MS.60          	19.927         	4.741
MS.61          	19.887         	4.757
MS.62          	19.847         	4.749
MS.63          	19.807         	4.725
MS.64          	19.767         	4.77
MS.65          	19.727         	4.671
MS.66          	19.69          	4.649
MS.67          	19.65          	4.703
MS.68          	19.61          	4.723
MS.69          	19.57          	4.655
MS.70          	19.532         	4.749
MS.71          	19.493         	4.705
MS.72          	19.455         	4.723
MS.73          	19.415         	4.761
MS.74          	19.377         	4.778
MS.75          	19.337         	4.737
MS.76          	19.3           	4.753
MS.77          	19.26          	4.737
MS.78          	19.222         	4.717
MS.79          	19.182         	4.721
MS.80          	19.145         	4.687
MS.81          	19.108         	4.665
MS.82          	19.067         	4.685
MS.83          	19.03          	4.705
MS.84          	18.993         	4.772
MS.85          	18.955         	4.713
MS.86          	18.917         	4.723
MS.87          	18.88          	4.792
MS.88          	18.842         	4.782
MS.89          	18.802         	4.802
MS.90          	18.765         	4.761
MS.91          	18.727         	4.741
MS.92          	18.69          	4.729
MS.93          	18.655         	4.709
MS.94          	18.618         	4.725
MS.95          	18.58          	4.739
MS.96          	18.542         	4.77
MS.97          	18.505         	4.761
MS.98          	18.467         	4.755
MS.99          	18.432         	4.723
MS.100         	18.395         	4.669
MS.101         	18.358         	4.755
MS.102         	18.32          	4.629
MS.103         	18.285         	4.709
MS.104         	18.247         	4.725
MS.105         	18.212         	4.675
MS.106         	18.175         	4.651
MS.107         	18.137         	4.653
MS.108         	18.102         	4.717
MS.109         	18.067         	4.671
MS.110         	18.03          	4.713
MS.111         	17.995         	4.677
MS.112         	17.958         	4.645
MS.113         	17.922         	4.653
MS.114         	17.887         	4.655
MS.115         	17.85          	4.566
MS.116         	17.815         	4.707
MS.117         	17.78          	4.631
MS.118         	17.745         	4.838
MS.119         	17.708         	4.679
MS.120         	17.672         	4.713
MS.121         	17.637         	4.715
MS.122         	17.602         	4.721
MS.123         	17.567         	4.737
MS.124         	17.532         	4.713
MS.125         	17.497         	4.741
MS.126         	17.462         	4.697
MS.127         	17.427         	4.719
MS.128         	17.392         	4.693
MS.129         	17.358         	4.729
MS.130         	17.323         	4.723
MS.131         	17.288         	4.717
MS.132         	17.255         	4.655
MS.133         	17.22          	4.687
MS.134         	17.185         	4.528
MS.135         	17.15          	4.633
MS.136         	17.118         	4.612
MS.137         	17.083         	4.538
MS.138         	17.047         	4.616
MS.139         	17.015         	4.586
MS.140         	16.98          	4.645
MS.141         	16.948         	4.659
MS.142         	16.913         	4.532
MS.143         	16.878         	4.524
MS.144         	16.845         	4.606
MS.145         	16.812         	4.62
MS.146         	16.778         	4.568
MS.147         	16.745         	4.572
MS.148         	16.71          	4.588
MS.149         	16.677         	4.625
MS.150         	16.645         	4.602
MS.151         	16.61          	4.586
MS.152         	16.577         	4.59
MS.153         	16.545         	4.54
MS.154         	16.512         	4.582
MS.155         	16.477         	4.506
MS.156         	16.445         	4.54
MS.157         	16.413         	4.538
MS.158         	16.38          	4.49
MS.159         	16.347         	4.477
MS.160         	16.315         	4.473
MS.161         	16.282         	4.502
MS.162         	16.25          	4.488
MS.163         	16.217         	4.488
MS.164         	16.185         	4.514
MS.165         	16.153         	4.488
MS.166         	16.12          	4.268
MS.167         	16.087         	4.49
MS.168         	16.055         	4.449
MS.169         	16.022         	4.419
MS.170         	15.992         	4.177
MS.171         	15.96          	4.471
MS.172         	15.927         	4.222
MS.173         	15.895         	4.272
MS.174         	15.865         	4.226
MS.175         	15.832         	4.087
MS.176         	15.8           	4.606
MS.177         	15.77          	4.234
MS.178         	15.737         	4.367
MS.179         	15.705         	4.276
MS.180         	15.675         	4.351
MS.181         	15.642         	4.334
MS.182         	15.612         	4.234
MS.183         	15.58          	4.268
MS.184         	15.55          	4.234
MS.185         	15.52          	4.123
MS.186         	15.487         	4.208
MS.187         	15.457         	4.065
MS.188         	15.425         	4.262
MS.189         	15.395         	4.2
MS.190         	15.365         	4.145
MS.191         	15.332         	4.214
MS.192         	15.302         	4.286
MS.193         	15.273         	4.05
MS.194         	15.242         	3.974
MS.195         	15.212         	4.165
MS.196         	15.18          	4.175
MS.197         	15.15          	4.141
MS.198         	15.12          	4.018
MS.199         	15.09          	3.901
MS.200         	15.06          	3.901
MS.201         	15.03          	3.841
MS.202         	15             	3.952
MS.203         	14.97          	3.889
MS.204         	14.94          	3.893
MS.205         	14.91          	3.847
MS.206         	14.88          	3.843
MS.207         	14.85          	3.851
MS.208         	14.82          	3.879
MS.209         	14.792         	3.873
MS.210         	14.762         	3.811
MS.211         	14.733         	3.829
MS.212         	14.702         	3.789
MS.213         	14.672         	3.724
MS.214         	14.645         	3.702
MS.215         	14.615         	3.698
MS.216         	14.585         	3.819
MS.217         	14.557         	3.71
MS.218         	14.527         	3.791
MS.219         	14.497         	3.676
MS.220         	14.47          	3.742
MS.221         	14.44          	3.728
MS.222         	14.412         	3.692
MS.223         	14.382         	3.684
MS.224         	14.355         	3.589
MS.225         	14.325         	3.692
MS.226         	14.297         	3.642
MS.227         	14.267         	3.646
MS.228         	14.24          	3.638
MS.229         	14.212         	3.567
MS.230         	14.182         	3.642
MS.231         	14.155         	3.686
MS.232         	14.127         	3.565
MS.233         	14.097         	3.557
MS.234         	14.07          	3.577
MS.235         	14.042         	3.638
MS.236         	14.015         	3.563
MS.237         	13.985         	3.545
MS.238         	13.957         	3.617
MS.239         	13.93          	3.529
MS.240         	13.903         	3.547
MS.241         	13.875         	3.519
MS.242         	13.847         	3.448
MS.243         	13.82          	3.567
MS.244         	13.792         	3.468
MS.245         	13.765         	3.38
MS.246         	13.737         	3.525
MS.247         	13.71          	3.543
MS.248         	13.682         	3.533
MS.249         	13.655         	3.557
MS.250         	13.627         	3.442
MS.251         	13.6           	3.478
MS.252         	13.572         	3.452
MS.253         	13.545         	3.388
MS.254         	13.517         	3.462
MS.255         	13.492         	3.372
MS.256         	13.465         	3.38
MS.257         	13.438         	3.362
MS.258         	13.41          	3.279
MS.259         	13.385         	3.331
MS.260         	13.358         	3.311
MS.261         	13.33          	3.352
MS.262         	13.305         	3.261
MS.263         	13.278         	3.329
MS.264         	13.25          	3.305
MS.265         	13.225         	3.281
MS.266         	13.197         	3.354
MS.267         	13.172         	3.162
MS.268         	13.145         	3.116
MS.269         	13.12          	3.257
MS.270         	13.092         	3.15
MS.271         	13.068         	3.134
MS.272         	13.04          	3.241
MS.273         	13.015         	3.142
MS.274         	12.987         	3.136
MS.275         	12.962         	3.156
MS.276         	12.938         	3.251
MS.277         	12.91          	3.182
MS.278         	12.885         	3.249
MS.279         	12.86          	3.098
MS.280         	12.832         	3.126
MS.281         	12.807         	3.1
MS.282         	12.782         	3.084
MS.283         	12.757         	3.13
MS.284         	12.73          	3.114
MS.285         	12.705         	3.086
MS.286         	12.68          	3.064
MS.287         	12.655         	3.027
MS.288         	12.63          	3.053
MS.289         	12.605         	3.045
MS.290         	12.58          	3.039
MS.291         	12.555         	3.051
MS.292         	12.53          	3.037
MS.293         	12.505         	3.041
MS.294         	12.48          	3.003
MS.295         	12.455         	3.047
MS.296         	12.43          	2.933
MS.297         	12.405         	2.965
MS.298         	12.38          	2.981
MS.299         	12.355         	2.975
MS.300         	12.33          	2.908
MS.301         	12.305         	2.91
MS.302         	12.28          	3.001
MS.303         	12.257         	2.902
MS.304         	12.233         	2.977
MS.305         	12.207         	2.931
MS.306         	12.182         	2.892
MS.307         	12.157         	2.886
MS.308         	12.135         	2.967
MS.309         	12.11          	2.906
MS.310         	12.085         	2.868
MS.311         	12.062         	2.868
MS.312         	12.037         	2.876
MS.313         	12.012         	2.935
MS.314         	11.99          	2.896
MS.315         	11.965         	2.846
MS.316         	11.943         	2.786
MS.317         	11.917         	2.866
MS.318         	11.895         	2.927
MS.319         	11.87          	2.9
MS.320         	11.847         	2.864
MS.321         	11.822         	2.876
MS.322         	11.8           	2.653
MS.323         	11.775         	2.713
MS.324         	11.752         	2.81
MS.325         	11.73          	2.866
MS.326         	11.705         	2.622
MS.327         	11.682         	2.562
MS.328         	11.657         	2.61
MS.329         	11.635         	2.836
MS.330         	11.613         	2.643
MS.331         	11.59          	2.61
MS.332         	11.565         	2.604
MS.333         	11.542         	2.572
MS.334         	11.52          	2.594
MS.335         	11.497         	2.596
MS.336         	11.472         	2.532
MS.337         	11.45          	2.536
MS.338         	11.427         	2.572
MS.339         	11.405         	2.556
MS.340         	11.382         	2.715
MS.341         	11.36          	2.534
MS.342         	11.337         	2.5
MS.343         	11.315         	2.518
MS.344         	11.292         	2.403
MS.345         	11.27          	2.504
MS.346         	11.247         	2.447
MS.347         	11.225         	2.463
MS.348         	11.202         	2.449
MS.349         	11.18          	2.498
MS.350         	11.157         	2.453
MS.351         	11.135         	2.373
MS.352         	11.113         	2.385
MS.353         	11.09          	2.415
MS.354         	11.068         	2.383
MS.355         	11.045         	2.393
MS.356         	11.023         	2.391
MS.357         	11.002         	2.387
MS.358         	10.98          	2.383
MS.359         	10.957         	2.447
MS.360         	10.935         	2.401
MS.361         	10.915         	2.381
MS.362         	10.892         	2.395
MS.363         	10.87          	2.33
MS.364         	10.847         	2.383
MS.365         	10.827         	2.403
MS.366         	10.805         	2.355
MS.367         	10.785         	2.395
MS.368         	10.762         	2.387
MS.369         	10.74          	2.403
MS.370         	10.72          	2.411
MS.371         	10.698         	2.403
MS.372         	10.677         	2.334
MS.373         	10.655         	2.403
MS.374         	10.635         	2.395
MS.375         	10.613         	2.336
MS.376         	10.592         	2.316
MS.377         	10.57          	2.324
MS.378         	10.55          	2.379
MS.379         	10.528         	2.338
MS.380         	10.507         	2.314
MS.381         	10.485         	2.284
MS.382         	10.465         	2.336
MS.383         	10.445         	2.254
MS.384         	10.422         	2.274
MS.385         	10.403         	2.27
MS.386         	10.382         	2.242
MS.387         	10.36          	2.226
MS.388         	10.34          	2.246
MS.389         	10.32          	2.226
MS.390         	10.3           	2.206
MS.391         	10.278         	2.199
MS.392         	10.257         	2.262
MS.393         	10.238         	2.199
MS.394         	10.217         	2.193
MS.395         	10.198         	2.226
MS.396         	10.175         	2.236
MS.397         	10.155         	2.22
MS.398         	10.135         	2.161
MS.399         	10.115         	2.185
MS.400         	10.095         	2.218
MS.401         	10.075         	2.248
MS.402         	10.055         	2.153
MS.403         	10.035         	2.139
MS.404         	10.015         	2.189
MS.405         	9.995          	2.216
MS.406         	9.975          	2.139
MS.407         	9.955          	2.157
MS.408         	9.935          	2.173
MS.409         	9.915          	2.135
MS.410         	9.895          	2.139
MS.411         	9.875          	2.117
MS.412         	9.855          	2.179
MS.413         	9.835          	2.149
MS.414         	9.818          	2.107
MS.415         	9.797          	2.111
MS.416         	9.778          	2.089
MS.417         	9.757          	2.036
MS.418         	9.738          	2.065
MS.419         	9.717          	2.036
MS.420         	9.7            	2.026
MS.421         	9.68           	2.052
MS.422         	9.66           	2.026
MS.423         	9.64           	2.071
MS.424         	9.622          	2.05
MS.425         	9.602          	2.016
MS.426         	9.582          	2.004
MS.427         	9.565          	1.988
MS.428         	9.545          	2.006
MS.429         	9.525          	2.002
MS.430         	9.507          	1.988
MS.431         	9.488          	1.96
MS.432         	9.47           	2
MS.433         	9.45           	2.01
MS.434         	9.432          	1.942
MS.435         	9.412          	1.968
MS.436         	9.395          	1.964
MS.437         	9.375          	1.948
MS.438         	9.358          	1.938
MS.439         	9.337          	1.942
MS.440         	9.32           	1.946
MS.441         	9.3            	1.946
MS.442         	9.283          	1.827
MS.443         	9.262          	1.911
MS.444         	9.245          	1.839
MS.445         	9.225          	1.845
MS.446         	9.207          	1.841
MS.447         	9.19           	1.77
MS.448         	9.17           	1.831
MS.449         	9.153          	1.809
MS.450         	9.135          	1.823
MS.451         	9.115          	1.831
MS.452         	9.097          	1.821
MS.453         	9.08           	1.74
MS.454         	9.062          	1.664
MS.455         	9.042          	1.903
MS.456         	9.025          	1.676
MS.457         	9.007          	1.662
MS.458         	8.99           	1.64
MS.459         	8.972          	1.638
MS.460         	8.952          	1.607
MS.461         	8.935          	1.68
MS.462         	8.917          	1.617
MS.463         	8.9            	1.644
MS.464         	8.882          	1.539
MS.465         	8.865          	1.615
MS.466         	8.847          	1.617
MS.467         	8.83           	1.615
MS.468         	8.812          	1.571
MS.469         	8.795          	1.428
MS.470         	8.775          	1.505
MS.471         	8.757          	1.509
MS.472         	8.74           	1.535
MS.473         	8.722          	1.456
MS.474         	8.707          	1.486
MS.475         	8.69           	1.501
MS.476         	8.672          	1.396
MS.477         	8.655          	1.343
MS.478         	8.637          	1.325
MS.479         	8.62           	1.418
MS.480         	8.602          	1.299
MS.481         	8.585          	1.263
MS.482         	8.568          	1.273
MS.483         	8.55           	1.259
MS.484         	8.535          	1.206
MS.485         	8.517          	1.168
MS.486         	8.5            	1.229
MS.487         	8.483          	1.259
MS.488         	8.465          	1.188
MS.489         	8.45           	1.172
MS.490         	8.432          	1.178
MS.491         	8.415          	1.204
MS.492         	8.398          	1.168
MS.493         	8.382          	1.196
MS.494         	8.365          	1.114
MS.495         	8.347          	1.178
MS.496         	8.332          	1.061
MS.497         	8.315          	1.144
MS.498         	8.297          	1.084
MS.499         	8.283          	1.072
MS.500         	8.265          	1.112
