File:              	C:\Qtrac\Data\Daniel M Sørensen\MScan multicentre study\Data from centres\Oxford\Processed data\ATC01218B.QZD
Name:              	UK.OXF.NC.9.2
Protocol:          	MSCAN-R2
Date:              	18/12/20
Start time:        	10:30:07
Age:               	35
Sex:               	F
Temperature:       	34.1
S/R sites:         	ADM
NC/disease:        	NC
Operator:          	AT
Comments:          	Ulnar N ADM 2nd
M-SCAN DATA (10.8-1.5m)
Scanpts: 17, 28, 728, 747
Stim. (mA)     	Amp. (mV)
MS.1           	24.5           	4.417
MS.2           	24.5           	4.383
MS.3           	24.5           	4.359
MS.4           	24.5           	4.381
MS.5           	24.5           	4.375
MS.6           	24.5           	4.314
MS.7           	24.5           	4.441
MS.8           	24.5           	4.524
MS.9           	24.5           	4.395
MS.10          	24.5           	4.534
MS.11          	24.5           	4.399
MS.12          	24.5           	4.312
MS.13          	24.5           	4.351
MS.14          	24.5           	4.373
MS.15          	24.5           	4.433
MS.16          	24.5           	4.413
MS.17          	24.5           	4.367
MS.18          	24.5           	4.415
MS.19          	24.5           	4.427
MS.20          	24.5           	4.357
MS.21          	24.5           	4.461
MS.22          	24.5           	4.379
MS.23          	24.5           	4.373
MS.24          	24.403         	4.361
MS.25          	24.352         	4.439
MS.26          	24.305         	4.429
MS.27          	24.255         	4.492
MS.28          	24.207         	4.369
MS.29          	24.16          	4.336
MS.30          	24.11          	4.155
MS.31          	24.062         	4.32
MS.32          	24.015         	4.471
MS.33          	23.967         	4.272
MS.34          	23.92          	4.405
MS.35          	23.87          	4.399
MS.36          	23.823         	4.244
MS.37          	23.775         	4.377
MS.38          	23.727         	4.324
MS.39          	23.68          	4.365
MS.40          	23.632         	4.23
MS.41          	23.587         	4.373
MS.42          	23.54          	4.27
MS.43          	23.493         	4.387
MS.44          	23.445         	4.161
MS.45          	23.397         	4.298
MS.46          	23.352         	4.359
MS.47          	23.305         	4.393
MS.48          	23.257         	4.195
MS.49          	23.212         	4.411
MS.50          	23.165         	4.099
MS.51          	23.12          	4.451
MS.52          	23.073         	4.131
MS.53          	23.028         	4.254
MS.54          	22.98          	4.169
MS.55          	22.935         	4.163
MS.56          	22.89          	4.169
MS.57          	22.842         	4.198
MS.58          	22.797         	4.127
MS.59          	22.752         	4.25
MS.60          	22.707         	4.121
MS.61          	22.663         	4.103
MS.62          	22.618         	4.149
MS.63          	22.57          	4.046
MS.64          	22.525         	4.04
MS.65          	22.48          	4.081
MS.66          	22.435         	3.994
MS.67          	22.39          	3.978
MS.68          	22.347         	4.073
MS.69          	22.302         	3.934
MS.70          	22.257         	3.905
MS.71          	22.212         	4.006
MS.72          	22.167         	3.998
MS.73          	22.125         	3.871
MS.74          	22.08          	3.962
MS.75          	22.035         	3.907
MS.76          	21.993         	3.891
MS.77          	21.948         	3.95
MS.78          	21.905         	4.048
MS.79          	21.86          	3.909
MS.80          	21.817         	3.861
MS.81          	21.772         	3.922
MS.82          	21.73          	3.845
MS.83          	21.685         	3.732
MS.84          	21.642         	3.781
MS.85          	21.6           	3.72
MS.86          	21.557         	3.841
MS.87          	21.512         	3.756
MS.88          	21.47          	3.883
MS.89          	21.427         	3.785
MS.90          	21.385         	3.73
MS.91          	21.342         	3.764
MS.92          	21.3           	3.694
MS.93          	21.257         	3.68
MS.94          	21.215         	3.875
MS.95          	21.172         	3.674
MS.96          	21.13          	3.636
MS.97          	21.087         	3.809
MS.98          	21.045         	3.64
MS.99          	21.002         	3.75
MS.100         	20.96          	3.664
MS.101         	20.92          	3.537
MS.102         	20.877         	3.613
MS.103         	20.835         	3.688
MS.104         	20.795         	3.561
MS.105         	20.752         	3.666
MS.106         	20.71          	3.625
MS.107         	20.67          	3.646
MS.108         	20.627         	3.632
MS.109         	20.587         	3.537
MS.110         	20.545         	3.48
MS.111         	20.505         	3.48
MS.112         	20.465         	3.587
MS.113         	20.422         	3.468
MS.114         	20.382         	3.509
MS.115         	20.342         	3.372
MS.116         	20.3           	3.414
MS.117         	20.26          	3.448
MS.118         	20.22          	3.442
MS.119         	20.18          	3.468
MS.120         	20.14          	3.482
MS.121         	20.1           	3.579
MS.122         	20.06          	3.599
MS.123         	20.017         	3.376
MS.124         	19.977         	3.366
MS.125         	19.94          	3.456
MS.126         	19.9           	3.426
MS.127         	19.86          	3.527
MS.128         	19.82          	3.505
MS.129         	19.78          	3.491
MS.130         	19.74          	3.442
MS.131         	19.7           	3.428
MS.132         	19.663         	3.495
MS.133         	19.622         	3.519
MS.134         	19.583         	3.466
MS.135         	19.545         	3.352
MS.136         	19.505         	3.384
MS.137         	19.465         	3.567
MS.138         	19.427         	3.46
MS.139         	19.387         	3.392
MS.140         	19.35          	3.376
MS.141         	19.31          	3.416
MS.142         	19.272         	3.356
MS.143         	19.235         	3.43
MS.144         	19.195         	3.519
MS.145         	19.157         	3.344
MS.146         	19.118         	3.428
MS.147         	19.08          	3.386
MS.148         	19.042         	3.374
MS.149         	19.005         	3.172
MS.150         	18.967         	3.285
MS.151         	18.927         	3.36
MS.152         	18.89          	3.337
MS.153         	18.852         	3.335
MS.154         	18.815         	3.368
MS.155         	18.778         	3.313
MS.156         	18.74          	3.307
MS.157         	18.702         	3.35
MS.158         	18.665         	3.307
MS.159         	18.628         	3.221
MS.160         	18.59          	3.215
MS.161         	18.552         	3.221
MS.162         	18.517         	3.271
MS.163         	18.48          	3.263
MS.164         	18.442         	3.261
MS.165         	18.405         	3.176
MS.166         	18.37          	3.196
MS.167         	18.333         	3.285
MS.168         	18.295         	3.309
MS.169         	18.26          	3.287
MS.170         	18.222         	3.245
MS.171         	18.188         	3.098
MS.172         	18.15          	3.313
MS.173         	18.112         	3.076
MS.174         	18.077         	3.225
MS.175         	18.042         	3.207
MS.176         	18.005         	3.13
MS.177         	17.97          	3.279
MS.178         	17.932         	3.1
MS.179         	17.897         	3.233
MS.180         	17.862         	3.237
MS.181         	17.825         	3.108
MS.182         	17.79          	3.356
MS.183         	17.755         	3.162
MS.184         	17.72          	3.229
MS.185         	17.685         	3.098
MS.186         	17.65          	2.983
MS.187         	17.612         	2.967
MS.188         	17.577         	2.961
MS.189         	17.542         	2.951
MS.190         	17.507         	2.995
MS.191         	17.472         	2.842
MS.192         	17.438         	3.031
MS.193         	17.403         	2.999
MS.194         	17.368         	2.83
MS.195         	17.335         	2.993
MS.196         	17.3           	2.917
MS.197         	17.265         	2.874
MS.198         	17.23          	2.78
MS.199         	17.195         	2.914
MS.200         	17.163         	2.852
MS.201         	17.128         	2.89
MS.202         	17.092         	2.822
MS.203         	17.06          	2.778
MS.204         	17.025         	2.788
MS.205         	16.99          	2.86
MS.206         	16.958         	2.792
MS.207         	16.922         	2.667
MS.208         	16.89          	2.844
MS.209         	16.855         	2.733
MS.210         	16.823         	2.822
MS.211         	16.788         	2.671
MS.212         	16.755         	2.767
MS.213         	16.72          	2.858
MS.214         	16.688         	2.767
MS.215         	16.655         	2.786
MS.216         	16.62          	2.671
MS.217         	16.587         	2.697
MS.218         	16.555         	2.62
MS.219         	16.522         	2.647
MS.220         	16.487         	2.647
MS.221         	16.455         	2.624
MS.222         	16.422         	2.538
MS.223         	16.39          	2.582
MS.224         	16.358         	2.643
MS.225         	16.325         	2.566
MS.226         	16.292         	2.473
MS.227         	16.26          	2.572
MS.228         	16.227         	2.443
MS.229         	16.195         	2.413
MS.230         	16.163         	2.334
MS.231         	16.13          	2.355
MS.232         	16.097         	2.34
MS.233         	16.065         	2.371
MS.234         	16.032         	2.357
MS.235         	16.003         	2.504
MS.236         	15.97          	2.328
MS.237         	15.938         	2.344
MS.238         	15.905         	2.3
MS.239         	15.875         	2.183
MS.240         	15.842         	2.359
MS.241         	15.81          	2.377
MS.242         	15.78          	1.972
MS.243         	15.747         	1.982
MS.244         	15.715         	2.105
MS.245         	15.685         	2.141
MS.246         	15.652         	2.087
MS.247         	15.622         	1.988
MS.248         	15.59          	2.018
MS.249         	15.56          	1.982
MS.250         	15.527         	1.96
MS.251         	15.497         	1.875
MS.252         	15.467         	1.791
MS.253         	15.435         	1.871
MS.254         	15.405         	1.738
MS.255         	15.375         	1.746
MS.256         	15.342         	1.797
MS.257         	15.312         	1.418
MS.258         	15.282         	1.696
MS.259         	15.252         	1.442
MS.260         	15.22          	1.45
MS.261         	15.19          	1.527
MS.262         	15.16          	1.543
MS.263         	15.13          	1.311
MS.264         	15.1           	1.44
MS.265         	15.07          	1.366
MS.266         	15.04          	1.366
MS.267         	15.01          	1.472
MS.268         	14.98          	1.219
MS.269         	14.95          	1.313
MS.270         	14.92          	1.349
MS.271         	14.89          	1.023
MS.272         	14.86          	1.2
MS.273         	14.83          	1.124
MS.274         	14.8           	0.971
MS.275         	14.77          	0.975
MS.276         	14.742         	0.957
MS.277         	14.712         	0.961
MS.278         	14.682         	0.904
MS.279         	14.652         	1.039
MS.280         	14.625         	1.08
MS.281         	14.595         	0.957
MS.282         	14.565         	0.888
MS.283         	14.537         	1.017
MS.284         	14.507         	0.886
MS.285         	14.477         	0.902
MS.286         	14.45          	0.777
MS.287         	14.42          	0.733
MS.288         	14.392         	0.906
MS.289         	14.362         	0.804
MS.290         	14.335         	0.564
MS.291         	14.305         	0.818
MS.292         	14.278         	0.634
MS.293         	14.247         	0.645
MS.294         	14.22          	0.757
MS.295         	14.193         	0.864
MS.296         	14.162         	0.568
MS.297         	14.135         	0.618
MS.298         	14.108         	0.552
MS.299         	14.08          	0.53
MS.300         	14.05          	0.528
MS.301         	14.023         	0.538
MS.302         	13.995         	0.612
MS.303         	13.967         	0.506
MS.304         	13.938         	0.667
MS.305         	13.91          	0.546
MS.306         	13.882         	0.552
MS.307         	13.855         	0.491
MS.308         	13.827         	0.534
MS.309         	13.8           	0.473
MS.310         	13.773         	0.463
MS.311         	13.745         	0.437
MS.312         	13.717         	0.485
MS.313         	13.69          	0.459
MS.314         	13.662         	0.453
MS.315         	13.635         	0.441
MS.316         	13.608         	0.437
MS.317         	13.58          	0.405
MS.318         	13.555         	0.431
MS.319         	13.528         	0.381
MS.320         	13.5           	0.415
MS.321         	13.472         	0.433
MS.322         	13.445         	0.373
MS.323         	13.42          	0.363
MS.324         	13.392         	0.346
MS.325         	13.365         	0.383
MS.326         	13.337         	0.352
MS.327         	13.312         	0.332
MS.328         	13.285         	0.383
MS.329         	13.26          	0.348
MS.330         	13.233         	0.312
MS.331         	13.205         	0.304
MS.332         	13.18          	0.336
MS.333         	13.153         	0.379
MS.334         	13.127         	0.298
MS.335         	13.1           	0.312
MS.336         	13.075         	0.322
MS.337         	13.047         	0.334
MS.338         	13.023         	0.29
MS.339         	12.997         	0.318
MS.340         	12.97          	0.27
MS.341         	12.945         	0.264
MS.342         	12.917         	0.25
MS.343         	12.892         	0.23
MS.344         	12.867         	0.262
MS.345         	12.842         	0.246
MS.346         	12.815         	0.29
MS.347         	12.79          	0.23
MS.348         	12.765         	0.27
MS.349         	12.74          	0.197
MS.350         	12.712         	0.214
MS.351         	12.688         	0.262
MS.352         	12.662         	0.242
MS.353         	12.637         	0.224
MS.354         	12.613         	0.173
MS.355         	12.587         	0.189
MS.356         	12.562         	0.201
MS.357         	12.537         	0.197
MS.358         	12.512         	0.191
MS.359         	12.488         	0.205
MS.360         	12.462         	0.185
MS.361         	12.438         	0.173
MS.362         	12.412         	0.171
MS.363         	12.387         	0.173
MS.364         	12.363         	0.189
MS.365         	12.337         	0.129
MS.366         	12.312         	0.205
MS.367         	12.287         	0.157
MS.368         	12.265         	0.177
MS.369         	12.24          	0.175
MS.370         	12.215         	0.135
MS.371         	12.19          	0.129
MS.372         	12.167         	0.149
MS.373         	12.142         	0.125
MS.374         	12.117         	0.149
MS.375         	12.092         	0.133
MS.376         	12.07          	0.177
MS.377         	12.045         	0.111
MS.378         	12.02          	0.151
MS.379         	11.997         	0.099
MS.380         	11.972         	0.101
MS.381         	11.95          	0.107
MS.382         	11.925         	0.119
MS.383         	11.903         	0.079
MS.384         	11.877         	0.123
MS.385         	11.855         	0.135
MS.386         	11.83          	0.073
MS.387         	11.807         	0.089
MS.388         	11.782         	0.125
MS.389         	11.76          	0.103
MS.390         	11.735         	0.123
MS.391         	11.712         	0.121
MS.392         	11.69          	0.073
MS.393         	11.665         	0.079
MS.394         	11.642         	0.075
MS.395         	11.62          	0.121
MS.396         	11.595         	0.119
MS.397         	11.572         	0.079
MS.398         	11.55          	0.075
MS.399         	11.528         	0.077
MS.400         	11.502         	0.105
MS.401         	11.48          	0.079
MS.402         	11.457         	0.075
MS.403         	11.435         	0.079
MS.404         	11.412         	0.075
MS.405         	11.39          	0.075
MS.406         	11.367         	0.075
MS.407         	11.345         	0.075
MS.408         	11.32          	0.073
MS.409         	11.297         	0.073
MS.410         	11.275         	0.077
MS.411         	11.252         	0.073
MS.412         	11.23          	0.075
MS.413         	11.207         	0.079
MS.414         	11.185         	0.075
MS.415         	11.162         	0.077
MS.416         	11.142         	0.077
MS.417         	11.12          	0.073
MS.418         	11.097         	0.075
MS.419         	11.075         	0.075
MS.420         	11.052         	0.077
MS.421         	11.03          	0.058
MS.422         	11.007         	0.056
MS.423         	10.988         	0.058
MS.424         	10.965         	0.075
MS.425         	10.943         	0.058
MS.426         	10.92          	0.056
MS.427         	10.9           	0.077
MS.428         	10.877         	0.058
MS.429         	10.855         	0.056
MS.430         	10.835         	0.056
MS.431         	10.812         	0.075
MS.432         	10.79          	0.075
MS.433         	10.77          	0.056
MS.434         	10.747         	0.06
MS.435         	10.725         	0.056
MS.436         	10.705         	0.058
MS.437         	10.682         	0.056
MS.438         	10.662         	0.056
MS.439         	10.64          	0.058
MS.440         	10.62          	0.058
MS.441         	10.597         	0.06
MS.442         	10.577         	0.058
MS.443         	10.555         	0.056
MS.444         	10.535         	0.058
MS.445         	10.512         	0.06
MS.446         	10.492         	0.058
MS.447         	10.472         	0.06
MS.448         	10.45          	0.058
MS.449         	10.43          	0.058
MS.450         	10.41          	0.06
MS.451         	10.387         	0.058
MS.452         	10.367         	0.058
MS.453         	10.347         	0.06
MS.454         	10.325         	0.058
MS.455         	10.305         	0.06
MS.456         	10.285         	0.062
MS.457         	10.265         	0.058
MS.458         	10.245         	0.058
MS.459         	10.222         	0.06
MS.460         	10.202         	0.06
MS.461         	10.182         	0.06
MS.462         	10.162         	0.06
MS.463         	10.142         	0.062
MS.464         	10.122         	0.06
MS.465         	10.102         	0.06
MS.466         	10.08          	0.06
MS.467         	10.06          	0.062
MS.468         	10.04          	0.06
MS.469         	10.02          	0.06
MS.470         	10             	0.06
MS.471         	9.98           	0.06
MS.472         	9.96           	0.06
MS.473         	9.94           	0.062
MS.474         	9.92           	0.06
MS.475         	9.903          	0.06
MS.476         	9.882          	0.06
MS.477         	9.863          	0.06
MS.478         	9.842          	0.062
MS.479         	9.823          	0.06
MS.480         	9.802          	0.06
MS.481         	9.782          	0.06
MS.482         	9.762          	0.062
MS.483         	9.745          	0.062
MS.484         	9.725          	0.062
MS.485         	9.705          	0.062
MS.486         	9.685          	0.062
MS.487         	9.667          	0.062
MS.488         	9.648          	0.064
MS.489         	9.627          	0.062
MS.490         	9.608          	0.062
MS.491         	9.59           	0.064
MS.492         	9.57           	0.062
MS.493         	9.55           	0.062
MS.494         	9.532          	0.062
MS.495         	9.512          	0.064
MS.496         	9.495          	0.062
MS.497         	9.475          	0.062
MS.498         	9.455          	0.062
MS.499         	9.438          	0.06
MS.500         	9.417          	0.064
MS.501         	9.4            	0.062
