File:              	C:\Qtrac\Data\Daniel M Sørensen\MScan multicentre study\Data from centres\Oxford\Raw data (sorted for use)\ATC01204E.QZD
Name:              	UK.OXF.NC.2.1
Protocol:          	MSCAN-R2
Date:              	4/12/20
Start time:        	16:30:35
Age:               	29
Sex:               	M
Temperature:       	33
S/R sites:         	ADM
NC/disease:        	NC
Operator:          	AT
Comments:          	HC Trial 1 ulnar n
M-SCAN DATA (Repeat 2/2, 10.6-6.3m)
Scanpts: 3, 8, 323, 328
Stim. (mA)     	Amp. (mV)
MS.1           	24.5           	4.554
MS.2           	24.5           	4.576
MS.3           	24.5           	4.562
MS.4           	24.5           	4.556
MS.5           	24.5           	4.546
MS.6           	24.5           	4.542
MS.7           	24.5           	4.584
MS.8           	24.5           	4.554
MS.9           	24.5           	4.576
MS.10          	24.5           	4.56
MS.11          	24.5           	4.584
MS.12          	24.5           	4.494
MS.13          	24.5           	4.469
MS.14          	24.5           	4.492
MS.15          	24.5           	4.542
MS.16          	24.5           	4.56
MS.17          	24.5           	4.56
MS.18          	24.5           	4.522
MS.19          	24.5           	4.496
MS.20          	24.5           	4.528
MS.21          	24.5           	4.526
MS.22          	24.5           	4.465
MS.23          	24.5           	4.391
MS.24          	24.45          	4.419
MS.25          	24.403         	4.475
MS.26          	24.352         	4.5
MS.27          	24.305         	4.471
MS.28          	24.255         	4.512
MS.29          	24.207         	4.463
MS.30          	24.16          	4.363
MS.31          	24.11          	4.385
MS.32          	24.062         	4.423
MS.33          	24.015         	4.377
MS.34          	23.967         	4.397
MS.35          	23.92          	4.31
MS.36          	23.87          	4.284
MS.37          	23.823         	4.417
MS.38          	23.775         	4.286
MS.39          	23.727         	4.298
MS.40          	23.68          	4.121
MS.41          	23.632         	4.236
MS.42          	23.587         	4
MS.43          	23.54          	4.147
MS.44          	23.493         	4.042
MS.45          	23.445         	4.141
MS.46          	23.397         	4.167
MS.47          	23.352         	4.236
MS.48          	23.305         	4.008
MS.49          	23.257         	4.391
MS.50          	23.212         	4.29
MS.51          	23.165         	4.159
MS.52          	23.12          	4.153
MS.53          	23.073         	4.135
MS.54          	23.028         	3.99
MS.55          	22.98          	3.928
MS.56          	22.935         	3.922
MS.57          	22.89          	3.988
MS.58          	22.842         	4.127
MS.59          	22.797         	4.151
MS.60          	22.752         	3.984
MS.61          	22.707         	4.002
MS.62          	22.663         	4.03
MS.63          	22.618         	3.998
MS.64          	22.57          	4.077
MS.65          	22.525         	3.952
MS.66          	22.48          	4.099
MS.67          	22.435         	4.016
MS.68          	22.392         	3.99
MS.69          	22.347         	4.032
MS.70          	22.302         	4.055
MS.71          	22.257         	3.994
MS.72          	22.212         	4.042
MS.73          	22.167         	3.938
MS.74          	22.125         	4.024
MS.75          	22.08          	4.014
MS.76          	22.035         	3.928
MS.77          	21.993         	3.903
MS.78          	21.948         	3.95
MS.79          	21.905         	3.958
MS.80          	21.86          	3.93
MS.81          	21.817         	4.022
MS.82          	21.772         	3.899
MS.83          	21.73          	3.797
MS.84          	21.685         	3.837
MS.85          	21.642         	3.867
MS.86          	21.6           	3.819
MS.87          	21.557         	3.803
MS.88          	21.512         	3.869
MS.89          	21.47          	3.813
MS.90          	21.427         	3.787
MS.91          	21.385         	3.839
MS.92          	21.342         	3.754
MS.93          	21.3           	3.766
MS.94          	21.257         	3.823
MS.95          	21.215         	3.754
MS.96          	21.172         	3.736
MS.97          	21.13          	3.718
MS.98          	21.087         	3.728
MS.99          	21.045         	3.726
MS.100         	21.002         	3.69
MS.101         	20.96          	3.644
MS.102         	20.92          	3.779
MS.103         	20.877         	3.551
MS.104         	20.835         	3.682
MS.105         	20.795         	3.746
MS.106         	20.752         	3.69
MS.107         	20.71          	3.605
MS.108         	20.67          	3.579
MS.109         	20.627         	3.573
MS.110         	20.587         	3.589
MS.111         	20.545         	3.537
MS.112         	20.505         	3.613
MS.113         	20.465         	3.426
MS.114         	20.422         	3.595
MS.115         	20.382         	3.448
MS.116         	20.342         	3.186
MS.117         	20.3           	3.452
MS.118         	20.26          	3.309
MS.119         	20.22          	3.186
MS.120         	20.18          	3.424
MS.121         	20.14          	3.39
MS.122         	20.1           	3.203
MS.123         	20.06          	3.086
MS.124         	20.02          	2.995
MS.125         	19.98          	3.031
MS.126         	19.94          	3.14
MS.127         	19.9           	2.675
MS.128         	19.86          	2.749
MS.129         	19.82          	2.808
MS.130         	19.78          	2.683
MS.131         	19.74          	2.794
MS.132         	19.7           	2.55
MS.133         	19.663         	2.796
MS.134         	19.622         	2.481
MS.135         	19.583         	2.328
MS.136         	19.545         	2.584
MS.137         	19.505         	2.473
MS.138         	19.465         	2.346
MS.139         	19.427         	2.147
MS.140         	19.387         	2.151
MS.141         	19.35          	2.201
MS.142         	19.31          	1.944
MS.143         	19.272         	1.881
MS.144         	19.235         	2.167
MS.145         	19.195         	1.958
MS.146         	19.157         	1.891
MS.147         	19.12          	1.986
MS.148         	19.08          	1.746
MS.149         	19.042         	1.827
MS.150         	19.005         	1.698
MS.151         	18.967         	1.464
MS.152         	18.927         	1.664
MS.153         	18.89          	1.621
MS.154         	18.852         	1.654
MS.155         	18.815         	1.462
MS.156         	18.778         	1.37
MS.157         	18.74          	1.343
MS.158         	18.702         	1.227
MS.159         	18.665         	1.382
MS.160         	18.628         	1.227
MS.161         	18.59          	1.263
MS.162         	18.555         	1.213
MS.163         	18.517         	1.247
MS.164         	18.48          	1.275
MS.165         	18.442         	1.251
MS.166         	18.405         	1.186
MS.167         	18.37          	1.108
MS.168         	18.333         	1.144
MS.169         	18.295         	1.053
MS.170         	18.26          	0.985
MS.171         	18.222         	1.098
MS.172         	18.188         	0.977
MS.173         	18.15          	1.247
MS.174         	18.115         	1.041
MS.175         	18.077         	0.935
MS.176         	18.042         	0.989
MS.177         	18.005         	1.078
MS.178         	17.97          	1.072
MS.179         	17.932         	1.037
MS.180         	17.897         	0.908
MS.181         	17.862         	0.83
MS.182         	17.827         	0.872
MS.183         	17.79          	1.049
MS.184         	17.755         	0.727
MS.185         	17.72          	0.796
MS.186         	17.685         	0.767
MS.187         	17.65          	0.767
MS.188         	17.612         	0.792
MS.189         	17.577         	0.659
MS.190         	17.542         	0.518
MS.191         	17.507         	0.765
MS.192         	17.472         	0.526
MS.193         	17.438         	0.681
MS.194         	17.403         	0.614
MS.195         	17.37          	0.564
MS.196         	17.335         	0.514
MS.197         	17.3           	0.461
MS.198         	17.265         	0.431
MS.199         	17.23          	0.421
MS.200         	17.195         	0.421
MS.201         	17.163         	0.439
MS.202         	17.128         	0.389
MS.203         	17.092         	0.397
MS.204         	17.06          	0.389
MS.205         	17.025         	0.379
MS.206         	16.99          	0.387
MS.207         	16.958         	0.399
MS.208         	16.922         	0.413
MS.209         	16.89          	0.552
MS.210         	16.855         	0.393
MS.211         	16.823         	0.375
MS.212         	16.788         	0.363
MS.213         	16.755         	0.395
MS.214         	16.72          	0.423
MS.215         	16.688         	0.361
MS.216         	16.655         	0.348
MS.217         	16.62          	0.371
MS.218         	16.587         	0.359
MS.219         	16.555         	0.324
MS.220         	16.522         	0.344
MS.221         	16.487         	0.332
MS.222         	16.455         	0.298
MS.223         	16.422         	0.346
MS.224         	16.39          	0.357
MS.225         	16.358         	0.369
MS.226         	16.325         	0.312
MS.227         	16.292         	0.32
MS.228         	16.26          	0.274
MS.229         	16.227         	0.252
MS.230         	16.195         	0.359
MS.231         	16.163         	0.324
MS.232         	16.13          	0.32
MS.233         	16.097         	0.276
MS.234         	16.065         	0.268
MS.235         	16.032         	0.32
MS.236         	16.003         	0.278
MS.237         	15.97          	0.224
MS.238         	15.938         	0.272
MS.239         	15.905         	0.246
MS.240         	15.875         	0.254
MS.241         	15.842         	0.258
MS.242         	15.81          	0.248
MS.243         	15.78          	0.193
MS.244         	15.747         	0.218
MS.245         	15.715         	0.238
MS.246         	15.685         	0.258
MS.247         	15.652         	0.207
MS.248         	15.622         	0.185
MS.249         	15.59          	0.193
MS.250         	15.56          	0.207
MS.251         	15.527         	0.169
MS.252         	15.497         	0.207
MS.253         	15.467         	0.24
MS.254         	15.435         	0.199
MS.255         	15.405         	0.286
MS.256         	15.375         	0.238
MS.257         	15.342         	0.181
MS.258         	15.312         	0.209
MS.259         	15.282         	0.191
MS.260         	15.252         	0.197
MS.261         	15.22          	0.209
MS.262         	15.19          	0.179
MS.263         	15.16          	0.193
MS.264         	15.13          	0.169
MS.265         	15.1           	0.189
MS.266         	15.07          	0.145
MS.267         	15.04          	0.149
MS.268         	15.01          	0.181
MS.269         	14.98          	0.139
MS.270         	14.95          	0.149
MS.271         	14.92          	0.135
MS.272         	14.89          	0.135
MS.273         	14.86          	0.135
MS.274         	14.83          	0.147
MS.275         	14.8           	0.137
MS.276         	14.77          	0.109
MS.277         	14.742         	0.173
MS.278         	14.712         	0.097
MS.279         	14.682         	0.115
MS.280         	14.652         	0.103
MS.281         	14.625         	0.169
MS.282         	14.595         	0.095
MS.283         	14.565         	0.119
MS.284         	14.537         	0.121
MS.285         	14.507         	0.121
MS.286         	14.477         	0.129
MS.287         	14.45          	0.103
MS.288         	14.42          	0.079
MS.289         	14.392         	0.064
MS.290         	14.362         	0.085
MS.291         	14.335         	0.097
MS.292         	14.305         	0.099
MS.293         	14.278         	0.089
MS.294         	14.25          	0.103
MS.295         	14.22          	0.075
MS.296         	14.193         	0.07
MS.297         	14.162         	0.062
MS.298         	14.135         	0.062
MS.299         	14.108         	0.111
MS.300         	14.08          	0.081
MS.301         	14.05          	0.093
MS.302         	14.023         	0.05
MS.303         	13.995         	0.089
MS.304         	13.967         	0.075
MS.305         	13.94          	0.062
MS.306         	13.91          	0.062
MS.307         	13.882         	0.066
MS.308         	13.855         	0.064
MS.309         	13.827         	0.06
MS.310         	13.8           	0.058
MS.311         	13.773         	0.064
MS.312         	13.745         	0.064
MS.313         	13.717         	0.066
MS.314         	13.69          	0.066
MS.315         	13.662         	0.054
MS.316         	13.635         	0.079
MS.317         	13.608         	0.058
MS.318         	13.58          	0.066
MS.319         	13.555         	0.062
MS.320         	13.528         	0.06
MS.321         	13.5           	0.064
MS.322         	13.472         	0.06
MS.323         	13.445         	0.058
MS.324         	13.42          	0.052
MS.325         	13.392         	0.073
MS.326         	13.365         	0.07
MS.327         	13.337         	0.073
MS.328         	13.312         	0.077
MS.329         	13.285         	0.058
MS.330         	13.26          	0.066
MS.331         	13.233         	0.064
MS.332         	13.205         	0.066
MS.333         	13.18          	0.066
MS.334         	13.153         	0.058
MS.335         	13.127         	0.064
MS.336         	13.1           	0.07
MS.337         	13.075         	0.075
MS.338         	13.047         	0.077
MS.339         	13.023         	0.07
MS.340         	12.997         	0.066
MS.341         	12.97          	0.07
MS.342         	12.945         	0.099
MS.343         	12.917         	0.101
MS.344         	12.892         	0.066
MS.345         	12.867         	0.079
MS.346         	12.842         	0.079
MS.347         	12.815         	0.066
MS.348         	12.79          	0.079
MS.349         	12.765         	0.099
MS.350         	12.74          	0.052
MS.351         	12.712         	0.054
MS.352         	12.688         	0.062
MS.353         	12.662         	0.095
MS.354         	12.637         	0.097
MS.355         	12.613         	0.07
MS.356         	12.587         	0.052
MS.357         	12.562         	0.085
MS.358         	12.537         	0.077
MS.359         	12.512         	0.085
MS.360         	12.488         	0.073
MS.361         	12.462         	0.06
MS.362         	12.438         	0.066
MS.363         	12.412         	0.064
MS.364         	12.387         	0.083
MS.365         	12.363         	0.083
MS.366         	12.337         	0.062
MS.367         	12.312         	0.064
MS.368         	12.287         	0.083
MS.369         	12.265         	0.087
MS.370         	12.24          	0.058
MS.371         	12.215         	0.083
MS.372         	12.19          	0.083
MS.373         	12.167         	0.081
MS.374         	12.142         	0.085
MS.375         	12.117         	0.079
MS.376         	12.092         	0.077
MS.377         	12.07          	0.018
MS.378         	12.045         	0.02
MS.379         	12.02          	0.083
MS.380         	11.997         	0.081
MS.381         	11.972         	0.077
MS.382         	11.95          	0.077
MS.383         	11.925         	0.085
MS.384         	11.903         	0.089
MS.385         	11.877         	0.081
MS.386         	11.855         	0.022
MS.387         	11.83          	0.085
MS.388         	11.807         	0.079
MS.389         	11.782         	0.077
MS.390         	11.76          	0.079
MS.391         	11.735         	0.081
MS.392         	11.712         	0.081
MS.393         	11.69          	0.079
MS.394         	11.665         	0.083
MS.395         	11.642         	0.075
MS.396         	11.62          	0.022
MS.397         	11.595         	0.022
MS.398         	11.572         	0.024
MS.399         	11.55          	0.024
MS.400         	11.528         	0.02
MS.401         	11.505         	0.02
MS.402         	11.48          	0.073
MS.403         	11.457         	0.014
MS.404         	11.435         	0.02
MS.405         	11.412         	0.022
MS.406         	11.39          	0.02
MS.407         	11.367         	0.022
MS.408         	11.345         	0.016
MS.409         	11.32          	0.022
MS.410         	11.297         	0.024
MS.411         	11.275         	0.026
MS.412         	11.252         	0.024
MS.413         	11.23          	0.022
MS.414         	11.207         	0.018
MS.415         	11.185         	0.026
MS.416         	11.165         	0.022
MS.417         	11.142         	0.026
MS.418         	11.12          	0.026
MS.419         	11.097         	0.028
MS.420         	11.075         	0.026
MS.421         	11.052         	0.024
MS.422         	11.03          	0.028
MS.423         	11.007         	0.03
MS.424         	10.988         	0.028
MS.425         	10.965         	0.028
MS.426         	10.943         	0.03
MS.427         	10.92          	0.03
MS.428         	10.9           	0.028
MS.429         	10.877         	0.026
MS.430         	10.855         	0.026
MS.431         	10.835         	0.028
MS.432         	10.812         	0.024
MS.433         	10.79          	0.024
MS.434         	10.77          	0.028
MS.435         	10.747         	0.03
MS.436         	10.725         	0.026
MS.437         	10.705         	0.032
MS.438         	10.682         	0.028
MS.439         	10.662         	0.028
MS.440         	10.64          	0.03
MS.441         	10.62          	0.026
MS.442         	10.597         	0.03
MS.443         	10.577         	0.028
MS.444         	10.555         	0.026
MS.445         	10.535         	0.024
MS.446         	10.512         	0.026
MS.447         	10.492         	0.028
MS.448         	10.472         	0.028
MS.449         	10.45          	0.028
MS.450         	10.43          	0.026
MS.451         	10.41          	0.026
MS.452         	10.387         	0.026
MS.453         	10.367         	0.026
MS.454         	10.347         	0.032
MS.455         	10.325         	0.028
MS.456         	10.305         	0.026
MS.457         	10.285         	0.03
MS.458         	10.265         	0.03
MS.459         	10.245         	0.026
MS.460         	10.222         	0.024
MS.461         	10.202         	0.026
MS.462         	10.182         	0.03
MS.463         	10.162         	0.028
MS.464         	10.142         	0.03
MS.465         	10.122         	0.026
MS.466         	10.102         	0.026
MS.467         	10.08          	0.032
MS.468         	10.06          	0.028
MS.469         	10.04          	0.026
MS.470         	10.02          	0.022
MS.471         	10             	0.028
MS.472         	9.98           	0.028
MS.473         	9.96           	0.028
MS.474         	9.94           	0.008
MS.475         	9.92           	0.026
DERIVED EXCITABILITY VARIABLES
Program = QTracP 3/4/2020
Threshold method = 6 (optimised for CAP, using data for present condition only)
SR method = 1 (using actual data values)
6.                 	0.000               	Peak response\(mV)
9.                 	33                  	Temperature ( C)
17.                	29                  	Age (years)
18.                	1                   	Sex (M=1, F=2)

EXTRA VARIABLES

MScPeak(mV) = 4.51
MScS5(mA) = 15.65
MScS50(mA) = 19.45
MScS95(mA) = 23.59
MScNSteps = 3
MScSteps(%) = 11.2
MScStepMax(%) = 4.2
MScD50 = 30
MScSlope = 9.78
MSFPeakAmp(mV) = 4.49
MSFNUnits = 91
MSFMeanUnitAmp(uV) = 49.3
MSFHuntTime(m) = 1.69
MSFError(%) = 2.67
MSFNLarge = 28.23
MSFMedianAmp(%) = 1.01
MSFMedianAmp(mV) = 0.0453
MSFHalfAmpAmp(%) = 1.26
MSFHalfAmpAmp(mV) = 0.0564
MSFLargestAmp(%) = 3.2
MSFLargestAmp(mV) = 0.144
MSFMeanRS(%) = 2
MSFOpts = 10106121
MSFTraces = 326
MSFSizeLimit(uV) = 11.2
MSFLimitType = 1
