File:              	C:\Qtrac\Data\Daniel M Sørensen\MScan multicentre study\Data from centres\Oxford\Processed data\ATC01208C.QZD
Name:              	UK.OXF.NC.8.1
Protocol:          	MSCAN-R2
Date:              	8/12/20
Start time:        	10:40:32
Age:               	30
Sex:               	F
Temperature:       	33.9
S/R sites:         	TA
NC/disease:        	NC
Operator:          	AT
Comments:          	HC Peroneal N TA 1st
M-SCAN DATA (7-1.6m)
Scanpts: 31, 38, 522, 531
Stim. (mA)     	Amp. (mV)
MS.1           	18             	4.915
MS.2           	18             	4.919
MS.3           	18             	4.923
MS.4           	18             	4.886
MS.5           	18             	4.878
MS.6           	18             	4.876
MS.7           	18             	4.876
MS.8           	18             	4.874
MS.9           	18             	4.864
MS.10          	18             	4.87
MS.11          	18             	4.876
MS.12          	18             	4.866
MS.13          	18             	4.862
MS.14          	18             	4.856
MS.15          	18             	4.862
MS.16          	18             	4.866
MS.17          	18             	4.872
MS.18          	18             	4.862
MS.19          	18             	4.864
MS.20          	18             	4.864
MS.21          	18             	4.87
MS.22          	18             	4.87
MS.23          	18             	4.868
MS.24          	17.927         	4.862
MS.25          	17.892         	4.862
MS.26          	17.858         	4.862
MS.27          	17.82          	4.872
MS.28          	17.785         	4.87
MS.29          	17.75          	4.864
MS.30          	17.715         	4.86
MS.31          	17.68          	4.866
MS.32          	17.642         	4.866
MS.33          	17.608         	4.858
MS.34          	17.573         	4.866
MS.35          	17.538         	4.868
MS.36          	17.503         	4.858
MS.37          	17.467         	4.858
MS.38          	17.432         	4.852
MS.39          	17.397         	4.85
MS.40          	17.362         	4.86
MS.41          	17.33          	4.85
MS.42          	17.295         	4.852
MS.43          	17.26          	4.854
MS.44          	17.225         	4.846
MS.45          	17.19          	4.85
MS.46          	17.157         	4.844
MS.47          	17.122         	4.848
MS.48          	17.087         	4.832
MS.49          	17.052         	4.848
MS.50          	17.02          	4.846
MS.51          	16.985         	4.842
MS.52          	16.952         	4.836
MS.53          	16.917         	4.848
MS.54          	16.885         	4.832
MS.55          	16.85          	4.842
MS.56          	16.817         	4.848
MS.57          	16.782         	4.846
MS.58          	16.75          	4.844
MS.59          	16.715         	4.846
MS.60          	16.682         	4.85
MS.61          	16.65          	4.842
MS.62          	16.615         	4.846
MS.63          	16.583         	4.842
MS.64          	16.55          	4.844
MS.65          	16.517         	4.836
MS.66          	16.483         	4.85
MS.67          	16.45          	4.83
MS.68          	16.417         	4.852
MS.69          	16.385         	4.846
MS.70          	16.352         	4.866
MS.71          	16.32          	4.84
MS.72          	16.288         	4.83
MS.73          	16.255         	4.83
MS.74          	16.222         	4.834
MS.75          	16.19          	4.812
MS.76          	16.157         	4.844
MS.77          	16.125         	4.824
MS.78          	16.092         	4.85
MS.79          	16.06          	4.842
MS.80          	16.028         	4.842
MS.81          	15.997         	4.794
MS.82          	15.965         	4.858
MS.83          	15.932         	4.856
MS.84          	15.9           	4.81
MS.85          	15.87          	4.802
MS.86          	15.837         	4.804
MS.87          	15.805         	4.814
MS.88          	15.775         	4.79
MS.89          	15.742         	4.84
MS.90          	15.71          	4.804
MS.91          	15.68          	4.804
MS.92          	15.648         	4.8
MS.93          	15.617         	4.786
MS.94          	15.585         	4.794
MS.95          	15.555         	4.784
MS.96          	15.523         	4.782
MS.97          	15.492         	4.78
MS.98          	15.462         	4.77
MS.99          	15.43          	4.8
MS.100         	15.4           	4.761
MS.101         	15.37          	4.792
MS.102         	15.337         	4.737
MS.103         	15.307         	4.79
MS.104         	15.277         	4.755
MS.105         	15.247         	4.794
MS.106         	15.217         	4.782
MS.107         	15.185         	4.776
MS.108         	15.155         	4.782
MS.109         	15.125         	4.788
MS.110         	15.095         	4.749
MS.111         	15.065         	4.747
MS.112         	15.035         	4.723
MS.113         	15.005         	4.772
MS.114         	14.975         	4.757
MS.115         	14.945         	4.766
MS.116         	14.915         	4.751
MS.117         	14.885         	4.749
MS.118         	14.855         	4.757
MS.119         	14.825         	4.763
MS.120         	14.795         	4.751
MS.121         	14.767         	4.743
MS.122         	14.737         	4.761
MS.123         	14.707         	4.759
MS.124         	14.677         	4.735
MS.125         	14.65          	4.731
MS.126         	14.62          	4.761
MS.127         	14.59          	4.689
MS.128         	14.562         	4.707
MS.129         	14.532         	4.707
MS.130         	14.502         	4.685
MS.131         	14.475         	4.675
MS.132         	14.445         	4.689
MS.133         	14.417         	4.687
MS.134         	14.387         	4.699
MS.135         	14.36          	4.661
MS.136         	14.33          	4.673
MS.137         	14.302         	4.667
MS.138         	14.273         	4.651
MS.139         	14.245         	4.661
MS.140         	14.215         	4.651
MS.141         	14.188         	4.657
MS.142         	14.16          	4.627
MS.143         	14.13          	4.6
MS.144         	14.102         	4.61
MS.145         	14.075         	4.558
MS.146         	14.047         	4.612
MS.147         	14.017         	4.576
MS.148         	13.99          	4.572
MS.149         	13.962         	4.568
MS.150         	13.935         	4.588
MS.151         	13.907         	4.49
MS.152         	13.88          	4.52
MS.153         	13.85          	4.52
MS.154         	13.822         	4.536
MS.155         	13.795         	4.518
MS.156         	13.767         	4.431
MS.157         	13.74          	4.502
MS.158         	13.712         	4.445
MS.159         	13.685         	4.421
MS.160         	13.657         	4.463
MS.161         	13.632         	4.411
MS.162         	13.605         	4.415
MS.163         	13.577         	4.498
MS.164         	13.55          	4.387
MS.165         	13.523         	4.409
MS.166         	13.495         	4.411
MS.167         	13.467         	4.371
MS.168         	13.443         	4.363
MS.169         	13.415         	4.377
MS.170         	13.387         	4.387
MS.171         	13.362         	4.363
MS.172         	13.335         	4.361
MS.173         	13.307         	4.361
MS.174         	13.282         	4.359
MS.175         	13.255         	4.282
MS.176         	13.227         	4.27
MS.177         	13.202         	4.268
MS.178         	13.175         	4.272
MS.179         	13.15          	4.264
MS.180         	13.122         	4.296
MS.181         	13.097         	4.224
MS.182         	13.07          	4.278
MS.183         	13.045         	4.242
MS.184         	13.017         	4.206
MS.185         	12.992         	4.093
MS.186         	12.967         	4.141
MS.187         	12.94          	4.22
MS.188         	12.915         	4.198
MS.189         	12.89          	4.141
MS.190         	12.862         	4.151
MS.191         	12.837         	4.071
MS.192         	12.812         	4.059
MS.193         	12.785         	4.046
MS.194         	12.76          	4.022
MS.195         	12.735         	4.089
MS.196         	12.71          	4.073
MS.197         	12.685         	3.964
MS.198         	12.66          	4.012
MS.199         	12.632         	3.974
MS.200         	12.608         	4.028
MS.201         	12.582         	3.938
MS.202         	12.557         	3.922
MS.203         	12.532         	3.901
MS.204         	12.507         	3.918
MS.205         	12.483         	3.853
MS.206         	12.457         	3.823
MS.207         	12.432         	3.841
MS.208         	12.407         	3.803
MS.209         	12.382         	3.777
MS.210         	12.36          	3.811
MS.211         	12.335         	3.785
MS.212         	12.31          	3.789
MS.213         	12.285         	3.746
MS.214         	12.26          	3.758
MS.215         	12.235         	3.754
MS.216         	12.212         	3.732
MS.217         	12.188         	3.644
MS.218         	12.162         	3.694
MS.219         	12.137         	3.601
MS.220         	12.115         	3.654
MS.221         	12.09          	3.563
MS.222         	12.065         	3.575
MS.223         	12.042         	3.557
MS.224         	12.017         	3.529
MS.225         	11.992         	3.567
MS.226         	11.97          	3.501
MS.227         	11.945         	3.44
MS.228         	11.922         	3.466
MS.229         	11.898         	3.432
MS.230         	11.875         	3.43
MS.231         	11.85          	3.386
MS.232         	11.827         	3.273
MS.233         	11.802         	3.339
MS.234         	11.78          	3.321
MS.235         	11.755         	3.253
MS.236         	11.733         	3.301
MS.237         	11.71          	3.352
MS.238         	11.685         	3.205
MS.239         	11.662         	3.168
MS.240         	11.64          	3.219
MS.241         	11.615         	3.086
MS.242         	11.592         	3.035
MS.243         	11.57          	3.078
MS.244         	11.547         	3.114
MS.245         	11.523         	3.003
MS.246         	11.5           	2.979
MS.247         	11.477         	2.933
MS.248         	11.455         	2.971
MS.249         	11.432         	2.993
MS.250         	11.407         	2.985
MS.251         	11.385         	2.9
MS.252         	11.363         	2.967
MS.253         	11.34          	2.86
MS.254         	11.318         	2.771
MS.255         	11.295         	2.85
MS.256         	11.273         	2.864
MS.257         	11.25          	2.82
MS.258         	11.227         	2.733
MS.259         	11.205         	2.923
MS.260         	11.182         	2.713
MS.261         	11.16          	2.731
MS.262         	11.137         	2.729
MS.263         	11.115         	2.568
MS.264         	11.092         	2.699
MS.265         	11.073         	2.649
MS.266         	11.05          	2.689
MS.267         	11.028         	2.518
MS.268         	11.005         	2.679
MS.269         	10.983         	2.624
MS.270         	10.962         	2.548
MS.271         	10.94          	2.467
MS.272         	10.917         	2.427
MS.273         	10.895         	2.5
MS.274         	10.875         	2.371
MS.275         	10.852         	2.334
MS.276         	10.83          	2.389
MS.277         	10.81          	2.336
MS.278         	10.787         	2.33
MS.279         	10.765         	2.326
MS.280         	10.745         	2.21
MS.281         	10.722         	2.199
MS.282         	10.702         	2.129
MS.283         	10.68          	2.123
MS.284         	10.657         	2.216
MS.285         	10.637         	2.145
MS.286         	10.615         	2.093
MS.287         	10.595         	2.038
MS.288         	10.573         	2.062
MS.289         	10.552         	1.974
MS.290         	10.532         	1.958
MS.291         	10.51          	2.008
MS.292         	10.49          	1.978
MS.293         	10.467         	1.905
MS.294         	10.448         	1.899
MS.295         	10.427         	1.895
MS.296         	10.405         	1.877
MS.297         	10.385         	1.766
MS.298         	10.365         	1.889
MS.299         	10.342         	1.77
MS.300         	10.323         	1.732
MS.301         	10.302         	1.805
MS.302         	10.282         	1.714
MS.303         	10.26          	1.72
MS.304         	10.24          	1.68
MS.305         	10.22          	1.68
MS.306         	10.2           	1.555
MS.307         	10.18          	1.531
MS.308         	10.16          	1.511
MS.309         	10.14          	1.545
MS.310         	10.117         	1.543
MS.311         	10.097         	1.462
MS.312         	10.077         	1.464
MS.313         	10.057         	1.44
MS.314         	10.037         	1.446
MS.315         	10.017         	1.412
MS.316         	9.997          	1.339
MS.317         	9.977          	1.362
MS.318         	9.957          	1.394
MS.319         	9.938          	1.263
MS.320         	9.917          	1.17
MS.321         	9.898          	1.329
MS.322         	9.877          	1.184
MS.323         	9.86           	1.221
MS.324         	9.84           	1.267
MS.325         	9.82           	1.164
MS.326         	9.8            	1.132
MS.327         	9.78           	1.104
MS.328         	9.76           	1.063
MS.329         	9.74           	1.076
MS.330         	9.722          	1.166
MS.331         	9.702          	1.124
MS.332         	9.682          	1.11
MS.333         	9.662          	1.088
MS.334         	9.645          	1.019
MS.335         	9.625          	1.033
MS.336         	9.605          	1.009
MS.337         	9.587          	0.965
MS.338         	9.568          	1.001
MS.339         	9.547          	0.89
MS.340         	9.53           	0.924
MS.341         	9.51           	0.939
MS.342         	9.49           	0.868
MS.343         	9.472          	0.864
MS.344         	9.452          	0.79
MS.345         	9.435          	0.689
MS.346         	9.415          	0.739
MS.347         	9.398          	0.755
MS.348         	9.377          	0.679
MS.349         	9.36           	0.643
MS.350         	9.34           	0.667
MS.351         	9.323          	0.612
MS.352         	9.302          	0.574
MS.353         	9.285          	0.624
MS.354         	9.265          	0.491
MS.355         	9.247          	0.584
MS.356         	9.23           	0.512
MS.357         	9.21           	0.528
MS.358         	9.193          	0.497
MS.359         	9.175          	0.449
MS.360         	9.155          	0.455
MS.361         	9.137          	0.423
MS.362         	9.12           	0.467
MS.363         	9.1            	0.346
MS.364         	9.082          	0.443
MS.365         	9.065          	0.425
MS.366         	9.047          	0.439
MS.367         	9.028          	0.359
MS.368         	9.01           	0.365
MS.369         	8.992          	0.322
MS.370         	8.975          	0.346
MS.371         	8.957          	0.326
MS.372         	8.938          	0.322
MS.373         	8.92           	0.314
MS.374         	8.903          	0.262
MS.375         	8.885          	0.322
MS.376         	8.867          	0.338
MS.377         	8.85           	0.3
MS.378         	8.832          	0.344
MS.379         	8.815          	0.288
MS.380         	8.797          	0.312
MS.381         	8.78           	0.312
MS.382         	8.762          	0.282
MS.383         	8.745          	0.266
MS.384         	8.727          	0.23
MS.385         	8.71           	0.276
MS.386         	8.693          	0.24
MS.387         	8.675          	0.234
MS.388         	8.658          	0.268
MS.389         	8.64           	0.218
MS.390         	8.622          	0.246
MS.391         	8.605          	0.228
MS.392         	8.587          	0.226
MS.393         	8.57           	0.264
MS.394         	8.552          	0.209
MS.395         	8.537          	0.214
MS.396         	8.52           	0.234
MS.397         	8.502          	0.189
MS.398         	8.485          	0.187
MS.399         	8.467          	0.226
MS.400         	8.452          	0.205
MS.401         	8.435          	0.175
MS.402         	8.417          	0.165
MS.403         	8.4            	0.199
MS.404         	8.385          	0.159
MS.405         	8.367          	0.149
MS.406         	8.35           	0.155
MS.407         	8.335          	0.165
MS.408         	8.318          	0.179
MS.409         	8.3            	0.165
MS.410         	8.285          	0.165
MS.411         	8.267          	0.153
MS.412         	8.252          	0.139
MS.413         	8.235          	0.205
MS.414         	8.217          	0.214
MS.415         	8.202          	0.185
MS.416         	8.185          	0.153
MS.417         	8.17           	0.189
MS.418         	8.153          	0.183
MS.419         	8.137          	0.175
MS.420         	8.12           	0.163
MS.421         	8.105          	0.165
MS.422         	8.087          	0.163
MS.423         	8.073          	0.125
MS.424         	8.055          	0.159
MS.425         	8.04           	0.143
MS.426         	8.023          	0.129
MS.427         	8.007          	0.127
MS.428         	7.992          	0.159
MS.429         	7.975          	0.117
MS.430         	7.96           	0.109
MS.431         	7.942          	0.111
MS.432         	7.927          	0.119
MS.433         	7.912          	0.107
MS.434         	7.895          	0.117
MS.435         	7.88           	0.115
MS.436         	7.865          	0.087
MS.437         	7.85           	0.077
MS.438         	7.832          	0.091
MS.439         	7.817          	0.089
MS.440         	7.802          	0.097
MS.441         	7.787          	0.101
MS.442         	7.77           	0.093
MS.443         	7.755          	0.075
MS.444         	7.74           	0.083
MS.445         	7.725          	0.081
MS.446         	7.71           	0.077
MS.447         	7.692          	0.079
MS.448         	7.677          	0.073
MS.449         	7.662          	0.052
MS.450         	7.648          	0.062
MS.451         	7.632          	0.075
MS.452         	7.617          	0.073
MS.453         	7.602          	0.07
MS.454         	7.587          	0.056
MS.455         	7.572          	0.066
MS.456         	7.555          	0.062
MS.457         	7.54           	0.062
MS.458         	7.525          	0.06
MS.459         	7.51           	0.052
MS.460         	7.495          	0.052
MS.461         	7.48           	0.054
MS.462         	7.465          	0.048
MS.463         	7.45           	0.064
MS.464         	7.438          	0.05
MS.465         	7.422          	0.056
MS.466         	7.407          	0.046
MS.467         	7.392          	0.048
MS.468         	7.378          	0.056
MS.469         	7.362          	0.044
MS.470         	7.347          	0.056
MS.471         	7.332          	0.052
MS.472         	7.317          	0.044
MS.473         	7.302          	0.05
MS.474         	7.29           	0.052
MS.475         	7.275          	0.046
MS.476         	7.26           	0.048
MS.477         	7.245          	0.036
MS.478         	7.23           	0.042
MS.479         	7.217          	0.048
MS.480         	7.202          	0.042
MS.481         	7.188          	0.034
MS.482         	7.172          	0.048
MS.483         	7.16           	0.046
MS.484         	7.145          	0.034
MS.485         	7.13           	0.028
MS.486         	7.115          	0.044
MS.487         	7.102          	0.04
MS.488         	7.087          	0.04
MS.489         	7.072          	0.032
MS.490         	7.06           	0.028
MS.491         	7.045          	0.038
MS.492         	7.032          	0.038
MS.493         	7.017          	0.028
MS.494         	7.003          	0.032
MS.495         	6.99           	0.034
MS.496         	6.975          	0.028
MS.497         	6.962          	0.032
MS.498         	6.947          	0.04
MS.499         	6.932          	0.03
MS.500         	6.92           	0.04
MS.501         	6.905          	0.036
