File:              	C:\Qtrac\Data\Daniel M Sørensen\MScan multicentre study\Data from centres\Oxford\Raw data (sorted for use)\ATC01203C.QZD
Name:              	UK.OXF.NC.1.1
Protocol:          	MSCAN-R2
Date:              	3/12/20
Start time:        	17:10:02
Age:               	38
Sex:               	M
Temperature:       	35.2
S/R sites:         	TA
NC/disease:        	HC
Operator:          	AT
Comments:          	HC trial 1
M-SCAN DATA (10.4-3.9m)
Scanpts: 3, 14, 668, 676
Stim. (mA)     	Amp. (mV)
MS.1           	38.5           	4.246
MS.2           	38.5           	4.189
MS.3           	38.5           	4.258
MS.4           	38.5           	4.191
MS.5           	38.5           	4.198
MS.6           	38.5           	4.177
MS.7           	38.5           	4.2
MS.8           	38.5           	4.244
MS.9           	38.5           	4.137
MS.10          	38.5           	4.109
MS.11          	38.5           	4.21
MS.12          	38.5           	4.264
MS.13          	38.5           	4.258
MS.14          	38.5           	4.208
MS.15          	38.5           	4.097
MS.16          	38.5           	4.151
MS.17          	38.5           	4.236
MS.18          	38.5           	4.177
MS.19          	38.5           	4.167
MS.20          	38.5           	4.125
MS.21          	38.5           	4.228
MS.22          	38.5           	4.159
MS.23          	38.5           	4.214
MS.24          	38.345         	4.173
MS.25          	38.27          	4.165
MS.26          	38.192         	4.179
MS.27          	38.118         	4.117
MS.28          	38.04          	4.107
MS.29          	37.965         	4.02
MS.30          	37.89          	4.093
MS.31          	37.812         	4.179
MS.32          	37.737         	4.057
MS.33          	37.662         	4.105
MS.34          	37.587         	4.101
MS.35          	37.513         	4.004
MS.36          	37.438         	4.071
MS.37          	37.362         	4.055
MS.38          	37.287         	4.008
MS.39          	37.212         	4.016
MS.40          	37.138         	4.012
MS.41          	37.065         	4.123
MS.42          	36.99          	4.055
MS.43          	36.917         	3.976
MS.44          	36.842         	4.034
MS.45          	36.77          	4.034
MS.46          	36.695         	3.877
MS.47          	36.622         	3.97
MS.48          	36.55          	3.97
MS.49          	36.475         	4.032
MS.50          	36.403         	3.914
MS.51          	36.33          	3.942
MS.52          	36.257         	3.791
MS.53          	36.185         	3.791
MS.54          	36.112         	3.813
MS.55          	36.04          	3.873
MS.56          	35.97          	3.905
MS.57          	35.897         	3.799
MS.58          	35.825         	3.859
MS.59          	35.752         	3.857
MS.60          	35.682         	3.841
MS.61          	35.61          	3.716
MS.62          	35.54          	3.833
MS.63          	35.47          	3.722
MS.64          	35.397         	3.728
MS.65          	35.327         	3.73
MS.66          	35.257         	3.625
MS.67          	35.185         	3.638
MS.68          	35.115         	3.704
MS.69          	35.045         	3.688
MS.70          	34.975         	3.69
MS.71          	34.905         	3.64
MS.72          	34.835         	3.69
MS.73          	34.767         	3.561
MS.74          	34.697         	3.489
MS.75          	34.627         	3.575
MS.76          	34.557         	3.569
MS.77          	34.49          	3.63
MS.78          	34.42          	3.71
MS.79          	34.353         	3.402
MS.80          	34.282         	3.482
MS.81          	34.215         	3.533
MS.82          	34.147         	3.499
MS.83          	34.077         	3.337
MS.84          	34.01          	3.47
MS.85          	33.943         	3.47
MS.86          	33.875         	3.45
MS.87          	33.807         	3.418
MS.88          	33.74          	3.337
MS.89          	33.673         	3.348
MS.90          	33.605         	3.398
MS.91          	33.537         	3.428
MS.92          	33.47          	3.35
MS.93          	33.403         	3.392
MS.94          	33.337         	3.464
MS.95          	33.27          	3.315
MS.96          	33.202         	3.273
MS.97          	33.138         	3.37
MS.98          	33.07          	3.196
MS.99          	33.005         	3.325
MS.100         	32.94          	3.261
MS.101         	32.872         	3.275
MS.102         	32.807         	3.283
MS.103         	32.743         	3.251
MS.104         	32.677         	3.112
MS.105         	32.61          	3.164
MS.106         	32.545         	3.074
MS.107         	32.48          	3.114
MS.108         	32.415         	2.973
MS.109         	32.353         	3.082
MS.110         	32.287         	3.025
MS.111         	32.222         	2.961
MS.112         	32.157         	2.957
MS.113         	32.092         	2.959
MS.114         	32.03          	3.013
MS.115         	31.965         	3.007
MS.116         	31.903         	2.917
MS.117         	31.837         	2.941
MS.118         	31.775         	2.935
MS.119         	31.71          	2.89
MS.120         	31.647         	2.814
MS.121         	31.585         	2.776
MS.122         	31.52          	2.649
MS.123         	31.457         	2.776
MS.124         	31.395         	2.602
MS.125         	31.332         	2.677
MS.126         	31.27          	2.624
MS.127         	31.207         	2.735
MS.128         	31.145         	2.683
MS.129         	31.082         	2.63
MS.130         	31.02          	2.626
MS.131         	30.957         	2.721
MS.132         	30.897         	2.633
MS.133         	30.835         	2.586
MS.134         	30.772         	2.558
MS.135         	30.712         	2.568
MS.136         	30.65          	2.633
MS.137         	30.59          	2.546
MS.138         	30.528         	2.492
MS.139         	30.467         	2.53
MS.140         	30.407         	2.566
MS.141         	30.345         	2.51
MS.142         	30.285         	2.411
MS.143         	30.225         	2.528
MS.144         	30.165         	2.52
MS.145         	30.105         	2.395
MS.146         	30.042         	2.427
MS.147         	29.983         	2.381
MS.148         	29.925         	2.367
MS.149         	29.865         	2.407
MS.150         	29.805         	2.365
MS.151         	29.745         	2.365
MS.152         	29.685         	2.34
MS.153         	29.625         	2.369
MS.154         	29.567         	2.31
MS.155         	29.507         	2.377
MS.156         	29.45          	2.361
MS.157         	29.39          	2.244
MS.158         	29.332         	2.304
MS.159         	29.272         	2.314
MS.160         	29.215         	2.334
MS.161         	29.155         	2.304
MS.162         	29.097         	2.256
MS.163         	29.04          	2.25
MS.164         	28.983         	2.163
MS.165         	28.922         	2.272
MS.166         	28.865         	2.212
MS.167         	28.807         	2.149
MS.168         	28.75          	2.115
MS.169         	28.692         	2.175
MS.170         	28.635         	2.099
MS.171         	28.577         	2.105
MS.172         	28.522         	2.089
MS.173         	28.465         	2.081
MS.174         	28.407         	2.073
MS.175         	28.35          	2.097
MS.176         	28.295         	2.006
MS.177         	28.237         	1.932
MS.178         	28.18          	2.069
MS.179         	28.125         	1.988
MS.180         	28.067         	2.022
MS.181         	28.012         	2.03
MS.182         	27.957         	1.928
MS.183         	27.9           	2.067
MS.184         	27.845         	1.966
MS.185         	27.79          	1.877
MS.186         	27.735         	1.932
MS.187         	27.677         	1.859
MS.188         	27.622         	1.913
MS.189         	27.567         	1.938
MS.190         	27.512         	1.873
MS.191         	27.457         	1.855
MS.192         	27.403         	1.863
MS.193         	27.347         	1.821
MS.194         	27.292         	2.02
MS.195         	27.24          	1.817
MS.196         	27.185         	1.821
MS.197         	27.13          	1.827
MS.198         	27.075         	1.744
MS.199         	27.022         	1.694
MS.200         	26.967         	1.817
MS.201         	26.915         	1.664
MS.202         	26.86          	1.672
MS.203         	26.807         	1.688
MS.204         	26.752         	1.702
MS.205         	26.7           	1.704
MS.206         	26.647         	1.748
MS.207         	26.592         	1.688
MS.208         	26.54          	1.569
MS.209         	26.487         	1.577
MS.210         	26.435         	1.668
MS.211         	26.382         	1.577
MS.212         	26.327         	1.577
MS.213         	26.275         	1.635
MS.214         	26.222         	1.553
MS.215         	26.17          	1.557
MS.216         	26.12          	1.601
MS.217         	26.067         	1.615
MS.218         	26.015         	1.583
MS.219         	25.962         	1.517
MS.220         	25.91          	1.633
MS.221         	25.86          	1.597
MS.222         	25.807         	1.579
MS.223         	25.755         	1.48
MS.224         	25.705         	1.517
MS.225         	25.653         	1.539
MS.226         	25.602         	1.519
MS.227         	25.55          	1.513
MS.228         	25.5           	1.555
MS.229         	25.448         	1.488
MS.230         	25.397         	1.501
MS.231         	25.347         	1.458
MS.232         	25.295         	1.464
MS.233         	25.245         	1.511
MS.234         	25.195         	1.422
MS.235         	25.145         	1.434
MS.236         	25.095         	1.511
MS.237         	25.045         	1.392
MS.238         	24.995         	1.4
MS.239         	24.945         	1.37
MS.240         	24.895         	1.366
MS.241         	24.845         	1.341
MS.242         	24.795         	1.388
MS.243         	24.745         	1.366
MS.244         	24.698         	1.313
MS.245         	24.647         	1.319
MS.246         	24.597         	1.253
MS.247         	24.547         	1.235
MS.248         	24.5           	1.245
MS.249         	24.45          	1.229
MS.250         	24.403         	1.251
MS.251         	24.352         	1.251
MS.252         	24.305         	1.221
MS.253         	24.255         	1.215
MS.254         	24.207         	1.221
MS.255         	24.16          	1.235
MS.256         	24.11          	1.174
MS.257         	24.062         	1.158
MS.258         	24.015         	1.162
MS.259         	23.967         	1.172
MS.260         	23.917         	1.116
MS.261         	23.87          	1.162
MS.262         	23.823         	1.166
MS.263         	23.775         	1.15
MS.264         	23.727         	1.148
MS.265         	23.68          	1.122
MS.266         	23.632         	1.11
MS.267         	23.585         	1.088
MS.268         	23.54          	1.043
MS.269         	23.493         	1.124
MS.270         	23.445         	1.09
MS.271         	23.397         	1.065
MS.272         	23.352         	1.094
MS.273         	23.305         	1.029
MS.274         	23.257         	0.999
MS.275         	23.212         	1.015
MS.276         	23.165         	1.021
MS.277         	23.12          	1.041
MS.278         	23.073         	1.015
MS.279         	23.028         	0.963
MS.280         	22.98          	1.023
MS.281         	22.935         	0.971
MS.282         	22.89          	1.043
MS.283         	22.842         	1.025
MS.284         	22.797         	1.015
MS.285         	22.752         	1.005
MS.286         	22.707         	0.985
MS.287         	22.66          	0.924
MS.288         	22.615         	0.937
MS.289         	22.57          	0.902
MS.290         	22.525         	0.967
MS.291         	22.48          	0.9
MS.292         	22.435         	0.864
MS.293         	22.39          	0.882
MS.294         	22.345         	0.842
MS.295         	22.302         	0.784
MS.296         	22.257         	0.659
MS.297         	22.212         	0.832
MS.298         	22.167         	0.81
MS.299         	22.125         	0.661
MS.300         	22.08          	0.655
MS.301         	22.035         	0.765
MS.302         	21.993         	0.777
MS.303         	21.948         	0.616
MS.304         	21.903         	0.6
MS.305         	21.86          	0.727
MS.306         	21.815         	0.737
MS.307         	21.772         	0.54
MS.308         	21.73          	0.606
MS.309         	21.685         	0.701
MS.310         	21.642         	0.687
MS.311         	21.6           	0.614
MS.312         	21.555         	0.552
MS.313         	21.512         	0.578
MS.314         	21.47          	0.604
MS.315         	21.427         	0.715
MS.316         	21.385         	0.701
MS.317         	21.342         	0.685
MS.318         	21.3           	0.614
MS.319         	21.257         	0.53
MS.320         	21.215         	0.675
MS.321         	21.172         	0.538
MS.322         	21.13          	0.586
MS.323         	21.087         	0.552
MS.324         	21.045         	0.675
MS.325         	21.002         	0.504
MS.326         	20.96          	0.671
MS.327         	20.92          	0.524
MS.328         	20.877         	0.528
MS.329         	20.835         	0.528
MS.330         	20.795         	0.534
MS.331         	20.752         	0.528
MS.332         	20.71          	0.506
MS.333         	20.67          	0.534
MS.334         	20.627         	0.522
MS.335         	20.587         	0.518
MS.336         	20.545         	0.544
MS.337         	20.505         	0.495
MS.338         	20.462         	0.502
MS.339         	20.422         	0.487
MS.340         	20.382         	0.612
MS.341         	20.342         	0.493
MS.342         	20.3           	0.487
MS.343         	20.26          	0.481
MS.344         	20.22          	0.471
MS.345         	20.18          	0.485
MS.346         	20.14          	0.485
MS.347         	20.097         	0.455
MS.348         	20.057         	0.461
MS.349         	20.017         	0.423
MS.350         	19.977         	0.435
MS.351         	19.938         	0.465
MS.352         	19.897         	0.447
MS.353         	19.86          	0.437
MS.354         	19.82          	0.459
MS.355         	19.78          	0.437
MS.356         	19.74          	0.431
MS.357         	19.7           	0.431
MS.358         	19.663         	0.429
MS.359         	19.622         	0.437
MS.360         	19.583         	0.421
MS.361         	19.542         	0.433
MS.362         	19.505         	0.433
MS.363         	19.465         	0.415
MS.364         	19.427         	0.405
MS.365         	19.387         	0.373
MS.366         	19.35          	0.389
MS.367         	19.31          	0.413
MS.368         	19.272         	0.405
MS.369         	19.233         	0.391
MS.370         	19.195         	0.399
MS.371         	19.157         	0.389
MS.372         	19.118         	0.373
MS.373         	19.08          	0.391
MS.374         	19.042         	0.381
MS.375         	19.005         	0.389
MS.376         	18.965         	0.367
MS.377         	18.927         	0.377
MS.378         	18.89          	0.369
MS.379         	18.852         	0.361
MS.380         	18.815         	0.357
MS.381         	18.778         	0.371
MS.382         	18.74          	0.373
MS.383         	18.702         	0.369
MS.384         	18.665         	0.344
MS.385         	18.628         	0.33
MS.386         	18.59          	0.34
MS.387         	18.552         	0.338
MS.388         	18.517         	0.348
MS.389         	18.48          	0.346
MS.390         	18.442         	0.32
MS.391         	18.405         	0.33
MS.392         	18.37          	0.328
MS.393         	18.333         	0.346
MS.394         	18.295         	0.314
MS.395         	18.26          	0.326
MS.396         	18.222         	0.326
MS.397         	18.185         	0.316
MS.398         	18.15          	0.332
MS.399         	18.112         	0.32
MS.400         	18.077         	0.328
MS.401         	18.04          	0.312
MS.402         	18.005         	0.312
MS.403         	17.97          	0.318
MS.404         	17.932         	0.326
MS.405         	17.897         	0.316
MS.406         	17.862         	0.314
MS.407         	17.825         	0.314
MS.408         	17.79          	0.328
MS.409         	17.755         	0.298
MS.410         	17.72          	0.314
MS.411         	17.685         	0.278
MS.412         	17.647         	0.306
MS.413         	17.612         	0.282
MS.414         	17.577         	0.264
MS.415         	17.542         	0.296
MS.416         	17.507         	0.292
MS.417         	17.472         	0.292
MS.418         	17.438         	0.29
MS.419         	17.403         	0.256
MS.420         	17.368         	0.29
MS.421         	17.333         	0.29
MS.422         	17.3           	0.268
MS.423         	17.265         	0.272
MS.424         	17.23          	0.254
MS.425         	17.195         	0.232
MS.426         	17.163         	0.23
MS.427         	17.128         	0.24
MS.428         	17.092         	0.238
MS.429         	17.057         	0.258
MS.430         	17.025         	0.238
MS.431         	16.99          	0.209
MS.432         	16.958         	0.199
MS.433         	16.922         	0.222
MS.434         	16.89          	0.201
MS.435         	16.855         	0.254
MS.436         	16.823         	0.207
MS.437         	16.788         	0.218
MS.438         	16.755         	0.218
MS.439         	16.72          	0.23
MS.440         	16.688         	0.197
MS.441         	16.655         	0.193
MS.442         	16.62          	0.179
MS.443         	16.587         	0.199
MS.444         	16.555         	0.191
MS.445         	16.522         	0.175
MS.446         	16.487         	0.193
MS.447         	16.455         	0.187
MS.448         	16.422         	0.165
MS.449         	16.39          	0.147
MS.450         	16.358         	0.169
MS.451         	16.325         	0.171
MS.452         	16.292         	0.165
MS.453         	16.26          	0.175
MS.454         	16.227         	0.175
MS.455         	16.195         	0.175
MS.456         	16.163         	0.167
MS.457         	16.13          	0.165
MS.458         	16.097         	0.167
MS.459         	16.065         	0.163
MS.460         	16.032         	0.145
MS.461         	16             	0.141
MS.462         	15.97          	0.147
MS.463         	15.938         	0.151
MS.464         	15.905         	0.145
MS.465         	15.872         	0.131
MS.466         	15.842         	0.135
MS.467         	15.81          	0.143
MS.468         	15.777         	0.139
MS.469         	15.747         	0.149
MS.470         	15.715         	0.153
MS.471         	15.685         	0.113
MS.472         	15.652         	0.133
MS.473         	15.622         	0.139
MS.474         	15.59          	0.113
MS.475         	15.56          	0.141
MS.476         	15.527         	0.131
MS.477         	15.497         	0.127
MS.478         	15.465         	0.121
MS.479         	15.435         	0.121
MS.480         	15.405         	0.115
MS.481         	15.372         	0.099
MS.482         	15.342         	0.125
MS.483         	15.312         	0.105
MS.484         	15.282         	0.095
MS.485         	15.25          	0.115
MS.486         	15.22          	0.099
MS.487         	15.19          	0.109
MS.488         	15.16          	0.081
MS.489         	15.13          	0.117
MS.490         	15.1           	0.077
MS.491         	15.07          	0.079
MS.492         	15.04          	0.083
MS.493         	15.01          	0.083
MS.494         	14.98          	0.097
MS.495         	14.95          	0.079
MS.496         	14.92          	0.075
MS.497         	14.89          	0.083
MS.498         	14.86          	0.056
MS.499         	14.83          	0.079
MS.500         	14.8           	0.081
