File:              	C:\Qtrac\Data\Daniel M Sørensen\MScan multicentre study\Data from centres\Oxford\Processed data\ATC01210H.QZD
Name:              	UK.OXF.NC.1.2
Protocol:          	MSCAN-R2
Date:              	10/12/20
Start time:        	16:55:45
Age:               	38
Sex:               	M
Temperature:       	32.3
S/R sites:         	TA
NC/disease:        	NC
Operator:          	AT
Comments:          	Peroneal 2nd
M-SCAN DATA (9-2.8m)
Scanpts: 14, 29, 609, 622
Stim. (mA)     	Amp. (mV)
MS.1           	35             	4.558
MS.2           	35             	4.59
MS.3           	35             	4.596
MS.4           	35             	4.548
MS.5           	35             	4.552
MS.6           	35             	4.55
MS.7           	35             	4.554
MS.8           	35             	4.552
MS.9           	35             	4.528
MS.10          	35             	4.512
MS.11          	35             	4.578
MS.12          	35             	4.552
MS.13          	35             	4.57
MS.14          	35             	4.55
MS.15          	35             	4.566
MS.16          	35             	4.52
MS.17          	35             	4.534
MS.18          	35             	4.542
MS.19          	35             	4.562
MS.20          	35             	4.54
MS.21          	35             	4.574
MS.22          	35             	4.582
MS.23          	35             	4.572
MS.24          	34.86          	4.596
MS.25          	34.79          	4.56
MS.26          	34.72          	4.566
MS.27          	34.653         	4.556
MS.28          	34.583         	4.584
MS.29          	34.513         	4.534
MS.30          	34.445         	4.504
MS.31          	34.375         	4.568
MS.32          	34.307         	4.556
MS.33          	34.237         	4.556
MS.34          	34.17          	4.534
MS.35          	34.103         	4.578
MS.36          	34.032         	4.59
MS.37          	33.965         	4.558
MS.38          	33.897         	4.506
MS.39          	33.83          	4.534
MS.40          	33.763         	4.556
MS.41          	33.695         	4.373
MS.42          	33.627         	4.473
MS.43          	33.56          	4.496
MS.44          	33.493         	4.518
MS.45          	33.427         	4.492
MS.46          	33.36          	4.506
MS.47          	33.292         	4.498
MS.48          	33.228         	4.477
MS.49          	33.16          	4.471
MS.50          	33.092         	4.369
MS.51          	33.028         	4.316
MS.52          	32.962         	4.361
MS.53          	32.895         	4.298
MS.54          	32.83          	4.443
MS.55          	32.765         	4.377
MS.56          	32.7           	4.312
MS.57          	32.632         	4.31
MS.58          	32.568         	4.411
MS.59          	32.502         	4.185
MS.60          	32.438         	4.296
MS.61          	32.372         	4.475
MS.62          	32.31          	4.206
MS.63          	32.245         	4.345
MS.64          	32.18          	4.262
MS.65          	32.115         	4.302
MS.66          	32.052         	4.173
MS.67          	31.987         	4.133
MS.68          	31.922         	4.238
MS.69          	31.86          	4.246
MS.70          	31.795         	4.175
MS.71          	31.733         	4.157
MS.72          	31.67          	4.167
MS.73          	31.605         	4.165
MS.74          	31.542         	4.171
MS.75          	31.48          	4.081
MS.76          	31.417         	4.099
MS.77          	31.355         	4.095
MS.78          	31.292         	4.055
MS.79          	31.23          	4.115
MS.80          	31.167         	4.028
MS.81          	31.105         	4.04
MS.82          	31.042         	4.014
MS.83          	30.98          	4.113
MS.84          	30.917         	3.978
MS.85          	30.858         	3.968
MS.86          	30.795         	4.099
MS.87          	30.733         	4.042
MS.88          	30.672         	4.125
MS.89          	30.61          	4.02
MS.90          	30.55          	4.125
MS.91          	30.487         	3.952
MS.92          	30.427         	3.994
MS.93          	30.367         	3.895
MS.94          	30.305         	3.972
MS.95          	30.245         	3.948
MS.96          	30.185         	3.807
MS.97          	30.125         	3.823
MS.98          	30.065         	3.883
MS.99          	30.005         	3.968
MS.100         	29.945         	3.781
MS.101         	29.885         	3.934
MS.102         	29.825         	3.771
MS.103         	29.765         	3.811
MS.104         	29.705         	3.861
MS.105         	29.647         	3.785
MS.106         	29.587         	3.738
MS.107         	29.528         	3.785
MS.108         	29.47          	3.758
MS.109         	29.41          	3.819
MS.110         	29.352         	3.787
MS.111         	29.292         	3.803
MS.112         	29.235         	3.74
MS.113         	29.175         	3.732
MS.114         	29.117         	3.684
MS.115         	29.06          	3.72
MS.116         	29.002         	3.7
MS.117         	28.942         	3.748
MS.118         	28.885         	3.754
MS.119         	28.827         	3.573
MS.120         	28.77          	3.654
MS.121         	28.712         	3.688
MS.122         	28.655         	3.65
MS.123         	28.597         	3.704
MS.124         	28.54          	3.623
MS.125         	28.485         	3.551
MS.126         	28.427         	3.541
MS.127         	28.37          	3.575
MS.128         	28.312         	3.569
MS.129         	28.257         	3.601
MS.130         	28.2           	3.517
MS.131         	28.145         	3.551
MS.132         	28.087         	3.569
MS.133         	28.032         	3.487
MS.134         	27.975         	3.448
MS.135         	27.92          	3.495
MS.136         	27.865         	3.47
MS.137         	27.807         	3.476
MS.138         	27.752         	3.458
MS.139         	27.698         	3.478
MS.140         	27.642         	3.452
MS.141         	27.587         	3.414
MS.142         	27.532         	3.464
MS.143         	27.477         	3.416
MS.144         	27.422         	3.412
MS.145         	27.368         	3.482
MS.146         	27.312         	3.335
MS.147         	27.257         	3.372
MS.148         	27.202         	3.454
MS.149         	27.15          	3.412
MS.150         	27.095         	3.376
MS.151         	27.04          	3.295
MS.152         	26.987         	3.178
MS.153         	26.932         	3.287
MS.154         	26.88          	3.134
MS.155         	26.825         	3.281
MS.156         	26.772         	3.263
MS.157         	26.717         	3.126
MS.158         	26.665         	3.164
MS.159         	26.612         	3.19
MS.160         	26.557         	3.297
MS.161         	26.505         	3.233
MS.162         	26.452         	3.021
MS.163         	26.4           	3.158
MS.164         	26.347         	3.118
MS.165         	26.295         	3.124
MS.166         	26.243         	3.15
MS.167         	26.19          	3.029
MS.168         	26.137         	3.122
MS.169         	26.085         	3.114
MS.170         	26.032         	2.824
MS.171         	25.98          	3.053
MS.172         	25.927         	2.886
MS.173         	25.877         	3.003
MS.174         	25.825         	3.043
MS.175         	25.772         	3.031
MS.176         	25.722         	2.935
MS.177         	25.67          	2.983
MS.178         	25.62          	2.88
MS.179         	25.567         	2.931
MS.180         	25.517         	3.025
MS.181         	25.465         	2.814
MS.182         	25.415         	2.856
MS.183         	25.365         	2.84
MS.184         	25.312         	2.979
MS.185         	25.262         	2.884
MS.186         	25.212         	2.977
MS.187         	25.163         	2.812
MS.188         	25.112         	2.876
MS.189         	25.062         	2.778
MS.190         	25.012         	2.846
MS.191         	24.962         	2.868
MS.192         	24.913         	2.78
MS.193         	24.862         	2.681
MS.194         	24.812         	2.743
MS.195         	24.762         	2.751
MS.196         	24.712         	2.778
MS.197         	24.665         	2.751
MS.198         	24.615         	2.62
MS.199         	24.565         	2.701
MS.200         	24.517         	2.685
MS.201         	24.467         	2.655
MS.202         	24.417         	2.745
MS.203         	24.37          	2.649
MS.204         	24.32          	2.58
MS.205         	24.272         	2.594
MS.206         	24.225         	2.612
MS.207         	24.175         	2.554
MS.208         	24.127         	2.596
MS.209         	24.08          	2.645
MS.210         	24.03          	2.687
MS.211         	23.983         	2.592
MS.212         	23.935         	2.538
MS.213         	23.887         	2.582
MS.214         	23.84          	2.479
MS.215         	23.792         	2.576
MS.216         	23.745         	2.546
MS.217         	23.698         	2.552
MS.218         	23.65          	2.57
MS.219         	23.602         	2.558
MS.220         	23.555         	2.594
MS.221         	23.507         	2.548
MS.222         	23.46          	2.528
MS.223         	23.415         	2.522
MS.224         	23.368         	2.516
MS.225         	23.32          	2.457
MS.226         	23.275         	2.431
MS.227         	23.227         	2.421
MS.228         	23.18          	2.427
MS.229         	23.135         	2.443
MS.230         	23.087         	2.5
MS.231         	23.042         	2.34
MS.232         	22.997         	2.377
MS.233         	22.95          	2.502
MS.234         	22.905         	2.298
MS.235         	22.86          	2.359
MS.236         	22.812         	2.21
MS.237         	22.767         	2.401
MS.238         	22.722         	2.3
MS.239         	22.677         	2.316
MS.240         	22.632         	2.399
MS.241         	22.587         	2.238
MS.242         	22.54          	2.206
MS.243         	22.495         	2.272
MS.244         	22.45          	2.298
MS.245         	22.407         	2.157
MS.246         	22.362         	2.284
MS.247         	22.317         	2.169
MS.248         	22.272         	2.141
MS.249         	22.227         	2.161
MS.250         	22.182         	2.05
MS.251         	22.14          	1.996
MS.252         	22.095         	2.115
MS.253         	22.05          	2.06
MS.254         	22.007         	2.004
MS.255         	21.962         	2.004
MS.256         	21.92          	1.988
MS.257         	21.875         	1.99
MS.258         	21.833         	2.026
MS.259         	21.788         	1.881
MS.260         	21.745         	2.006
MS.261         	21.7           	1.938
MS.262         	21.657         	1.871
MS.263         	21.615         	1.917
MS.264         	21.57          	1.859
MS.265         	21.528         	1.817
MS.266         	21.485         	1.833
MS.267         	21.442         	1.851
MS.268         	21.4           	1.891
MS.269         	21.355         	1.881
MS.270         	21.312         	1.843
MS.271         	21.27          	1.924
MS.272         	21.227         	1.776
MS.273         	21.185         	1.928
MS.274         	21.142         	1.728
MS.275         	21.102         	1.823
MS.276         	21.06          	1.76
MS.277         	21.017         	1.841
MS.278         	20.975         	1.881
MS.279         	20.932         	1.69
MS.280         	20.892         	1.752
MS.281         	20.85          	1.722
MS.282         	20.807         	1.756
MS.283         	20.767         	1.758
MS.284         	20.725         	1.67
MS.285         	20.682         	1.644
MS.286         	20.642         	1.569
MS.287         	20.6           	1.694
MS.288         	20.56          	1.654
MS.289         	20.52          	1.662
MS.290         	20.477         	1.623
MS.291         	20.438         	1.644
MS.292         	20.395         	1.623
MS.293         	20.355         	1.535
MS.294         	20.315         	1.563
MS.295         	20.275         	1.577
MS.296         	20.233         	1.71
MS.297         	20.192         	1.589
MS.298         	20.153         	1.535
MS.299         	20.112         	1.464
MS.300         	20.073         	1.468
MS.301         	20.032         	1.48
MS.302         	19.993         	1.414
MS.303         	19.952         	1.505
MS.304         	19.913         	1.541
MS.305         	19.872         	1.418
MS.306         	19.833         	1.462
MS.307         	19.792         	1.333
MS.308         	19.755         	1.402
MS.309         	19.715         	1.362
MS.310         	19.675         	1.307
MS.311         	19.635         	1.327
MS.312         	19.597         	1.327
MS.313         	19.557         	1.259
MS.314         	19.517         	1.291
MS.315         	19.48          	1.219
MS.316         	19.44          	1.253
MS.317         	19.403         	1.231
MS.318         	19.362         	1.229
MS.319         	19.325         	1.184
MS.320         	19.285         	1.12
MS.321         	19.247         	1.172
MS.322         	19.208         	1.128
MS.323         	19.17          	1.084
MS.324         	19.132         	1.1
MS.325         	19.092         	1.098
MS.326         	19.055         	0.997
MS.327         	19.017         	1.082
MS.328         	18.98          	1.078
MS.329         	18.942         	1.041
MS.330         	18.903         	0.912
MS.331         	18.865         	0.983
MS.332         	18.827         	0.922
MS.333         	18.79          	0.9
MS.334         	18.753         	0.89
MS.335         	18.715         	0.939
MS.336         	18.677         	0.834
MS.337         	18.64          	0.848
MS.338         	18.602         	0.955
MS.339         	18.565         	0.872
MS.340         	18.53          	0.866
MS.341         	18.493         	0.824
MS.342         	18.455         	0.709
MS.343         	18.417         	0.939
MS.344         	18.382         	0.85
MS.345         	18.345         	0.679
MS.346         	18.307         	0.914
MS.347         	18.272         	0.844
MS.348         	18.235         	0.864
MS.349         	18.198         	0.784
MS.350         	18.163         	0.697
MS.351         	18.125         	0.763
MS.352         	18.09          	0.767
MS.353         	18.052         	0.761
MS.354         	18.017         	0.681
MS.355         	17.983         	0.767
MS.356         	17.945         	0.79
MS.357         	17.91          	0.753
MS.358         	17.875         	0.675
MS.359         	17.837         	0.705
MS.360         	17.802         	0.647
MS.361         	17.767         	0.717
MS.362         	17.733         	0.558
MS.363         	17.695         	0.737
MS.364         	17.66          	0.673
MS.365         	17.625         	0.649
MS.366         	17.59          	0.626
MS.367         	17.555         	0.691
MS.368         	17.52          	0.63
MS.369         	17.485         	0.453
MS.370         	17.45          	0.667
MS.371         	17.415         	0.618
MS.372         	17.38          	0.536
MS.373         	17.345         	0.624
MS.374         	17.31          	0.618
MS.375         	17.278         	0.628
MS.376         	17.243         	0.63
MS.377         	17.208         	0.61
MS.378         	17.172         	0.596
MS.379         	17.14          	0.592
MS.380         	17.105         	0.568
MS.381         	17.07          	0.54
MS.382         	17.038         	0.538
MS.383         	17.003         	0.532
MS.384         	16.967         	0.548
MS.385         	16.935         	0.55
MS.386         	16.9           	0.504
MS.387         	16.868         	0.495
MS.388         	16.833         	0.504
MS.389         	16.8           	0.52
MS.390         	16.765         	0.473
MS.391         	16.733         	0.516
MS.392         	16.7           	0.461
MS.393         	16.665         	0.441
MS.394         	16.632         	0.437
MS.395         	16.6           	0.453
MS.396         	16.565         	0.411
MS.397         	16.532         	0.417
MS.398         	16.5           	0.401
MS.399         	16.467         	0.405
MS.400         	16.435         	0.354
MS.401         	16.4           	0.443
MS.402         	16.368         	0.403
MS.403         	16.335         	0.365
MS.404         	16.302         	0.359
MS.405         	16.27          	0.393
MS.406         	16.237         	0.375
MS.407         	16.205         	0.276
MS.408         	16.172         	0.322
MS.409         	16.14          	0.31
MS.410         	16.108         	0.286
MS.411         	16.077         	0.286
MS.412         	16.045         	0.29
MS.413         	16.012         	0.296
MS.414         	15.98          	0.274
MS.415         	15.947         	0.264
MS.416         	15.917         	0.276
MS.417         	15.885         	0.276
MS.418         	15.852         	0.276
MS.419         	15.82          	0.181
MS.420         	15.79          	0.224
MS.421         	15.757         	0.246
MS.422         	15.727         	0.193
MS.423         	15.695         	0.203
MS.424         	15.662         	0.209
MS.425         	15.632         	0.195
MS.426         	15.6           	0.191
MS.427         	15.57          	0.183
MS.428         	15.54          	0.169
MS.429         	15.507         	0.193
MS.430         	15.477         	0.147
MS.431         	15.445         	0.173
MS.432         	15.415         	0.189
MS.433         	15.385         	0.147
MS.434         	15.352         	0.187
MS.435         	15.322         	0.133
MS.436         	15.292         	0.163
MS.437         	15.262         	0.145
MS.438         	15.23          	0.185
MS.439         	15.2           	0.133
MS.440         	15.17          	0.127
MS.441         	15.14          	0.145
MS.442         	15.11          	0.129
MS.443         	15.08          	0.127
MS.444         	15.05          	0.103
MS.445         	15.02          	0.103
MS.446         	14.99          	0.121
MS.447         	14.96          	0.127
MS.448         	14.93          	0.125
MS.449         	14.9           	0.121
MS.450         	14.87          	0.113
MS.451         	14.84          	0.129
MS.452         	14.81          	0.107
MS.453         	14.78          	0.095
MS.454         	14.752         	0.109
MS.455         	14.722         	0.105
MS.456         	14.693         	0.101
MS.457         	14.662         	0.117
MS.458         	14.635         	0.101
MS.459         	14.605         	0.115
MS.460         	14.575         	0.103
MS.461         	14.547         	0.123
MS.462         	14.517         	0.107
MS.463         	14.487         	0.105
MS.464         	14.46          	0.105
MS.465         	14.43          	0.103
MS.466         	14.403         	0.103
MS.467         	14.372         	0.101
MS.468         	14.345         	0.095
MS.469         	14.315         	0.091
MS.470         	14.287         	0.107
MS.471         	14.257         	0.091
MS.472         	14.23          	0.103
MS.473         	14.202         	0.099
MS.474         	14.172         	0.103
MS.475         	14.145         	0.101
MS.476         	14.117         	0.101
MS.477         	14.087         	0.103
MS.478         	14.06          	0.109
MS.479         	14.032         	0.099
MS.480         	14.005         	0.095
MS.481         	13.975         	0.103
MS.482         	13.947         	0.097
MS.483         	13.92          	0.095
MS.484         	13.892         	0.089
MS.485         	13.865         	0.105
MS.486         	13.837         	0.091
MS.487         	13.81          	0.097
MS.488         	13.782         	0.087
MS.489         	13.755         	0.081
MS.490         	13.727         	0.091
MS.491         	13.7           	0.089
MS.492         	13.672         	0.099
MS.493         	13.645         	0.089
MS.494         	13.617         	0.097
MS.495         	13.59          	0.085
MS.496         	13.562         	0.07
MS.497         	13.535         	0.081
MS.498         	13.51          	0.085
MS.499         	13.483         	0.093
MS.500         	13.455         	0.075
MS.501         	13.427         	0.103
