File:              	C:\Qtrac\Data\Daniel M Sørensen\MScan multicentre study\Data from centres\Oxford\Processed data\ATC01211B.QZD
Name:              	UK.OXF.NC.9.1
Protocol:          	MSCAN-R2
Date:              	11/12/20
Start time:        	08:39:36
Age:               	35
Sex:               	F
Temperature:       	33.9
S/R sites:         	ADM
NC/disease:        	NC
Operator:          	AT
Comments:          	Ulnar N ADM 1st
M-SCAN DATA (8.1-0.9m)
Scanpts: 48, 56, 638, 645
Stim. (mA)     	Amp. (mV)
MS.1           	19.5           	3.744
MS.2           	19.5           	3.708
MS.3           	19.5           	3.603
MS.4           	19.5           	3.628
MS.5           	19.5           	3.72
MS.6           	19.5           	3.734
MS.7           	19.5           	3.73
MS.8           	19.5           	3.698
MS.9           	19.5           	3.67
MS.10          	19.5           	3.682
MS.11          	19.5           	3.722
MS.12          	19.5           	3.7
MS.13          	19.5           	3.688
MS.14          	19.5           	3.64
MS.15          	19.5           	3.69
MS.16          	19.5           	3.718
MS.17          	19.5           	3.702
MS.18          	19.5           	3.7
MS.19          	19.5           	3.69
MS.20          	19.5           	3.607
MS.21          	19.5           	3.642
MS.22          	19.5           	3.714
MS.23          	19.5           	3.706
MS.24          	19.422         	3.7
MS.25          	19.382         	3.716
MS.26          	19.345         	3.672
MS.27          	19.305         	3.656
MS.28          	19.267         	3.688
MS.29          	19.23          	3.66
MS.30          	19.19          	3.623
MS.31          	19.153         	3.676
MS.32          	19.115         	3.698
MS.33          	19.075         	3.696
MS.34          	19.038         	3.662
MS.35          	19             	3.664
MS.36          	18.962         	3.642
MS.37          	18.922         	3.664
MS.38          	18.885         	3.676
MS.39          	18.847         	3.682
MS.40          	18.81          	3.688
MS.41          	18.772         	3.68
MS.42          	18.735         	3.652
MS.43          	18.698         	3.668
MS.44          	18.66          	3.646
MS.45          	18.622         	3.609
MS.46          	18.585         	3.615
MS.47          	18.55          	3.67
MS.48          	18.512         	3.678
MS.49          	18.475         	3.67
MS.50          	18.438         	3.682
MS.51          	18.4           	3.664
MS.52          	18.365         	3.658
MS.53          	18.327         	3.662
MS.54          	18.29          	3.664
MS.55          	18.255         	3.652
MS.56          	18.217         	3.658
MS.57          	18.182         	3.67
MS.58          	18.145         	3.678
MS.59          	18.11          	3.652
MS.60          	18.073         	3.658
MS.61          	18.038         	3.66
MS.62          	18             	3.623
MS.63          	17.965         	3.595
MS.64          	17.93          	3.65
MS.65          	17.892         	3.593
MS.66          	17.858         	3.628
MS.67          	17.823         	3.634
MS.68          	17.785         	3.599
MS.69          	17.75          	3.583
MS.70          	17.715         	3.63
MS.71          	17.68          	3.63
MS.72          	17.645         	3.646
MS.73          	17.61          	3.628
MS.74          	17.575         	3.597
MS.75          	17.538         	3.664
MS.76          	17.503         	3.567
MS.77          	17.467         	3.638
MS.78          	17.435         	3.611
MS.79          	17.4           	3.587
MS.80          	17.365         	3.531
MS.81          	17.33          	3.525
MS.82          	17.295         	3.499
MS.83          	17.26          	3.547
MS.84          	17.225         	3.394
MS.85          	17.192         	3.476
MS.86          	17.157         	3.495
MS.87          	17.122         	3.44
MS.88          	17.087         	3.47
MS.89          	17.055         	3.442
MS.90          	17.02          	3.428
MS.91          	16.987         	3.466
MS.92          	16.952         	3.43
MS.93          	16.917         	3.378
MS.94          	16.885         	3.448
MS.95          	16.85          	3.354
MS.96          	16.817         	3.37
MS.97          	16.782         	3.346
MS.98          	16.75          	3.339
MS.99          	16.717         	3.313
MS.100         	16.682         	3.303
MS.101         	16.65          	3.297
MS.102         	16.618         	3.287
MS.103         	16.583         	3.281
MS.104         	16.55          	3.305
MS.105         	16.517         	3.327
MS.106         	16.485         	3.261
MS.107         	16.452         	3.285
MS.108         	16.417         	3.227
MS.109         	16.385         	3.19
MS.110         	16.352         	3.11
MS.111         	16.32          	3.176
MS.112         	16.288         	3.227
MS.113         	16.255         	3.213
MS.114         	16.222         	3.168
MS.115         	16.19          	3.14
MS.116         	16.157         	3.084
MS.117         	16.125         	3.14
MS.118         	16.092         	2.991
MS.119         	16.062         	2.981
MS.120         	16.03          	2.951
MS.121         	15.997         	2.955
MS.122         	15.965         	2.906
MS.123         	15.932         	2.937
MS.124         	15.902         	2.939
MS.125         	15.87          	2.852
MS.126         	15.837         	2.933
MS.127         	15.807         	2.81
MS.128         	15.775         	2.711
MS.129         	15.742         	2.749
MS.130         	15.712         	2.838
MS.131         	15.68          	2.82
MS.132         	15.65          	2.84
MS.133         	15.617         	2.776
MS.134         	15.587         	2.711
MS.135         	15.555         	2.647
MS.136         	15.525         	2.741
MS.137         	15.492         	2.653
MS.138         	15.462         	2.574
MS.139         	15.432         	2.556
MS.140         	15.4           	2.667
MS.141         	15.37          	2.637
MS.142         	15.34          	2.649
MS.143         	15.307         	2.651
MS.144         	15.277         	2.479
MS.145         	15.247         	2.405
MS.146         	15.217         	2.56
MS.147         	15.188         	2.5
MS.148         	15.155         	2.403
MS.149         	15.125         	2.518
MS.150         	15.095         	2.268
MS.151         	15.065         	2.222
MS.152         	15.035         	2.28
MS.153         	15.005         	2.282
MS.154         	14.975         	2.314
MS.155         	14.945         	2.282
MS.156         	14.915         	2.23
MS.157         	14.885         	2.228
MS.158         	14.855         	2.165
MS.159         	14.827         	2.147
MS.160         	14.797         	2.123
MS.161         	14.767         	1.976
MS.162         	14.737         	1.942
MS.163         	14.707         	2.004
MS.164         	14.68          	1.974
MS.165         	14.65          	1.919
MS.166         	14.62          	1.924
MS.167         	14.59          	1.944
MS.168         	14.562         	1.99
MS.169         	14.532         	1.897
MS.170         	14.505         	1.795
MS.171         	14.475         	1.845
MS.172         	14.445         	1.752
MS.173         	14.417         	1.903
MS.174         	14.387         	1.758
MS.175         	14.36          	1.758
MS.176         	14.33          	1.799
MS.177         	14.302         	1.75
MS.178         	14.273         	1.783
MS.179         	14.245         	1.68
MS.180         	14.217         	1.591
MS.181         	14.188         	1.67
MS.182         	14.16          	1.722
MS.183         	14.132         	1.623
MS.184         	14.102         	1.652
MS.185         	14.075         	1.613
MS.186         	14.047         	1.462
MS.187         	14.02          	1.573
MS.188         	13.99          	1.575
MS.189         	13.962         	1.543
MS.190         	13.935         	1.349
MS.191         	13.907         	1.408
MS.192         	13.88          	1.364
MS.193         	13.852         	1.42
MS.194         	13.825         	1.49
MS.195         	13.797         	1.37
MS.196         	13.77          	1.356
MS.197         	13.742         	1.349
MS.198         	13.715         	1.412
MS.199         	13.688         	1.227
MS.200         	13.66          	1.325
MS.201         	13.632         	1.255
MS.202         	13.605         	1.275
MS.203         	13.577         	1.249
MS.204         	13.55          	1.253
MS.205         	13.523         	1.237
MS.206         	13.495         	1.15
MS.207         	13.47          	1.19
MS.208         	13.443         	1.126
MS.209         	13.415         	1.204
MS.210         	13.387         	1.108
MS.211         	13.362         	1.154
MS.212         	13.335         	1.112
MS.213         	13.307         	1.17
MS.214         	13.282         	1.148
MS.215         	13.255         	1.082
MS.216         	13.23          	1.132
MS.217         	13.202         	1.074
MS.218         	13.175         	1.047
MS.219         	13.15          	1.011
MS.220         	13.122         	1.076
MS.221         	13.097         	1.025
MS.222         	13.07          	0.991
MS.223         	13.045         	1.007
MS.224         	13.02          	1.041
MS.225         	12.992         	0.924
MS.226         	12.967         	0.979
MS.227         	12.94          	1.009
MS.228         	12.915         	0.957
MS.229         	12.89          	0.931
MS.230         	12.862         	0.912
MS.231         	12.837         	0.888
MS.232         	12.812         	0.935
MS.233         	12.787         	0.89
MS.234         	12.76          	0.943
MS.235         	12.735         	0.9
MS.236         	12.71          	0.933
MS.237         	12.685         	0.86
MS.238         	12.66          	0.852
MS.239         	12.635         	0.862
MS.240         	12.61          	0.818
MS.241         	12.585         	0.814
MS.242         	12.557         	0.924
MS.243         	12.532         	0.836
MS.244         	12.507         	0.828
MS.245         	12.483         	0.767
MS.246         	12.457         	0.794
MS.247         	12.432         	0.761
MS.248         	12.41          	0.747
MS.249         	12.385         	0.771
MS.250         	12.36          	0.765
MS.251         	12.335         	0.792
MS.252         	12.31          	0.715
MS.253         	12.285         	0.747
MS.254         	12.26          	0.691
MS.255         	12.238         	0.711
MS.256         	12.212         	0.739
MS.257         	12.188         	0.699
MS.258         	12.162         	0.661
MS.259         	12.14          	0.671
MS.260         	12.115         	0.701
MS.261         	12.09          	0.703
MS.262         	12.065         	0.677
MS.263         	12.042         	0.677
MS.264         	12.017         	0.649
MS.265         	11.995         	0.671
MS.266         	11.97          	0.665
MS.267         	11.945         	0.63
MS.268         	11.922         	0.665
MS.269         	11.898         	0.641
MS.270         	11.875         	0.632
MS.271         	11.85          	0.683
MS.272         	11.827         	0.643
MS.273         	11.802         	0.645
MS.274         	11.78          	0.63
MS.275         	11.757         	0.643
MS.276         	11.733         	0.616
MS.277         	11.71          	0.622
MS.278         	11.685         	0.604
MS.279         	11.662         	0.622
MS.280         	11.64          	0.624
MS.281         	11.617         	0.614
MS.282         	11.592         	0.626
MS.283         	11.57          	0.636
MS.284         	11.547         	0.6
MS.285         	11.525         	0.606
MS.286         	11.5           	0.618
MS.287         	11.477         	0.634
MS.288         	11.455         	0.57
MS.289         	11.432         	0.578
MS.290         	11.41          	0.616
MS.291         	11.387         	0.516
MS.292         	11.363         	0.586
MS.293         	11.34          	0.614
MS.294         	11.318         	0.566
MS.295         	11.295         	0.506
MS.296         	11.273         	0.54
MS.297         	11.25          	0.556
MS.298         	11.227         	0.495
MS.299         	11.205         	0.508
MS.300         	11.182         	0.506
MS.301         	11.16          	0.457
MS.302         	11.137         	0.516
MS.303         	11.117         	0.504
MS.304         	11.095         	0.407
MS.305         	11.073         	0.395
MS.306         	11.05          	0.354
MS.307         	11.028         	0.417
MS.308         	11.005         	0.336
MS.309         	10.983         	0.344
MS.310         	10.962         	0.377
MS.311         	10.94          	0.336
MS.312         	10.917         	0.336
MS.313         	10.895         	0.411
MS.314         	10.875         	0.316
MS.315         	10.852         	0.318
MS.316         	10.83          	0.32
MS.317         	10.81          	0.352
MS.318         	10.787         	0.344
MS.319         	10.765         	0.342
MS.320         	10.745         	0.282
MS.321         	10.722         	0.294
MS.322         	10.702         	0.28
MS.323         	10.68          	0.296
MS.324         	10.66          	0.262
MS.325         	10.637         	0.296
MS.326         	10.617         	0.264
MS.327         	10.595         	0.296
MS.328         	10.575         	0.244
MS.329         	10.552         	0.242
MS.330         	10.532         	0.28
MS.331         	10.51          	0.282
MS.332         	10.49          	0.286
MS.333         	10.47          	0.298
MS.334         	10.448         	0.288
MS.335         	10.427         	0.246
MS.336         	10.407         	0.222
MS.337         	10.385         	0.242
MS.338         	10.365         	0.262
MS.339         	10.345         	0.24
MS.340         	10.323         	0.216
MS.341         	10.302         	0.211
MS.342         	10.282         	0.23
MS.343         	10.262         	0.224
MS.344         	10.24          	0.218
MS.345         	10.22          	0.177
MS.346         	10.2           	0.226
MS.347         	10.18          	0.135
MS.348         	10.16          	0.195
MS.349         	10.14          	0.135
MS.350         	10.12          	0.143
MS.351         	10.097         	0.111
MS.352         	10.077         	0.093
MS.353         	10.057         	0.111
MS.354         	10.037         	0.131
MS.355         	10.017         	0.135
MS.356         	9.997          	0.127
MS.357         	9.977          	0.099
MS.358         	9.957          	0.119
MS.359         	9.938          	0.117
MS.360         	9.917          	0.109
MS.361         	9.9            	0.095
MS.362         	9.88           	0.099
MS.363         	9.86           	0.105
MS.364         	9.84           	0.085
MS.365         	9.82           	0.075
MS.366         	9.8            	0.081
MS.367         	9.78           	0.083
MS.368         	9.76           	0.117
MS.369         	9.742          	0.081
MS.370         	9.722          	0.085
MS.371         	9.702          	0.079
MS.372         	9.682          	0.075
MS.373         	9.665          	0.079
MS.374         	9.645          	0.081
MS.375         	9.625          	0.066
MS.376         	9.605          	0.062
MS.377         	9.587          	0.077
MS.378         	9.568          	0.062
MS.379         	9.55           	0.066
MS.380         	9.53           	0.056
MS.381         	9.51           	0.077
MS.382         	9.492          	0.058
MS.383         	9.472          	0.058
MS.384         	9.452          	0.052
MS.385         	9.435          	0.052
MS.386         	9.415          	0.054
MS.387         	9.398          	0.06
MS.388         	9.377          	0.077
MS.389         	9.36           	0.058
MS.390         	9.34           	0.052
MS.391         	9.323          	0.058
MS.392         	9.302          	0.062
MS.393         	9.285          	0.054
MS.394         	9.267          	0.054
MS.395         	9.247          	0.06
MS.396         	9.23           	0.058
MS.397         	9.21           	0.056
MS.398         	9.193          	0.054
MS.399         	9.175          	0.058
MS.400         	9.155          	0.06
MS.401         	9.137          	0.05
MS.402         	9.12           	0.056
MS.403         	9.1            	0.058
MS.404         	9.082          	0.056
MS.405         	9.065          	0.054
MS.406         	9.047          	0.06
MS.407         	9.028          	0.058
MS.408         	9.01           	0.056
MS.409         	8.992          	0.056
MS.410         	8.975          	0.05
MS.411         	8.957          	0.06
MS.412         	8.94           	0.056
MS.413         	8.92           	0.054
MS.414         	8.903          	0.056
MS.415         	8.885          	0.054
MS.416         	8.867          	0.054
MS.417         	8.85           	0.056
MS.418         	8.832          	0.054
MS.419         	8.815          	0.06
MS.420         	8.797          	0.054
MS.421         	8.78           	0.056
MS.422         	8.762          	0.056
MS.423         	8.745          	0.058
MS.424         	8.727          	0.058
MS.425         	8.71           	0.056
MS.426         	8.693          	0.054
MS.427         	8.675          	0.06
MS.428         	8.658          	0.054
MS.429         	8.64           	0.052
MS.430         	8.622          	0.056
MS.431         	8.605          	0.058
MS.432         	8.587          	0.058
MS.433         	8.57           	0.056
MS.434         	8.555          	0.054
MS.435         	8.537          	0.056
MS.436         	8.52           	0.056
MS.437         	8.502          	0.058
MS.438         	8.485          	0.056
MS.439         	8.47           	0.058
MS.440         	8.452          	0.052
MS.441         	8.435          	0.054
MS.442         	8.417          	0.054
MS.443         	8.403          	0.058
MS.444         	8.385          	0.05
MS.445         	8.367          	0.056
MS.446         	8.35           	0.052
MS.447         	8.335          	0.052
MS.448         	8.318          	0.058
MS.449         	8.302          	0.058
MS.450         	8.285          	0.056
MS.451         	8.267          	0.056
MS.452         	8.252          	0.054
MS.453         	8.235          	0.05
MS.454         	8.217          	0.06
MS.455         	8.202          	0.058
MS.456         	8.185          	0.058
MS.457         	8.17           	0.06
MS.458         	8.153          	0.056
MS.459         	8.137          	0.054
MS.460         	8.12           	0.056
MS.461         	8.105          	0.06
MS.462         	8.087          	0.058
MS.463         	8.073          	0.05
MS.464         	8.055          	0.056
MS.465         	8.04           	0.06
MS.466         	8.025          	0.056
MS.467         	8.007          	0.06
MS.468         	7.992          	0.058
MS.469         	7.975          	0.06
MS.470         	7.96           	0.06
MS.471         	7.945          	0.056
MS.472         	7.927          	0.062
MS.473         	7.912          	0.06
MS.474         	7.898          	0.06
MS.475         	7.88           	0.062
MS.476         	7.865          	0.058
MS.477         	7.85           	0.058
MS.478         	7.832          	0.058
MS.479         	7.817          	0.058
MS.480         	7.802          	0.056
MS.481         	7.787          	0.058
MS.482         	7.77           	0.058
MS.483         	7.755          	0.062
MS.484         	7.74           	0.058
MS.485         	7.725          	0.056
MS.486         	7.71           	0.058
MS.487         	7.695          	0.058
MS.488         	7.677          	0.06
MS.489         	7.662          	0.056
MS.490         	7.648          	0.056
MS.491         	7.632          	0.064
MS.492         	7.617          	0.058
MS.493         	7.602          	0.058
MS.494         	7.587          	0.06
MS.495         	7.572          	0.058
MS.496         	7.557          	0.054
MS.497         	7.543          	0.054
MS.498         	7.527          	0.06
MS.499         	7.512          	0.054
MS.500         	7.497          	0.06
MS.501         	7.482          	0.06
