File:              	C:\Qtrac\Data\Daniel M Sørensen\MScan multicentre study\Data from centres\Oxford\Processed data\ATC01208F.QZD
Name:              	UK.OXF.NC.6.1
Protocol:          	MSCAN-R2
Date:              	8/12/20
Start time:        	17:57:43
Age:               	36
Sex:               	F
Temperature:       	32.5
S/R sites:         	TA
NC/disease:        	NC
Operator:          	AT
Comments:          	HC Peroneal TA 1st
M-SCAN DATA (8.1-1.8m)
Scanpts: 3, 10, 510, 517
Stim. (mA)     	Amp. (mV)
MS.1           	30             	4.729
MS.2           	30             	4.747
MS.3           	30             	4.757
MS.4           	30             	4.715
MS.5           	30             	4.695
MS.6           	30             	4.697
MS.7           	30             	4.721
MS.8           	30             	4.711
MS.9           	30             	4.711
MS.10          	30             	4.713
MS.11          	30             	4.695
MS.12          	30             	4.707
MS.13          	30             	4.697
MS.14          	30             	4.669
MS.15          	30             	4.721
MS.16          	30             	4.703
MS.17          	30             	4.731
MS.18          	30             	4.725
MS.19          	30             	4.693
MS.20          	30             	4.727
MS.21          	30             	4.703
MS.22          	30             	4.691
MS.23          	30             	4.715
MS.24          	29.88          	4.697
MS.25          	29.82          	4.713
MS.26          	29.76          	4.663
MS.27          	29.702         	4.675
MS.28          	29.642         	4.689
MS.29          	29.582         	4.689
MS.30          	29.522         	4.677
MS.31          	29.465         	4.681
MS.32          	29.405         	4.709
MS.33          	29.347         	4.651
MS.34          	29.287         	4.665
MS.35          	29.23          	4.649
MS.36          	29.172         	4.673
MS.37          	29.112         	4.631
MS.38          	29.055         	4.667
MS.39          	28.997         	4.661
MS.40          	28.94          	4.637
MS.41          	28.882         	4.665
MS.42          	28.823         	4.637
MS.43          	28.765         	4.606
MS.44          	28.707         	4.608
MS.45          	28.65          	4.629
MS.46          	28.595         	4.627
MS.47          	28.537         	4.584
MS.48          	28.48          	4.602
MS.49          	28.422         	4.618
MS.50          	28.365         	4.631
MS.51          	28.31          	4.612
MS.52          	28.252         	4.592
MS.53          	28.198         	4.574
MS.54          	28.14          	4.576
MS.55          	28.085         	4.562
MS.56          	28.028         	4.56
MS.57          	27.972         	4.574
MS.58          	27.915         	4.588
MS.59          	27.86          	4.62
MS.60          	27.805         	4.582
MS.61          	27.75          	4.538
MS.62          	27.692         	4.542
MS.63          	27.637         	4.526
MS.64          	27.582         	4.558
MS.65          	27.528         	4.542
MS.66          	27.472         	4.572
MS.67          	27.417         	4.576
MS.68          	27.362         	4.57
MS.69          	27.307         	4.56
MS.70          	27.255         	4.544
MS.71          	27.2           	4.548
MS.72          	27.145         	4.564
MS.73          	27.09          	4.514
MS.74          	27.037         	4.554
MS.75          	26.983         	4.564
MS.76          	26.927         	4.534
MS.77          	26.875         	4.52
MS.78          	26.82          	4.51
MS.79          	26.767         	4.512
MS.80          	26.715         	4.544
MS.81          	26.66          	4.51
MS.82          	26.608         	4.516
MS.83          	26.555         	4.522
MS.84          	26.502         	4.506
MS.85          	26.448         	4.498
MS.86          	26.395         	4.532
MS.87          	26.342         	4.522
MS.88          	26.29          	4.51
MS.89          	26.237         	4.488
MS.90          	26.185         	4.514
MS.91          	26.132         	4.465
MS.92          	26.08          	4.482
MS.93          	26.028         	4.461
MS.94          	25.977         	4.514
MS.95          	25.925         	4.457
MS.96          	25.872         	4.441
MS.97          	25.82          	4.449
MS.98          	25.77          	4.479
MS.99          	25.717         	4.401
MS.100         	25.667         	4.427
MS.101         	25.615         	4.421
MS.102         	25.565         	4.29
MS.103         	25.512         	4.381
MS.104         	25.462         	4.439
MS.105         	25.413         	4.409
MS.106         	25.36          	4.341
MS.107         	25.31          	4.381
MS.108         	25.26          	4.371
MS.109         	25.21          	4.292
MS.110         	25.157         	4.286
MS.111         	25.108         	4.258
MS.112         	25.057         	4.195
MS.113         	25.007         	4.276
MS.114         	24.957         	4.206
MS.115         	24.907         	4.204
MS.116         	24.858         	4.123
MS.117         	24.807         	4.113
MS.118         	24.76          	4.085
MS.119         	24.71          	4.22
MS.120         	24.66          	4.159
MS.121         	24.61          	4.069
MS.122         	24.562         	4.046
MS.123         	24.512         	4.006
MS.124         	24.465         	4.044
MS.125         	24.415         	4.121
MS.126         	24.365         	4.071
MS.127         	24.317         	4.057
MS.128         	24.27          	4.004
MS.129         	24.22          	3.94
MS.130         	24.172         	4.024
MS.131         	24.122         	4.008
MS.132         	24.075         	4.002
MS.133         	24.028         	3.93
MS.134         	23.98          	3.815
MS.135         	23.932         	3.911
MS.136         	23.882         	3.704
MS.137         	23.835         	3.779
MS.138         	23.788         	3.748
MS.139         	23.74          	3.823
MS.140         	23.692         	3.819
MS.141         	23.645         	3.827
MS.142         	23.597         	3.698
MS.143         	23.552         	3.642
MS.144         	23.505         	3.646
MS.145         	23.457         	3.628
MS.146         	23.41          	3.76
MS.147         	23.365         	3.551
MS.148         	23.317         	3.563
MS.149         	23.27          	3.551
MS.150         	23.225         	3.609
MS.151         	23.177         	3.535
MS.152         	23.132         	3.543
MS.153         	23.085         	3.482
MS.154         	23.04          	3.503
MS.155         	22.993         	3.456
MS.156         	22.948         	3.476
MS.157         	22.903         	3.527
MS.158         	22.855         	3.442
MS.159         	22.81          	3.474
MS.160         	22.765         	3.44
MS.161         	22.72          	3.331
MS.162         	22.672         	3.38
MS.163         	22.627         	3.376
MS.164         	22.582         	3.285
MS.165         	22.538         	3.285
MS.166         	22.493         	3.279
MS.167         	22.448         	3.331
MS.168         	22.403         	3.319
MS.169         	22.358         	3.307
MS.170         	22.312         	3.269
MS.171         	22.27          	3.227
MS.172         	22.225         	3.201
MS.173         	22.18          	3.237
MS.174         	22.135         	3.201
MS.175         	22.092         	3.209
MS.176         	22.047         	3.142
MS.177         	22.002         	3.124
MS.178         	21.96          	3.11
MS.179         	21.915         	3.116
MS.180         	21.872         	3.078
MS.181         	21.827         	3.029
MS.182         	21.785         	3.035
MS.183         	21.74          	3.021
MS.184         	21.698         	3.07
MS.185         	21.655         	3.053
MS.186         	21.61          	2.963
MS.187         	21.567         	3.017
MS.188         	21.525         	2.987
MS.189         	21.483         	2.955
MS.190         	21.438         	2.931
MS.191         	21.395         	2.882
MS.192         	21.352         	2.898
MS.193         	21.31          	2.87
MS.194         	21.267         	2.836
MS.195         	21.225         	2.816
MS.196         	21.182         	2.824
MS.197         	21.14          	2.814
MS.198         	21.097         	2.761
MS.199         	21.055         	2.769
MS.200         	21.015         	2.749
MS.201         	20.972         	2.715
MS.202         	20.93          	2.741
MS.203         	20.887         	2.729
MS.204         	20.847         	2.747
MS.205         	20.805         	2.675
MS.206         	20.762         	2.675
MS.207         	20.722         	2.669
MS.208         	20.68          	2.641
MS.209         	20.64          	2.616
MS.210         	20.597         	2.647
MS.211         	20.557         	2.59
MS.212         	20.515         	2.592
MS.213         	20.475         	2.59
MS.214         	20.435         	2.582
MS.215         	20.392         	2.494
MS.216         	20.352         	2.518
MS.217         	20.312         	2.417
MS.218         	20.27          	2.528
MS.219         	20.23          	2.441
MS.220         	20.19          	2.441
MS.221         	20.15          	2.375
MS.222         	20.11          	2.397
MS.223         	20.07          	2.385
MS.224         	20.03          	2.294
MS.225         	19.99          	2.252
MS.226         	19.95          	2.264
MS.227         	19.91          	2.214
MS.228         	19.87          	2.25
MS.229         	19.83          	2.222
MS.230         	19.79          	2.193
MS.231         	19.75          	2.165
MS.232         	19.712         	2.169
MS.233         	19.672         	2.135
MS.234         	19.632         	2.153
MS.235         	19.592         	2.127
MS.236         	19.555         	2.149
MS.237         	19.515         	2.054
MS.238         	19.475         	2.079
MS.239         	19.438         	2.103
MS.240         	19.397         	2.054
MS.241         	19.36          	2.004
MS.242         	19.32          	1.966
MS.243         	19.282         	1.976
MS.244         	19.245         	1.954
MS.245         	19.205         	1.934
MS.246         	19.167         	1.922
MS.247         	19.13          	1.944
MS.248         	19.09          	1.917
MS.249         	19.052         	1.873
MS.250         	19.015         	1.917
MS.251         	18.977         	1.911
MS.252         	18.938         	1.865
MS.253         	18.9           	1.859
MS.254         	18.862         	1.829
MS.255         	18.825         	1.803
MS.256         	18.788         	1.797
MS.257         	18.75          	1.748
MS.258         	18.712         	1.791
MS.259         	18.675         	1.738
MS.260         	18.637         	1.766
MS.261         	18.6           	1.71
MS.262         	18.562         	1.708
MS.263         	18.528         	1.716
MS.264         	18.49          	1.688
MS.265         	18.452         	1.682
MS.266         	18.415         	1.688
MS.267         	18.378         	1.654
MS.268         	18.342         	1.601
MS.269         	18.305         	1.573
MS.270         	18.27          	1.623
MS.271         	18.233         	1.555
MS.272         	18.195         	1.589
MS.273         	18.16          	1.525
MS.274         	18.122         	1.509
MS.275         	18.087         	1.499
MS.276         	18.05          	1.488
MS.277         	18.015         	1.464
MS.278         	17.98          	1.418
MS.279         	17.942         	1.444
MS.280         	17.907         	1.386
MS.281         	17.87          	1.416
MS.282         	17.835         	1.366
MS.283         	17.8           	1.345
MS.284         	17.765         	1.362
MS.285         	17.73          	1.37
MS.286         	17.692         	1.331
MS.287         	17.657         	1.323
MS.288         	17.622         	1.323
MS.289         	17.587         	1.281
MS.290         	17.552         	1.227
MS.291         	17.517         	1.279
MS.292         	17.483         	1.211
MS.293         	17.448         	1.158
MS.294         	17.413         	1.196
MS.295         	17.378         	1.182
MS.296         	17.342         	1.126
MS.297         	17.307         	1.124
MS.298         	17.275         	1.082
MS.299         	17.24          	1.061
MS.300         	17.205         	1.063
MS.301         	17.17          	1.041
MS.302         	17.135         	1.003
MS.303         	17.102         	1.021
MS.304         	17.067         	0.999
MS.305         	17.032         	0.957
MS.306         	17             	0.957
MS.307         	16.965         	0.945
MS.308         	16.932         	0.941
MS.309         	16.897         	0.908
MS.310         	16.865         	0.892
MS.311         	16.83          	0.85
MS.312         	16.797         	0.834
MS.313         	16.762         	0.931
MS.314         	16.73          	0.864
MS.315         	16.698         	0.777
MS.316         	16.663         	0.725
MS.317         	16.63          	0.749
MS.318         	16.597         	0.788
MS.319         	16.562         	0.771
MS.320         	16.53          	0.711
MS.321         	16.497         	0.681
MS.322         	16.465         	0.737
MS.323         	16.432         	0.697
MS.324         	16.397         	0.691
MS.325         	16.365         	0.665
MS.326         	16.333         	0.729
MS.327         	16.3           	0.665
MS.328         	16.267         	0.687
MS.329         	16.235         	0.701
MS.330         	16.202         	0.695
MS.331         	16.17          	0.655
MS.332         	16.137         	0.624
MS.333         	16.105         	0.645
MS.334         	16.075         	0.626
MS.335         	16.042         	0.608
MS.336         	16.01          	0.552
MS.337         	15.977         	0.548
MS.338         	15.945         	0.568
MS.339         	15.915         	0.524
MS.340         	15.882         	0.506
MS.341         	15.85          	0.504
MS.342         	15.818         	0.459
MS.343         	15.787         	0.526
MS.344         	15.755         	0.471
MS.345         	15.725         	0.445
MS.346         	15.693         	0.502
MS.347         	15.662         	0.485
MS.348         	15.63          	0.401
MS.349         	15.6           	0.449
MS.350         	15.568         	0.373
MS.351         	15.537         	0.377
MS.352         	15.505         	0.34
MS.353         	15.475         	0.357
MS.354         	15.443         	0.332
MS.355         	15.412         	0.375
MS.356         	15.382         	0.361
MS.357         	15.35          	0.357
MS.358         	15.32          	0.318
MS.359         	15.29          	0.316
MS.360         	15.26          	0.32
MS.361         	15.23          	0.344
MS.362         	15.197         	0.334
MS.363         	15.167         	0.296
MS.364         	15.137         	0.425
MS.365         	15.108         	0.298
MS.366         	15.077         	0.304
MS.367         	15.047         	0.288
MS.368         	15.017         	0.29
MS.369         	14.987         	0.308
MS.370         	14.957         	0.328
MS.371         	14.927         	0.278
MS.372         	14.898         	0.268
MS.373         	14.867         	0.276
MS.374         	14.837         	0.272
MS.375         	14.807         	0.22
MS.376         	14.78          	0.278
MS.377         	14.75          	0.286
MS.378         	14.72          	0.264
MS.379         	14.69          	0.262
MS.380         	14.66          	0.211
MS.381         	14.632         	0.203
MS.382         	14.602         	0.199
MS.383         	14.572         	0.216
MS.384         	14.545         	0.226
MS.385         	14.515         	0.185
MS.386         	14.485         	0.214
MS.387         	14.457         	0.214
MS.388         	14.427         	0.216
MS.389         	14.4           	0.193
MS.390         	14.37          	0.207
MS.391         	14.342         	0.201
MS.392         	14.312         	0.173
MS.393         	14.285         	0.159
MS.394         	14.255         	0.163
MS.395         	14.227         	0.165
MS.396         	14.2           	0.157
MS.397         	14.17          	0.155
MS.398         	14.142         	0.165
MS.399         	14.115         	0.175
MS.400         	14.085         	0.161
MS.401         	14.057         	0.133
MS.402         	14.03          	0.139
MS.403         	14.002         	0.123
MS.404         	13.975         	0.121
MS.405         	13.945         	0.125
MS.406         	13.917         	0.109
MS.407         	13.89          	0.121
MS.408         	13.862         	0.143
MS.409         	13.835         	0.117
MS.410         	13.807         	0.115
MS.411         	13.78          	0.105
MS.412         	13.752         	0.105
MS.413         	13.725         	0.113
MS.414         	13.697         	0.099
MS.415         	13.67          	0.107
MS.416         	13.642         	0.103
MS.417         	13.615         	0.101
MS.418         	13.587         	0.111
MS.419         	13.56          	0.107
MS.420         	13.535         	0.105
MS.421         	13.507         	0.113
MS.422         	13.48          	0.101
MS.423         	13.452         	0.109
MS.424         	13.425         	0.103
MS.425         	13.4           	0.099
MS.426         	13.372         	0.085
MS.427         	13.345         	0.095
MS.428         	13.32          	0.095
MS.429         	13.292         	0.095
MS.430         	13.265         	0.093
MS.431         	13.24          	0.103
MS.432         	13.212         	0.095
MS.433         	13.188         	0.091
MS.434         	13.16          	0.085
MS.435         	13.135         	0.095
MS.436         	13.108         	0.105
MS.437         	13.082         	0.077
MS.438         	13.055         	0.085
MS.439         	13.03          	0.085
MS.440         	13.002         	0.103
MS.441         	12.977         	0.077
MS.442         	12.952         	0.077
MS.443         	12.925         	0.073
MS.444         	12.9           	0.068
MS.445         	12.875         	0.079
MS.446         	12.847         	0.07
MS.447         	12.822         	0.097
MS.448         	12.797         	0.075
MS.449         	12.77          	0.066
MS.450         	12.745         	0.081
MS.451         	12.72          	0.07
MS.452         	12.695         	0.062
MS.453         	12.67          	0.073
MS.454         	12.645         	0.066
MS.455         	12.62          	0.052
MS.456         	12.592         	0.064
MS.457         	12.568         	0.056
MS.458         	12.542         	0.056
MS.459         	12.517         	0.077
MS.460         	12.492         	0.062
MS.461         	12.467         	0.062
MS.462         	12.443         	0.062
MS.463         	12.417         	0.048
MS.464         	12.395         	0.05
MS.465         	12.37          	0.058
MS.466         	12.345         	0.052
MS.467         	12.32          	0.07
MS.468         	12.295         	0.06
MS.469         	12.27          	0.06
MS.470         	12.245         	0.058
MS.471         	12.222         	0.056
MS.472         	12.197         	0.052
MS.473         	12.172         	0.066
MS.474         	12.148         	0.048
MS.475         	12.125         	0.052
MS.476         	12.1           	0.054
MS.477         	12.075         	0.056
MS.478         	12.052         	0.048
MS.479         	12.028         	0.064
MS.480         	12.002         	0.052
MS.481         	11.98          	0.05
MS.482         	11.955         	0.048
MS.483         	11.932         	0.058
MS.484         	11.907         	0.054
MS.485         	11.885         	0.056
MS.486         	11.86          	0.044
MS.487         	11.837         	0.048
MS.488         	11.812         	0.054
MS.489         	11.79          	0.048
MS.490         	11.765         	0.048
MS.491         	11.742         	0.052
MS.492         	11.72          	0.052
MS.493         	11.695         	0.081
MS.494         	11.672         	0.056
MS.495         	11.648         	0.048
MS.496         	11.625         	0.054
MS.497         	11.602         	0.052
MS.498         	11.58          	0.052
MS.499         	11.555         	0.062
MS.500         	11.532         	0.048
