File:              	C:\Qtrac\Data\Daniel M Sørensen\MScan multicentre study\Data from centres\Ankara\Processed data\BCC00320B.QZD
Name:              	TR.ANK.NC.2.1
Protocol:          	MSCAN-R2
Date:              	20/3/20
Start time:        	15:20:05
Age:               	54
Sex:               	m
Temperature:
S/R sites:         	ADM
NC/disease:        	NC
Operator:          	eb
Comments:
M-SCAN DATA (4.8-1.9m)
Scanpts: 10, 13, 263, 268
Stim. (mA)     	Amp. (mV)
MS.1           	19.5           	9.557
MS.2           	19.5           	9.556
MS.3           	19.5           	9.535
MS.4           	19.5           	9.425
MS.5           	19.5           	9.564
MS.6           	19.5           	9.563
MS.7           	19.5           	9.546
MS.8           	19.5           	9.58
MS.9           	19.5           	9.705
MS.10          	19.5           	9.586
MS.11          	19.5           	9.591
MS.12          	19.5           	9.563
MS.13          	19.5           	9.559
MS.14          	19.5           	9.674
MS.15          	19.5           	9.601
MS.16          	19.5           	9.644
MS.17          	19.5           	9.609
MS.18          	19.5           	9.518
MS.19          	19.5           	9.441
MS.20          	19.5           	9.341
MS.21          	19.5           	9.294
MS.22          	19.5           	9.21
MS.23          	19.5           	9.357
MS.24          	19.422         	9.153
MS.25          	19.382         	9.183
MS.26          	19.345         	8.907
MS.27          	19.305         	8.89
MS.28          	19.267         	8.735
MS.29          	19.23          	8.717
MS.30          	19.19          	9.021
MS.31          	19.153         	8.531
MS.32          	19.115         	8.625
MS.33          	19.075         	8.462
MS.34          	19.038         	8.311
MS.35          	19             	8.444
MS.36          	18.962         	8.29
MS.37          	18.922         	8.295
MS.38          	18.885         	8.188
MS.39          	18.847         	8.109
MS.40          	18.81          	8.231
MS.41          	18.772         	8.191
MS.42          	18.735         	8.037
MS.43          	18.698         	8.158
MS.44          	18.66          	7.834
MS.45          	18.622         	8.016
MS.46          	18.585         	7.869
MS.47          	18.55          	7.808
MS.48          	18.512         	7.919
MS.49          	18.475         	7.433
MS.50          	18.438         	7.047
MS.51          	18.4           	7.544
MS.52          	18.365         	7.461
MS.53          	18.327         	7.327
MS.54          	18.29          	7.146
MS.55          	18.255         	7.225
MS.56          	18.217         	6.923
MS.57          	18.182         	7.152
MS.58          	18.145         	6.981
MS.59          	18.11          	7.006
MS.60          	18.073         	6.531
MS.61          	18.038         	6.641
MS.62          	18             	6.479
MS.63          	17.965         	6.819
MS.64          	17.93          	6.45
MS.65          	17.892         	6.498
MS.66          	17.858         	6.173
MS.67          	17.823         	6.499
MS.68          	17.785         	6.45
MS.69          	17.75          	6.085
MS.70          	17.715         	5.862
MS.71          	17.68          	6.039
MS.72          	17.645         	6.354
MS.73          	17.61          	5.951
MS.74          	17.575         	5.864
MS.75          	17.538         	5.747
MS.76          	17.503         	5.824
MS.77          	17.467         	5.544
MS.78          	17.435         	5.248
MS.79          	17.4           	5.569
MS.80          	17.365         	5.457
MS.81          	17.33          	5.446
MS.82          	17.295         	5.01
MS.83          	17.26          	5.468
MS.84          	17.225         	5.153
MS.85          	17.192         	5.187
MS.86          	17.157         	4.68
MS.87          	17.122         	5.044
MS.88          	17.087         	5.009
MS.89          	17.055         	5.011
MS.90          	17.02          	4.568
MS.91          	16.987         	4.606
MS.92          	16.952         	4.822
MS.93          	16.917         	4.436
MS.94          	16.885         	4.221
MS.95          	16.85          	4.786
MS.96          	16.817         	4.305
MS.97          	16.782         	3.905
MS.98          	16.75          	3.673
MS.99          	16.717         	3.884
MS.100         	16.682         	3.523
MS.101         	16.65          	3.691
MS.102         	16.618         	3.185
MS.103         	16.583         	3.729
MS.104         	16.55          	3.265
MS.105         	16.517         	3.203
MS.106         	16.485         	2.897
MS.107         	16.452         	2.773
MS.108         	16.417         	2.942
MS.109         	16.385         	2.832
MS.110         	16.352         	3.002
MS.111         	16.32          	2.568
MS.112         	16.288         	3.136
MS.113         	16.255         	2.844
MS.114         	16.222         	2.6
MS.115         	16.19          	2.52
MS.116         	16.157         	2.303
MS.117         	16.125         	2.571
MS.118         	16.092         	2.686
MS.119         	16.062         	2.552
MS.120         	16.03          	2.106
MS.121         	15.997         	2.1
MS.122         	15.965         	2.097
MS.123         	15.932         	1.952
MS.124         	15.902         	2.268
MS.125         	15.87          	2.074
MS.126         	15.837         	1.987
MS.127         	15.807         	1.764
MS.128         	15.775         	2.101
MS.129         	15.742         	1.843
MS.130         	15.712         	1.848
MS.131         	15.68          	1.755
MS.132         	15.65          	1.653
MS.133         	15.617         	1.35
MS.134         	15.587         	1.659
MS.135         	15.555         	1.617
MS.136         	15.525         	1.558
MS.137         	15.492         	1.58
MS.138         	15.462         	1.503
MS.139         	15.432         	1.467
MS.140         	15.4           	1.252
MS.141         	15.37          	1.478
MS.142         	15.34          	1.509
MS.143         	15.307         	1.21
MS.144         	15.277         	1.248
MS.145         	15.247         	1.318
MS.146         	15.217         	1.2
MS.147         	15.188         	1.053
MS.148         	15.155         	1.066
MS.149         	15.125         	1.185
MS.150         	15.095         	0.951
MS.151         	15.065         	1.079
MS.152         	15.035         	1.086
MS.153         	15.005         	1.108
MS.154         	14.975         	0.958
MS.155         	14.945         	0.778
MS.156         	14.915         	1.019
MS.157         	14.885         	0.803
MS.158         	14.855         	0.8
MS.159         	14.827         	0.887
MS.160         	14.797         	0.767
MS.161         	14.767         	0.913
MS.162         	14.737         	0.774
MS.163         	14.707         	0.874
MS.164         	14.68          	0.654
MS.165         	14.65          	0.72
MS.166         	14.62          	0.828
MS.167         	14.59          	0.69
MS.168         	14.562         	0.559
MS.169         	14.532         	0.516
MS.170         	14.505         	0.607
MS.171         	14.475         	0.518
MS.172         	14.445         	0.538
MS.173         	14.417         	0.555
MS.174         	14.387         	0.449
MS.175         	14.36          	0.387
MS.176         	14.33          	0.331
MS.177         	14.302         	0.444
MS.178         	14.273         	0.504
MS.179         	14.245         	0.293
MS.180         	14.217         	0.352
MS.181         	14.188         	0.292
MS.182         	14.16          	0.281
MS.183         	14.132         	0.247
MS.184         	14.102         	0.283
MS.185         	14.075         	0.326
MS.186         	14.047         	0.385
MS.187         	14.02          	0.291
MS.188         	13.99          	0.175
MS.189         	13.962         	0.259
MS.190         	13.935         	0.221
MS.191         	13.907         	0.236
MS.192         	13.88          	0.211
MS.193         	13.852         	0.159
MS.194         	13.825         	0.151
MS.195         	13.797         	0.142
MS.196         	13.77          	0.129
MS.197         	13.742         	0.2
MS.198         	13.715         	0.143
MS.199         	13.688         	0.166
MS.200         	13.66          	0.126
MS.201         	13.632         	0.129
MS.202         	13.605         	0.155
MS.203         	13.577         	0.105
MS.204         	13.55          	0.101
MS.205         	13.523         	0.188
MS.206         	13.495         	0.11
MS.207         	13.47          	0.106
MS.208         	13.443         	0.093
MS.209         	13.415         	0.15
MS.210         	13.387         	0.074
MS.211         	13.362         	0.071
MS.212         	13.335         	0.107
MS.213         	13.307         	0.095
MS.214         	13.282         	0.093
MS.215         	13.255         	0.098
MS.216         	13.23          	0.098
MS.217         	13.202         	0.084
MS.218         	13.175         	0.106
MS.219         	13.15          	0.106
MS.220         	13.122         	0.09
MS.221         	13.097         	0.061
MS.222         	13.07          	0.099
MS.223         	13.045         	0.083
MS.224         	13.02          	0.088
MS.225         	12.992         	0.098
MS.226         	12.967         	0.082
MS.227         	12.94          	0.074
MS.228         	12.915         	0.087
MS.229         	12.89          	0.054
MS.230         	12.862         	0.063
MS.231         	12.837         	0.074
MS.232         	12.812         	0.078
MS.233         	12.787         	0.072
MS.234         	12.76          	0.063
MS.235         	12.735         	0.051
MS.236         	12.71          	0.06
MS.237         	12.685         	0.052
MS.238         	12.66          	0.066
MS.239         	12.635         	0.052
MS.240         	12.61          	0.048
MS.241         	12.585         	0.048
MS.242         	12.557         	0.06
MS.243         	12.532         	0.06
MS.244         	12.507         	0.083
MS.245         	12.483         	0.062
MS.246         	12.457         	0.056
MS.247         	12.432         	0.05
MS.248         	12.41          	0.055
MS.249         	12.385         	0.057
MS.250         	12.36          	0.056
MS.251         	12.335         	0.052
MS.252         	12.31          	0.059
MS.253         	12.285         	0.052
MS.254         	12.26          	0.059
MS.255         	12.238         	0.046
MS.256         	12.212         	0.054
MS.257         	12.188         	0.051
MS.258         	12.162         	0.048
MS.259         	12.14          	0.066
MS.260         	12.115         	0.046
MS.261         	12.09          	0.05
MS.262         	12.065         	0.052
MS.263         	12.042         	0.045
MS.264         	12.017         	0.046
MS.265         	11.995         	0.049
MS.266         	11.97          	0.045
MS.267         	11.945         	0.044
MS.268         	11.922         	0.051
MS.269         	11.898         	0.048
MS.270         	11.875         	0.046
MS.271         	11.85          	0.045
MS.272         	11.827         	0.044
MS.273         	11.802         	0.051
MS.274         	11.78          	0.051
MS.275         	11.757         	0.042
MS.276         	11.733         	0.048
MS.277         	11.71          	0.046
MS.278         	11.685         	0.055
MS.279         	11.662         	0.045
MS.280         	11.64          	0.045
MS.281         	11.617         	0.048
MS.282         	11.592         	0.043
MS.283         	11.57          	0.046
MS.284         	11.547         	0.052
MS.285         	11.525         	0.05
MS.286         	11.5           	0.046
MS.287         	11.477         	0.045
MS.288         	11.455         	0.054
MS.289         	11.432         	0.045
MS.290         	11.41          	0.043
MS.291         	11.387         	0.043
MS.292         	11.363         	0.044
MS.293         	11.34          	0.051
MS.294         	11.318         	0.049
MS.295         	11.295         	0.044
MS.296         	11.273         	0.043
MS.297         	11.25          	0.044
MS.298         	11.227         	0.048
MS.299         	11.205         	0.045
MS.300         	11.182         	0.042
MS.301         	11.16          	0.046
MS.302         	11.137         	0.029
MS.303         	11.117         	0.046
MS.304         	11.095         	0.035
MS.305         	11.073         	0.048
MS.306         	11.05          	0.031
MS.307         	11.028         	0.031
MS.308         	11.005         	0.039
MS.309         	10.983         	0.029
MS.310         	10.962         	0.057
MS.311         	10.94          	0.035
MS.312         	10.917         	0.031
MS.313         	10.895         	0.034
MS.314         	10.875         	0.042
MS.315         	10.852         	0.034
MS.316         	10.83          	0.034
MS.317         	10.81          	0.043
MS.318         	10.787         	0.045
MS.319         	10.765         	0.031
MS.320         	10.745         	0.045
MS.321         	10.722         	0.032
MS.322         	10.702         	0.031
MS.323         	10.68          	0.028
MS.324         	10.66          	0.032
MS.325         	10.637         	0.035
MS.326         	10.617         	0.031
MS.327         	10.595         	0.031
MS.328         	10.575         	0.044
MS.329         	10.552         	0.029
MS.330         	10.532         	0.032
MS.331         	10.51          	0.034
MS.332         	10.49          	0.035
MS.333         	10.47          	0.031
MS.334         	10.448         	0.028
DERIVED EXCITABILITY VARIABLES
Program = QTracP 3/4/2020
Threshold method = 6 (optimised for CAP, using data for present condition only)
SR method = 1 (using actual data values)
6.                 	0.000               	Peak response\(mV)
17.                	54                  	Age (years)
18.                	1                   	Sex (M=1, F=2)

EXTRA VARIABLES

MScPeak(mV) = 9.5
MScS5(mA) = 14.32
MScS50(mA) = 16.99
MScS95(mA) = 19.25
MScNSteps = 3
MScSteps(%) = 7.6
MScStepMax(%) = 2.8
MScD50 = 34
MScSlope = 7.82
MSFPeakAmp(mV) = 9.53
MSFNUnits = 134
MSFMeanUnitAmp(uV) = 71.1
MSFHuntTime(m) = 1.35
MSFError(%) = 6.4
MSFNLarge = 38.67
MSFMedianAmp(%) = 0.599
MSFMedianAmp(mV) = 0.0571
MSFHalfAmpAmp(%) = 0.876
MSFHalfAmpAmp(mV) = 0.0834
MSFLargestAmp(%) = 2.69
MSFLargestAmp(mV) = 0.256
MSFMeanRS(%) = 2
MSFOpts = 10106121
MScDuration(min) = 2.9
MSFTraces = 259
MSFSizeLimit(uV) = 23.8
MSFLimitType = 1
MSFSmallestAmp(uV) = 25.3

EXTRA WAVEFORMS


!MScan Model
!134
	1	12.94	0.46	2
	2	13.54	0.36	2
	3	13.74	0.36	2
	4	13.85	0.3	2
	5	13.9	0.3	2
	6	14.19	1.3	2
	7	14.28	0.43	2
	8	14.31	0.31	2
	9	14.37	0.44	2
	10	14.42	0.39	2
	11	14.44	0.3	2
	12	14.47	0.3	2
	13	14.5	0.33	2
	14	14.53	0.4	2
	15	14.58	0.44	2
	16	14.69	1.19	2
	17	14.79	0.69	2
	18	14.86	0.44	2
	19	14.94	0.79	2
	20	15.03	0.61	2
	21	15.09	0.48	2
	22	15.12	0.43	2
	23	15.16	0.46	2
	24	15.19	0.46	2
	25	15.22	0.45	2
	26	15.26	0.4	2
	27	15.29	0.27	2
	28	15.32	0.36	2
	29	15.36	0.46	2
	30	15.49	1.6	2
	31	15.55	0.41	2
	32	15.6	0.84	2
	33	15.66	0.83	2
	34	15.72	0.92	2
	35	15.79	1.1	2
	36	15.84	0.73	2
	37	15.9	0.78	2
	38	15.95	0.97	2
	39	16	1.09	2
	40	16.07	1.16	2
	41	16.14	1.41	2
	42	16.3	2.69	2
	43	16.39	1.8	2
	44	16.46	1.69	2
	45	16.48	0.52	2
	46	16.5	0.52	2
	47	16.53	0.5	2
	48	16.55	0.47	2
	49	16.57	0.47	2
	50	16.6	0.69	2
	51	16.62	0.83	2
	52	16.64	0.83	2
	53	16.66	0.72	2
	54	16.68	0.68	2
	55	16.7	0.63	2
	56	16.72	0.64	2
	57	16.74	0.67	2
	58	16.76	0.73	2
	59	16.78	0.79	2
	60	16.84	2.39	2
	61	16.9	2.42	2
	62	16.97	1.71	2
	63	17.04	1.6	2
	64	17.11	1.76	2
	65	17.16	1.12	2
	66	17.22	1.01	2
	67	17.28	0.99	2
	68	17.33	1.14	2
	69	17.38	0.92	2
	70	17.42	1	2
	71	17.46	1.06	2
	72	17.51	0.92	2
	73	17.55	0.99	2
	74	17.61	1.46	2
	75	17.67	1.34	2
	76	17.74	1.18	2
	77	17.81	0.91	2
	78	17.87	1.08	2
	79	17.91	0.71	2
	80	17.94	0.56	2
	81	17.97	0.78	2
	82	18	0.52	2
	83	18.03	0.66	2
	84	18.08	1.11	2
	85	18.13	1.27	2
	86	18.19	1.08	2
	87	18.25	1.13	2
	88	18.29	0.68	2
	89	18.33	0.86	2
	90	18.36	0.83	2
	91	18.4	0.88	2
	92	18.44	0.99	2
	93	18.48	0.99	2
	94	18.52	0.64	2
	95	18.56	0.68	2
	96	18.6	0.94	2
	97	18.63	0.86	2
	98	18.67	0.7	2
	99	18.7	0.49	2
	100	18.73	0.51	2
	101	18.76	0.41	2
	102	18.8	0.4	2
	103	18.83	0.4	2
	104	18.86	0.42	2
	105	18.9	0.45	2
	106	18.93	0.48	2
	107	18.96	0.59	2
	108	18.96	0.55	2
	109	19	0.55	2
	110	19.02	0.45	2
	111	19.05	0.4	2
	112	19.08	0.34	2
	113	19.1	0.32	2
	114	19.13	0.42	2
	115	19.16	0.52	2
	116	19.18	0.56	2
	117	19.21	0.56	2
	118	19.24	0.57	2
	119	19.27	0.58	2
	120	19.3	0.57	2
	121	19.33	0.53	2
	122	19.36	0.52	2
	123	19.38	0.5	2
	124	19.4	0.33	2
	125	19.42	0.33	2
	126	19.44	0.34	2
	127	19.46	0.35	2
	128	19.47	0.35	2
	129	19.49	0.35	2
	130	19.51	0.31	2
	131	19.53	0.28	2
	132	19.57	0.59	2
	133	19.63	0.85	2
	134	19.69	0.35	2

