File:              	C:\Qtrac\Data\Daniel M Sørensen\MScan multicentre study\Data from centres\Ankara\Processed data\ÇCC10122C.QZD
Name:              	TR.ANK.NC.3.2
Protocol:          	MSCAN-R2
Date:              	22/1/21
Start time:        	17:57:36
Age:               	29
Sex:               	M
Temperature:
S/R sites:         	TA
NC/disease:        	NC
Operator:          	HA
Comments:
M-SCAN DATA (6.5-1m)
Scanpts: 7, 14, 549, 552
Stim. (mA)     	Amp. (mV)
MS.1           	39             	6.793
MS.2           	39             	6.732
MS.3           	39             	6.782
MS.4           	39             	6.788
MS.5           	39             	6.782
MS.6           	39             	6.804
MS.7           	39             	6.798
MS.8           	39             	6.766
MS.9           	39             	6.812
MS.10          	39             	6.79
MS.11          	39             	6.803
MS.12          	39             	6.782
MS.13          	39             	6.814
MS.14          	39             	6.783
MS.15          	39             	6.799
MS.16          	39             	6.79
MS.17          	39             	6.818
MS.18          	39             	6.836
MS.19          	39             	6.809
MS.20          	39             	6.81
MS.21          	39             	6.821
MS.22          	39             	6.782
MS.23          	39             	6.79
MS.24          	38.845         	6.746
MS.25          	38.767         	6.764
MS.26          	38.69          	6.782
MS.27          	38.612         	6.752
MS.28          	38.535         	6.799
MS.29          	38.458         	6.814
MS.30          	38.38          	6.777
MS.31          	38.305         	6.797
MS.32          	38.228         	6.769
MS.33          	38.15          	6.758
MS.34          	38.075         	6.742
MS.35          	38             	6.738
MS.36          	37.923         	6.779
MS.37          	37.847         	6.724
MS.38          	37.772         	6.766
MS.39          	37.695         	6.749
MS.40          	37.62          	6.649
MS.41          	37.545         	6.702
MS.42          	37.47          	6.753
MS.43          	37.395         	6.736
MS.44          	37.32          	6.71
MS.45          	37.247         	6.732
MS.46          	37.173         	6.71
MS.47          	37.097         	6.667
MS.48          	37.022         	6.616
MS.49          	36.95          	6.637
MS.50          	36.875         	6.647
MS.51          	36.802         	6.655
MS.52          	36.728         	6.617
MS.53          	36.655         	6.608
MS.54          	36.583         	6.523
MS.55          	36.51          	6.58
MS.56          	36.435         	6.55
MS.57          	36.362         	6.602
MS.58          	36.29          	6.522
MS.59          	36.217         	6.531
MS.60          	36.145         	6.544
MS.61          	36.072         	6.543
MS.62          	36.002         	6.5
MS.63          	35.93          	6.539
MS.64          	35.857         	6.483
MS.65          	35.785         	6.539
MS.66          	35.715         	6.449
MS.67          	35.642         	6.462
MS.68          	35.572         	6.432
MS.69          	35.5           	6.439
MS.70          	35.43          	6.416
MS.71          	35.36          	6.399
MS.72          	35.287         	6.433
MS.73          	35.217         	6.345
MS.74          	35.147         	6.379
MS.75          	35.077         	6.345
MS.76          	35.007         	6.345
MS.77          	34.938         	6.333
MS.78          	34.868         	6.41
MS.79          	34.798         	6.337
MS.80          	34.728         	6.235
MS.81          	34.66          	6.342
MS.82          	34.59          	6.151
MS.83          	34.52          	6.217
MS.84          	34.452         	6.246
MS.85          	34.382         	6.03
MS.86          	34.315         	6.204
MS.87          	34.245         	6.255
MS.88          	34.177         	6.104
MS.89          	34.11          	6.018
MS.90          	34.04          	6.116
MS.91          	33.972         	5.957
MS.92          	33.905         	6.034
MS.93          	33.837         	5.717
MS.94          	33.77          	5.945
MS.95          	33.702         	5.927
MS.96          	33.635         	5.983
MS.97          	33.568         	5.879
MS.98          	33.5           	5.607
MS.99          	33.432         	5.72
MS.100         	33.368         	5.647
MS.101         	33.3           	5.775
MS.102         	33.232         	5.796
MS.103         	33.167         	5.61
MS.104         	33.1           	5.551
MS.105         	33.035         	5.621
MS.106         	32.967         	5.619
MS.107         	32.903         	5.339
MS.108         	32.837         	5.525
MS.109         	32.772         	5.664
MS.110         	32.705         	5.607
MS.111         	32.64          	5.504
MS.112         	32.575         	5.297
MS.113         	32.51          	5.491
MS.114         	32.445         	5.358
MS.115         	32.38          	5.432
MS.116         	32.315         	5.488
MS.117         	32.252         	5.332
MS.118         	32.188         	5.28
MS.119         	32.122         	5.186
MS.120         	32.057         	5.422
MS.121         	31.995         	5.339
MS.122         	31.93          	5.277
MS.123         	31.867         	5.234
MS.124         	31.802         	5.125
MS.125         	31.74          	5.221
MS.126         	31.675         	5.229
MS.127         	31.612         	5.206
MS.128         	31.55          	5.145
MS.129         	31.487         	5.175
MS.130         	31.422         	5.042
MS.131         	31.36          	5.164
MS.132         	31.297         	5.178
MS.133         	31.235         	5.143
MS.134         	31.172         	5.088
MS.135         	31.11          	5.065
MS.136         	31.047         	5.103
MS.137         	30.987         	4.788
MS.138         	30.925         	4.984
MS.139         	30.862         	4.849
MS.140         	30.802         	4.977
MS.141         	30.74          	4.968
MS.142         	30.677         	4.819
MS.143         	30.617         	4.734
MS.144         	30.555         	4.918
MS.145         	30.495         	4.651
MS.146         	30.435         	4.749
MS.147         	30.372         	4.683
MS.148         	30.312         	4.624
MS.149         	30.252         	4.653
MS.150         	30.192         	4.694
MS.151         	30.13          	4.639
MS.152         	30.07          	4.641
MS.153         	30.01          	4.535
MS.154         	29.95          	4.49
MS.155         	29.89          	4.587
MS.156         	29.832         	4.559
MS.157         	29.772         	4.493
MS.158         	29.712         	4.526
MS.159         	29.653         	4.462
MS.160         	29.592         	4.576
MS.161         	29.535         	4.382
MS.162         	29.475         	4.534
MS.163         	29.417         	4.424
MS.164         	29.358         	4.401
MS.165         	29.3           	4.447
MS.166         	29.24          	4.406
MS.167         	29.182         	4.32
MS.168         	29.125         	4.462
MS.169         	29.065         	4.292
MS.170         	29.007         	4.396
MS.171         	28.95          	4.313
MS.172         	28.892         	4.347
MS.173         	28.835         	4.237
MS.174         	28.778         	4.301
MS.175         	28.72          	4.287
MS.176         	28.662         	4.218
MS.177         	28.605         	4.132
MS.178         	28.547         	4.225
MS.179         	28.49          	4.137
MS.180         	28.432         	4.269
MS.181         	28.377         	4.152
MS.182         	28.32          	4.055
MS.183         	28.262         	4.053
MS.184         	28.207         	4.011
MS.185         	28.15          	4.001
MS.186         	28.095         	3.882
MS.187         	28.037         	3.91
MS.188         	27.983         	4.016
MS.189         	27.925         	4.077
MS.190         	27.87          	3.854
MS.191         	27.815         	4.045
MS.192         	27.76          	3.942
MS.193         	27.702         	3.917
MS.194         	27.647         	3.848
MS.195         	27.592         	3.92
MS.196         	27.537         	3.757
MS.197         	27.483         	3.842
MS.198         	27.427         	3.779
MS.199         	27.372         	3.776
MS.200         	27.317         	3.656
MS.201         	27.262         	3.635
MS.202         	27.21          	3.562
MS.203         	27.155         	3.588
MS.204         	27.1           	3.573
MS.205         	27.047         	3.667
MS.206         	26.993         	3.453
MS.207         	26.938         	3.481
MS.208         	26.885         	3.462
MS.209         	26.83          	3.39
MS.210         	26.778         	3.381
MS.211         	26.725         	3.286
MS.212         	26.67          	3.367
MS.213         	26.618         	3.313
MS.214         	26.565         	3.331
MS.215         	26.51          	3.156
MS.216         	26.457         	3.149
MS.217         	26.405         	3.17
MS.218         	26.352         	3.165
MS.219         	26.3           	3.131
MS.220         	26.247         	3.03
MS.221         	26.195         	3.051
MS.222         	26.142         	3.055
MS.223         	26.09          	2.981
MS.224         	26.037         	2.937
MS.225         	25.985         	2.889
MS.226         	25.935         	2.856
MS.227         	25.882         	2.781
MS.228         	25.83          	2.776
MS.229         	25.78          	2.822
MS.230         	25.727         	2.745
MS.231         	25.675         	2.789
MS.232         	25.625         	2.727
MS.233         	25.573         	2.579
MS.234         	25.522         	2.655
MS.235         	25.472         	2.738
MS.236         	25.42          	2.56
MS.237         	25.37          	2.609
MS.238         	25.32          	2.548
MS.239         	25.267         	2.599
MS.240         	25.217         	2.452
MS.241         	25.167         	2.559
MS.242         	25.118         	2.496
MS.243         	25.067         	2.329
MS.244         	25.017         	2.45
MS.245         	24.967         	2.375
MS.246         	24.917         	2.351
MS.247         	24.868         	2.289
MS.248         	24.817         	2.291
MS.249         	24.767         	2.292
MS.250         	24.717         	2.361
MS.251         	24.67          	2.268
MS.252         	24.62          	2.205
MS.253         	24.57          	2.118
MS.254         	24.522         	2.162
MS.255         	24.472         	2.205
MS.256         	24.425         	2.115
MS.257         	24.375         	2.169
MS.258         	24.327         	2.051
MS.259         	24.278         	1.954
MS.260         	24.23          	2.031
MS.261         	24.18          	1.993
MS.262         	24.132         	2.007
MS.263         	24.085         	1.917
MS.264         	24.035         	1.981
MS.265         	23.987         	1.854
MS.266         	23.94          	1.918
MS.267         	23.892         	1.852
MS.268         	23.845         	1.816
MS.269         	23.797         	1.874
MS.270         	23.75          	1.787
MS.271         	23.702         	1.765
MS.272         	23.655         	1.716
MS.273         	23.608         	1.769
MS.274         	23.56          	1.72
MS.275         	23.512         	1.71
MS.276         	23.465         	1.641
MS.277         	23.42          	1.666
MS.278         	23.372         	1.666
MS.279         	23.325         	1.552
MS.280         	23.28          	1.58
MS.281         	23.233         	1.605
MS.282         	23.185         	1.669
MS.283         	23.14          	1.534
MS.284         	23.092         	1.545
MS.285         	23.047         	1.52
MS.286         	23.002         	1.382
MS.287         	22.955         	1.497
MS.288         	22.91          	1.456
MS.289         	22.865         	1.454
MS.290         	22.817         	1.461
MS.291         	22.772         	1.396
MS.292         	22.727         	1.411
MS.293         	22.682         	1.371
MS.294         	22.637         	1.287
MS.295         	22.59          	1.357
MS.296         	22.545         	1.221
MS.297         	22.5           	1.298
MS.298         	22.455         	1.235
MS.299         	22.41          	1.313
MS.300         	22.368         	1.229
MS.301         	22.323         	1.187
MS.302         	22.278         	1.238
MS.303         	22.233         	1.221
MS.304         	22.188         	1.145
MS.305         	22.145         	1.146
MS.306         	22.1           	1.075
MS.307         	22.055         	1.15
MS.308         	22.012         	1.073
MS.309         	21.967         	1.093
MS.310         	21.922         	0.984
MS.311         	21.88          	0.975
MS.312         	21.835         	0.989
MS.313         	21.792         	1.022
MS.314         	21.75          	0.925
MS.315         	21.705         	0.989
MS.316         	21.663         	0.999
MS.317         	21.618         	0.844
MS.318         	21.575         	0.897
MS.319         	21.532         	0.887
MS.320         	21.49          	0.935
MS.321         	21.448         	0.82
MS.322         	21.403         	0.923
MS.323         	21.36          	0.862
MS.324         	21.317         	0.864
MS.325         	21.275         	0.925
MS.326         	21.233         	0.854
MS.327         	21.19          	0.858
MS.328         	21.147         	0.839
MS.329         	21.105         	0.809
MS.330         	21.065         	0.814
MS.331         	21.022         	0.851
MS.332         	20.98          	0.818
MS.333         	20.938         	0.85
MS.334         	20.895         	0.74
MS.335         	20.855         	0.75
MS.336         	20.812         	0.74
MS.337         	20.77          	0.768
MS.338         	20.73          	0.718
MS.339         	20.688         	0.692
MS.340         	20.647         	0.76
MS.341         	20.605         	0.728
MS.342         	20.565         	0.708
MS.343         	20.522         	0.708
MS.344         	20.483         	0.726
MS.345         	20.442         	0.641
MS.346         	20.4           	0.709
MS.347         	20.36          	0.642
MS.348         	20.32          	0.624
MS.349         	20.278         	0.647
MS.350         	20.237         	0.607
MS.351         	20.198         	0.609
MS.352         	20.157         	0.575
MS.353         	20.118         	0.568
MS.354         	20.077         	0.466
MS.355         	20.038         	0.541
MS.356         	19.997         	0.531
MS.357         	19.958         	0.603
MS.358         	19.917         	0.579
MS.359         	19.877         	0.535
MS.360         	19.837         	0.444
MS.361         	19.797         	0.498
MS.362         	19.757         	0.496
MS.363         	19.717         	0.468
MS.364         	19.68          	0.422
MS.365         	19.64          	0.48
MS.366         	19.6           	0.452
MS.367         	19.562         	0.515
MS.368         	19.522         	0.432
MS.369         	19.483         	0.4
MS.370         	19.445         	0.43
MS.371         	19.405         	0.378
MS.372         	19.368         	0.443
MS.373         	19.327         	0.406
MS.374         	19.29          	0.4
MS.375         	19.25          	0.399
MS.376         	19.212         	0.447
MS.377         	19.175         	0.378
MS.378         	19.135         	0.364
MS.379         	19.097         	0.344
MS.380         	19.06          	0.341
MS.381         	19.022         	0.321
MS.382         	18.983         	0.312
MS.383         	18.945         	0.356
MS.384         	18.907         	0.327
MS.385         	18.87          	0.367
MS.386         	18.833         	0.332
MS.387         	18.795         	0.339
MS.388         	18.757         	0.28
MS.389         	18.72          	0.3
MS.390         	18.682         	0.323
MS.391         	18.645         	0.331
MS.392         	18.608         	0.3
MS.393         	18.57          	0.33
MS.394         	18.532         	0.284
MS.395         	18.495         	0.288
MS.396         	18.46          	0.277
MS.397         	18.422         	0.249
MS.398         	18.385         	0.222
MS.399         	18.347         	0.255
MS.400         	18.312         	0.269
MS.401         	18.275         	0.269
MS.402         	18.24          	0.259
MS.403         	18.202         	0.236
MS.404         	18.165         	0.254
MS.405         	18.13          	0.234
MS.406         	18.092         	0.236
MS.407         	18.057         	0.222
MS.408         	18.022         	0.201
MS.409         	17.985         	0.259
MS.410         	17.95          	0.219
MS.411         	17.913         	0.211
MS.412         	17.878         	0.199
MS.413         	17.842         	0.226
MS.414         	17.807         	0.215
MS.415         	17.77          	0.187
MS.416         	17.735         	0.195
MS.417         	17.7           	0.205
MS.418         	17.665         	0.251
MS.419         	17.63          	0.211
MS.420         	17.595         	0.184
MS.421         	17.56          	0.209
MS.422         	17.525         	0.205
MS.423         	17.49          	0.219
MS.424         	17.455         	0.187
MS.425         	17.42          	0.19
MS.426         	17.385         	0.179
MS.427         	17.35          	0.175
MS.428         	17.315         	0.139
MS.429         	17.28          	0.143
MS.430         	17.245         	0.177
MS.431         	17.21          	0.149
MS.432         	17.177         	0.175
MS.433         	17.142         	0.16
MS.434         	17.108         	0.157
MS.435         	17.075         	0.148
MS.436         	17.04          	0.156
MS.437         	17.005         	0.181
MS.438         	16.972         	0.135
MS.439         	16.938         	0.144
MS.440         	16.905         	0.137
MS.441         	16.87          	0.138
MS.442         	16.837         	0.156
MS.443         	16.802         	0.137
MS.444         	16.77          	0.125
MS.445         	16.735         	0.153
MS.446         	16.702         	0.157
MS.447         	16.67          	0.132
MS.448         	16.635         	0.139
MS.449         	16.602         	0.155
MS.450         	16.57          	0.148
MS.451         	16.538         	0.125
MS.452         	16.503         	0.127
MS.453         	16.47          	0.127
MS.454         	16.438         	0.127
MS.455         	16.405         	0.109
MS.456         	16.372         	0.111
MS.457         	16.34          	0.142
MS.458         	16.307         	0.128
MS.459         	16.275         	0.139
MS.460         	16.243         	0.127
MS.461         	16.21          	0.139
MS.462         	16.177         	0.137
MS.463         	16.145         	0.11
MS.464         	16.112         	0.121
MS.465         	16.08          	0.134
MS.466         	16.047         	0.112
MS.467         	16.015         	0.116
MS.468         	15.983         	0.112
MS.469         	15.952         	0.118
MS.470         	15.92          	0.089
MS.471         	15.887         	0.116
MS.472         	15.855         	0.101
MS.473         	15.825         	0.105
MS.474         	15.792         	0.079
MS.475         	15.762         	0.074
MS.476         	15.73          	0.089
MS.477         	15.697         	0.104
MS.478         	15.667         	0.087
MS.479         	15.635         	0.077
MS.480         	15.605         	0.082
MS.481         	15.572         	0.098
MS.482         	15.542         	0.06
MS.483         	15.51          	0.092
MS.484         	15.48          	0.084
MS.485         	15.45          	0.078
MS.486         	15.417         	0.088
MS.487         	15.387         	0.05
MS.488         	15.358         	0.054
MS.489         	15.325         	0.054
MS.490         	15.295         	0.101
MS.491         	15.265         	0.059
MS.492         	15.235         	0.076
MS.493         	15.205         	0.063
MS.494         	15.172         	0.052
MS.495         	15.142         	0.067
MS.496         	15.112         	0.078
MS.497         	15.082         	0.057
MS.498         	15.052         	0.062
MS.499         	15.023         	0.062
MS.500         	14.992         	0.067
MS.501         	14.962         	0.07
MS.502         	14.932         	0.052
