File:              	C:\Qtrac\Data\Daniel M Sørensen\MScan multicentre study\Data from centres\Aarhus\Processed data\DMSB91205B.QZD
Name:              	DK.AAR.NC.6.2
Protocol:          	MSCAN-R2
Date:              	5/12/19
Start time:        	11:03:10
Age:               	66
Sex:               	f
Temperature:       	34,1
S/R sites:         	ADM
NC/disease:        	Control
Operator:          	DS
Comments:
M-SCAN DATA (2.7-0.0m)
Scanpts: 5, 15, 779, 832
Stim. (mA)     	Amp. (mV)
MS.1           	32.5           	9.515
MS.2           	32.5           	9.463
MS.3           	32.37          	9.497
MS.4           	32.305         	9.444
MS.5           	32.24          	9.469
MS.6           	32.177         	9.39
MS.7           	32.112         	9.539
MS.8           	32.048         	9.408
MS.9           	31.985         	9.352
MS.10          	31.92          	9.4
MS.11          	31.858         	9.38
MS.12          	31.792         	9.422
MS.13          	31.73          	9.348
MS.14          	31.665         	9.43
MS.15          	31.602         	9.346
MS.16          	31.54          	9.33
MS.17          	31.477         	9.416
MS.18          	31.412         	9.338
MS.19          	31.35          	9.354
MS.20          	31.287         	9.336
MS.21          	31.225         	9.074
MS.22          	31.162         	9.318
MS.23          	31.1           	9.275
MS.24          	31.037         	9.342
MS.25          	30.977         	9.148
MS.26          	30.915         	9.215
MS.27          	30.852         	9.241
MS.28          	30.792         	8.945
MS.29          	30.73          	9.029
MS.30          	30.667         	8.969
MS.31          	30.608         	9.291
MS.32          	30.545         	8.967
MS.33          	30.485         	8.784
MS.34          	30.425         	8.989
MS.35          	30.362         	8.766
MS.36          	30.302         	8.897
MS.37          	30.242         	8.836
MS.38          	30.182         	8.729
MS.39          	30.122         	8.907
MS.40          	30.06          	8.57
MS.41          	30             	8.786
MS.42          	29.94          	8.534
MS.43          	29.882         	8.882
MS.44          	29.823         	8.683
MS.45          	29.762         	8.395
MS.46          	29.702         	8.635
MS.47          	29.642         	8.226
MS.48          	29.585         	8.691
MS.49          	29.525         	8.31
MS.50          	29.465         	8.157
MS.51          	29.407         	8.351
MS.52          	29.347         	7.988
MS.53          	29.29          	8.379
MS.54          	29.23          	8.049
MS.55          	29.172         	8.498
MS.56          	29.115         	8.115
MS.57          	29.057         	7.775
MS.58          	28.997         	8.002
MS.59          	28.94          	7.612
MS.60          	28.882         	8.32
MS.61          	28.825         	7.771
MS.62          	28.767         	8.218
MS.63          	28.71          	7.863
MS.64          	28.653         	7.023
MS.65          	28.595         	7.626
MS.66          	28.537         	7.227
MS.67          	28.48          	7.704
MS.68          	28.425         	7.297
MS.69          	28.368         	7.577
MS.70          	28.31          	7.535
MS.71          	28.255         	6.55
MS.72          	28.198         	7.146
MS.73          	28.14          	6.78
MS.74          	28.085         	7.432
MS.75          	28.03          	6.939
MS.76          	27.972         	6.693
MS.77          	27.917         	6.898
MS.78          	27.86          	6.381
MS.79          	27.805         	6.921
MS.80          	27.75          	6.586
MS.81          	27.695         	7.054
MS.82          	27.64          	6.377
MS.83          	27.585         	6.21
MS.84          	27.53          	6.699
MS.85          	27.475         	6.208
MS.86          	27.42          	6.643
MS.87          	27.365         	6.087
MS.88          	27.31          	6.482
MS.89          	27.255         	6.322
MS.90          	27.2           	6.143
MS.91          	27.145         	6.602
MS.92          	27.092         	5.859
MS.93          	27.037         	6.492
MS.94          	26.985         	6.095
MS.95          	26.93          	6.417
MS.96          	26.875         	6.169
MS.97          	26.823         	5.96
MS.98          	26.77          	6.097
MS.99          	26.715         	5.785
MS.100         	26.662         	6.026
MS.101         	26.608         	5.897
MS.102         	26.555         	6.391
MS.103         	26.502         	5.863
MS.104         	26.45          	6.008
MS.105         	26.397         	5.793
MS.106         	26.345         	5.211
MS.107         	26.292         	5.787
MS.108         	26.237         	5.239
MS.109         	26.188         	5.652
MS.110         	26.135         	5.344
MS.111         	26.082         	5.605
MS.112         	26.03          	5.303
MS.113         	25.977         	4.836
MS.114         	25.925         	5.317
MS.115         	25.875         	4.858
MS.116         	25.823         	5.382
MS.117         	25.77          	4.683
MS.118         	25.72          	5.056
MS.119         	25.667         	4.794
MS.120         	25.618         	4.336
MS.121         	25.565         	4.683
MS.122         	25.515         	4.347
MS.123         	25.462         	4.631
MS.124         	25.413         	4.119
MS.125         	25.362         	4.286
MS.126         	25.31          	3.918
MS.127         	25.26          	3.245
MS.128         	25.21          	3.946
MS.129         	25.16          	3.583
MS.130         	25.11          	4.185
MS.131         	25.06          	3.662
MS.132         	25.01          	3.311
MS.133         	24.96          	3.605
MS.134         	24.91          	3.15
MS.135         	24.86          	3.855
MS.136         	24.81          	3.648
MS.137         	24.76          	3.807
MS.138         	24.71          	3.535
MS.139         	24.663         	3.136
MS.140         	24.612         	3.474
MS.141         	24.562         	3.017
MS.142         	24.515         	3.446
MS.143         	24.465         	3.176
MS.144         	24.415         	3.458
MS.145         	24.368         	3.217
MS.146         	24.317         	2.997
MS.147         	24.27          	3.307
MS.148         	24.222         	2.965
MS.149         	24.172         	3.237
MS.150         	24.125         	2.967
MS.151         	24.077         	3.327
MS.152         	24.028         	2.981
MS.153         	23.98          	2.935
MS.154         	23.932         	2.79
MS.155         	23.885         	2.562
MS.156         	23.837         	2.771
MS.157         	23.79          	2.508
MS.158         	23.743         	2.769
MS.159         	23.695         	2.572
MS.160         	23.647         	2.574
MS.161         	23.6           	2.556
MS.162         	23.552         	2.353
MS.163         	23.505         	2.475
MS.164         	23.457         	2.214
MS.165         	23.413         	2.584
MS.166         	23.365         	2.351
MS.167         	23.317         	2.479
MS.168         	23.272         	2.411
MS.169         	23.225         	2.218
MS.170         	23.18          	2.298
MS.171         	23.132         	2.163
MS.172         	23.085         	2.399
MS.173         	23.04          	2.121
MS.174         	22.995         	2.411
MS.175         	22.948         	2.268
MS.176         	22.903         	2.292
MS.177         	22.858         	2.218
MS.178         	22.81          	2.016
MS.179         	22.765         	2.244
MS.180         	22.72          	1.998
MS.181         	22.675         	2.236
MS.182         	22.63          	1.825
MS.183         	22.585         	2.117
MS.184         	22.54          	1.984
MS.185         	22.493         	2.058
MS.186         	22.45          	2.048
MS.187         	22.405         	1.716
MS.188         	22.36          	1.889
MS.189         	22.315         	1.728
MS.190         	22.27          	1.962
MS.191         	22.225         	1.748
MS.192         	22.18          	1.525
MS.193         	22.137         	1.613
MS.194         	22.092         	1.38
MS.195         	22.047         	1.674
MS.196         	22.005         	1.372
MS.197         	21.96          	1.672
MS.198         	21.917         	1.386
MS.199         	21.872         	1.265
MS.200         	21.83          	1.428
MS.201         	21.785         	1.206
MS.202         	21.743         	1.446
MS.203         	21.698         	1.418
MS.204         	21.655         	1.497
MS.205         	21.612         	1.49
MS.206         	21.567         	1.255
MS.207         	21.525         	1.309
MS.208         	21.483         	1.12
MS.209         	21.44          	1.287
MS.210         	21.397         	1.138
MS.211         	21.355         	1.172
MS.212         	21.312         	1.134
MS.213         	21.267         	1.027
MS.214         	21.225         	1.164
MS.215         	21.185         	0.902
MS.216         	21.142         	1.196
MS.217         	21.1           	1.019
MS.218         	21.057         	1.096
MS.219         	21.015         	0.935
MS.220         	20.972         	0.834
MS.221         	20.93          	0.955
MS.222         	20.89          	0.862
MS.223         	20.847         	0.951
MS.224         	20.805         	0.771
MS.225         	20.765         	0.886
MS.226         	20.722         	0.794
MS.227         	20.682         	0.763
MS.228         	20.64          	0.749
MS.229         	20.6           	0.719
MS.230         	20.557         	0.856
MS.231         	20.517         	0.723
MS.232         	20.475         	0.709
MS.233         	20.435         	0.663
MS.234         	20.395         	0.604
MS.235         	20.352         	0.681
MS.236         	20.312         	0.612
MS.237         	20.272         	0.574
MS.238         	20.233         	0.556
MS.239         	20.19          	0.5
MS.240         	20.15          	0.514
MS.241         	20.11          	0.546
MS.242         	20.07          	0.616
MS.243         	20.03          	0.57
MS.244         	19.99          	0.574
MS.245         	19.95          	0.552
MS.246         	19.91          	0.512
MS.247         	19.87          	0.528
MS.248         	19.83          	0.441
MS.249         	19.79          	0.508
MS.250         	19.752         	0.578
MS.251         	19.712         	0.453
MS.252         	19.672         	0.546
MS.253         	19.632         	0.417
MS.254         	19.595         	0.497
MS.255         	19.555         	0.508
MS.256         	19.515         	0.546
MS.257         	19.477         	0.439
MS.258         	19.438         	0.437
MS.259         	19.4           	0.409
MS.260         	19.36          	0.439
MS.261         	19.323         	0.437
MS.262         	19.282         	0.429
MS.263         	19.245         	0.437
MS.264         	19.208         	0.475
MS.265         	19.167         	0.365
MS.266         	19.13          	0.395
MS.267         	19.092         	0.369
MS.268         	19.052         	0.395
MS.269         	19.015         	0.401
MS.270         	18.977         	0.385
MS.271         	18.94          	0.375
MS.272         	18.903         	0.357
MS.273         	18.862         	0.395
MS.274         	18.825         	0.324
MS.275         	18.788         	0.379
MS.276         	18.75          	0.352
MS.277         	18.712         	0.31
MS.278         	18.675         	0.334
MS.279         	18.637         	0.334
MS.280         	18.602         	0.35
MS.281         	18.565         	0.32
MS.282         	18.528         	0.354
MS.283         	18.49          	0.328
MS.284         	18.452         	0.34
MS.285         	18.417         	0.298
MS.286         	18.38          	0.35
MS.287         	18.342         	0.352
MS.288         	18.305         	0.328
MS.289         	18.27          	0.302
MS.290         	18.233         	0.328
MS.291         	18.198         	0.306
MS.292         	18.16          	0.308
MS.293         	18.125         	0.314
MS.294         	18.087         	0.31
MS.295         	18.052         	0.312
MS.296         	18.015         	0.326
MS.297         	17.98          	0.272
MS.298         	17.942         	0.278
MS.299         	17.907         	0.262
MS.300         	17.872         	0.306
MS.301         	17.837         	0.258
MS.302         	17.8           	0.28
MS.303         	17.765         	0.246
MS.304         	17.73          	0.3
MS.305         	17.695         	0.272
MS.306         	17.66          	0.254
MS.307         	17.622         	0.236
MS.308         	17.587         	0.262
MS.309         	17.552         	0.276
MS.310         	17.517         	0.226
MS.311         	17.483         	0.278
MS.312         	17.448         	0.211
MS.313         	17.413         	0.266
MS.314         	17.378         	0.236
MS.315         	17.345         	0.248
MS.316         	17.31          	0.22
MS.317         	17.275         	0.228
MS.318         	17.24          	0.232
MS.319         	17.205         	0.218
MS.320         	17.172         	0.22
MS.321         	17.137         	0.218
MS.322         	17.102         	0.228
MS.323         	17.067         	0.224
MS.324         	17.035         	0.224
MS.325         	17             	0.226
MS.326         	16.967         	0.23
MS.327         	16.932         	0.214
MS.328         	16.897         	0.193
MS.329         	16.865         	0.205
MS.330         	16.83          	0.201
MS.331         	16.797         	0.214
MS.332         	16.765         	0.205
MS.333         	16.73          	0.201
MS.334         	16.698         	0.22
MS.335         	16.665         	0.207
MS.336         	16.63          	0.207
MS.337         	16.597         	0.191
MS.338         	16.565         	0.201
MS.339         	16.53          	0.214
MS.340         	16.497         	0.222
MS.341         	16.465         	0.191
MS.342         	16.432         	0.216
MS.343         	16.4           	0.193
MS.344         	16.368         	0.218
MS.345         	16.335         	0.195
MS.346         	16.3           	0.216
MS.347         	16.267         	0.201
MS.348         	16.235         	0.197
MS.349         	16.202         	0.191
MS.350         	16.172         	0.195
MS.351         	16.14          	0.195
MS.352         	16.108         	0.195
MS.353         	16.075         	0.193
MS.354         	16.042         	0.197
MS.355         	16.01          	0.203
MS.356         	15.977         	0.205
MS.357         	15.947         	0.191
MS.358         	15.915         	0.195
MS.359         	15.882         	0.197
MS.360         	15.85          	0.193
MS.361         	15.82          	0.189
MS.362         	15.787         	0.195
MS.363         	15.755         	0.199
MS.364         	15.725         	0.203
MS.365         	15.693         	0.185
MS.366         	15.662         	0.181
MS.367         	15.63          	0.185
MS.368         	15.6           	0.179
MS.369         	15.568         	0.191
MS.370         	15.537         	0.191
MS.371         	15.505         	0.183
MS.372         	15.475         	0.185
MS.373         	15.445         	0.187
MS.374         	15.412         	0.183
MS.375         	15.382         	0.185
MS.376         	15.352         	0.185
MS.377         	15.32          	0.187
MS.378         	15.29          	0.191
MS.379         	15.26          	0.181
MS.380         	15.23          	0.183
MS.381         	15.2           	0.193
MS.382         	15.167         	0.191
MS.383         	15.137         	0.185
MS.384         	15.108         	0.183
MS.385         	15.077         	0.185
MS.386         	15.047         	0.189
MS.387         	15.017         	0.181
MS.388         	14.987         	0.171
MS.389         	14.957         	0.185
MS.390         	14.927         	0.173
MS.391         	14.898         	0.179
MS.392         	14.867         	0.181
MS.393         	14.837         	0.175
MS.394         	14.81          	0.177
MS.395         	14.78          	0.175
MS.396         	14.75          	0.177
MS.397         	14.72          	0.173
MS.398         	14.69          	0.181
MS.399         	14.662         	0.177
MS.400         	14.632         	0.179
MS.401         	14.602         	0.169
MS.402         	14.575         	0.181
MS.403         	14.545         	0.173
MS.404         	14.515         	0.181
MS.405         	14.487         	0.179
MS.406         	14.457         	0.177
MS.407         	14.43          	0.177
MS.408         	14.4           	0.175
MS.409         	14.372         	0.181
MS.410         	14.342         	0.173
MS.411         	14.315         	0.171
MS.412         	14.285         	0.173
MS.413         	14.257         	0.175
MS.414         	14.227         	0.177
MS.415         	14.2           	0.177
MS.416         	14.172         	0.179
MS.417         	14.142         	0.173
MS.418         	14.115         	0.179
MS.419         	14.087         	0.177
MS.420         	14.057         	0.177
MS.421         	14.03          	0.173
MS.422         	14.002         	0.183
MS.423         	13.975         	0.175
MS.424         	13.947         	0.177
MS.425         	13.917         	0.179
MS.426         	13.89          	0.175
MS.427         	13.862         	0.179
MS.428         	13.835         	0.179
MS.429         	13.807         	0.177
MS.430         	13.78          	0.177
MS.431         	13.752         	0.181
MS.432         	13.725         	0.177
MS.433         	13.697         	0.177
MS.434         	13.67          	0.179
MS.435         	13.642         	0.173
MS.436         	13.615         	0.175
MS.437         	13.587         	0.171
MS.438         	13.562         	0.173
MS.439         	13.535         	0.179
MS.440         	13.507         	0.175
MS.441         	13.48          	0.155
MS.442         	13.452         	0.173
MS.443         	13.427         	0.173
MS.444         	13.4           	0.177
MS.445         	13.372         	0.177
MS.446         	13.347         	0.185
MS.447         	13.32          	0.175
MS.448         	13.292         	0.177
MS.449         	13.267         	0.175
MS.450         	13.24          	0.171
MS.451         	13.212         	0.177
MS.452         	13.188         	0.169
MS.453         	13.16          	0.171
MS.454         	13.135         	0.179
MS.455         	13.108         	0.175
MS.456         	13.082         	0.177
MS.457         	13.055         	0.167
MS.458         	13.03          	0.177
MS.459         	13.002         	0.169
MS.460         	12.977         	0.171
MS.461         	12.952         	0.171
MS.462         	12.925         	0.169
MS.463         	12.9           	0.175
MS.464         	12.875         	0.165
MS.465         	12.847         	0.165
MS.466         	12.822         	0.177
MS.467         	12.797         	0.175
MS.468         	12.773         	0.171
MS.469         	12.745         	0.167
MS.470         	12.72          	0.171
MS.471         	12.695         	0.167
MS.472         	12.67          	0.167
MS.473         	12.645         	0.171
MS.474         	12.62          	0.165
MS.475         	12.595         	0.171
MS.476         	12.57          	0.171
MS.477         	12.545         	0.171
MS.478         	12.52          	0.169
MS.479         	12.495         	0.169
MS.480         	12.47          	0.167
MS.481         	12.445         	0.167
MS.482         	12.42          	0.173
MS.483         	12.395         	0.171
MS.484         	12.37          	0.171
MS.485         	12.345         	0.171
MS.486         	12.32          	0.165
MS.487         	12.295         	0.171
MS.488         	12.27          	0.173
MS.489         	12.247         	0.151
MS.490         	12.222         	0.149
MS.491         	12.197         	0.151
MS.492         	12.172         	0.157
MS.493         	12.15          	0.153
MS.494         	12.125         	0.157
MS.495         	12.1           	0.151
MS.496         	12.075         	0.163
MS.497         	12.052         	0.151
MS.498         	12.028         	0.153
MS.499         	12.005         	0.167
MS.500         	11.98          	0.161
MS.501         	11.955         	0.155
