File:              	C:\Qtrac\Data\Daniel M Sørensen\MScan multicentre study\Data from centres\Aarhus\Processed data\DMSB91217B.QZD
Name:              	DK.AAR.NC.8.2
Protocol:          	MSCAN-R2
Date:              	17/12/19
Start time:        	11:53:51
Age:               	75
Sex:               	m
Temperature:       	35,2
S/R sites:         	ADM
NC/disease:        	Control
Operator:          	DS
Comments:
M-SCAN DATA (8-2.2m)
Scanpts: 14, 21, 496, 525
Stim. (mA)     	Amp. (mV)
MS.1           	29.5           	7.438
MS.2           	29.5           	7.446
MS.3           	29.5           	7.426
MS.4           	29.5           	7.416
MS.5           	29.5           	7.404
MS.6           	29.5           	7.434
MS.7           	29.5           	7.424
MS.8           	29.5           	7.438
MS.9           	29.5           	7.46
MS.10          	29.5           	7.444
MS.11          	29.5           	7.454
MS.12          	29.5           	7.469
MS.13          	29.5           	7.458
MS.14          	29.5           	7.448
MS.15          	29.5           	7.471
MS.16          	29.5           	7.481
MS.17          	29.5           	7.464
MS.18          	29.5           	7.477
MS.19          	29.5           	7.473
MS.20          	29.5           	7.458
MS.21          	29.5           	7.402
MS.22          	29.5           	7.489
MS.23          	29.382         	7.392
MS.24          	29.323         	7.471
MS.25          	29.265         	7.469
MS.26          	29.207         	7.481
MS.27          	29.147         	7.489
MS.28          	29.09          	7.444
MS.29          	29.032         	7.473
MS.30          	28.972         	7.456
MS.31          	28.915         	7.471
MS.32          	28.858         	7.364
MS.33          	28.8           	7.418
MS.34          	28.743         	7.43
MS.35          	28.685         	7.43
MS.36          	28.627         	7.44
MS.37          	28.57          	7.448
MS.38          	28.512         	7.464
MS.39          	28.457         	7.414
MS.40          	28.4           	7.41
MS.41          	28.342         	7.438
MS.42          	28.287         	7.382
MS.43          	28.23          	7.402
MS.44          	28.172         	7.384
MS.45          	28.118         	7.372
MS.46          	28.06          	7.344
MS.47          	28.005         	7.303
MS.48          	27.95          	7.275
MS.49          	27.892         	7.374
MS.50          	27.837         	7.33
MS.51          	27.782         	7.313
MS.52          	27.727         	7.263
MS.53          	27.67          	7.289
MS.54          	27.615         	7.261
MS.55          	27.56          	7.257
MS.56          	27.505         	7.265
MS.57          	27.45          	7.209
MS.58          	27.395         	7.243
MS.59          	27.34          	7.182
MS.60          	27.287         	7.146
MS.61          	27.233         	7.162
MS.62          	27.177         	7.025
MS.63          	27.122         	7.168
MS.64          	27.07          	7.092
MS.65          	27.015         	7.164
MS.66          	26.96          	7.106
MS.67          	26.907         	7.037
MS.68          	26.852         	7.088
MS.69          	26.8           	6.979
MS.70          	26.745         	7.09
MS.71          	26.692         	7.003
MS.72          	26.64          	7.078
MS.73          	26.585         	7.035
MS.74          	26.532         	6.945
MS.75          	26.48          	7.066
MS.76          	26.427         	6.846
MS.77          	26.375         	6.965
MS.78          	26.323         	6.87
MS.79          	26.27          	6.8
MS.80          	26.217         	6.894
MS.81          	26.165         	6.645
MS.82          	26.112         	6.699
MS.83          	26.06          	6.594
MS.84          	26.007         	6.898
MS.85          	25.955         	6.892
MS.86          	25.903         	6.621
MS.87          	25.852         	6.947
MS.88          	25.8           	6.681
MS.89          	25.75          	6.792
MS.90          	25.698         	6.486
MS.91          	25.645         	6.612
MS.92          	25.595         	6.61
MS.93          	25.542         	6.498
MS.94          	25.493         	6.596
MS.95          	25.442         	6.415
MS.96          	25.39          	6.612
MS.97          	25.34          	6.512
MS.98          	25.29          	6.504
MS.99          	25.24          	6.476
MS.100         	25.188         	6.425
MS.101         	25.137         	6.58
MS.102         	25.087         	6.443
MS.103         	25.038         	6.445
MS.104         	24.987         	6.469
MS.105         	24.938         	6.492
MS.106         	24.887         	6.335
MS.107         	24.837         	6.391
MS.108         	24.788         	6.55
MS.109         	24.74          	6.443
MS.110         	24.69          	6.411
MS.111         	24.64          	6.375
MS.112         	24.59          	6.218
MS.113         	24.542         	6.361
MS.114         	24.493         	6.32
MS.115         	24.445         	6.343
MS.116         	24.395         	6.391
MS.117         	24.347         	6.341
MS.118         	24.297         	6.296
MS.119         	24.25          	6.469
MS.120         	24.2           	6.23
MS.121         	24.153         	6.363
MS.122         	24.105         	6.314
MS.123         	24.055         	6.413
MS.124         	24.007         	6.141
MS.125         	23.96          	6.131
MS.126         	23.913         	6.091
MS.127         	23.865         	6.238
MS.128         	23.817         	6.169
MS.129         	23.77          	6.149
MS.130         	23.722         	5.956
MS.131         	23.675         	6.042
MS.132         	23.627         	5.946
MS.133         	23.58          	5.948
MS.134         	23.532         	5.982
MS.135         	23.485         	5.986
MS.136         	23.438         	5.92
MS.137         	23.392         	5.756
MS.138         	23.345         	5.875
MS.139         	23.297         	5.797
MS.140         	23.252         	5.793
MS.141         	23.205         	5.775
MS.142         	23.16          	5.779
MS.143         	23.112         	5.811
MS.144         	23.067         	5.74
MS.145         	23.02          	5.75
MS.146         	22.975         	5.654
MS.147         	22.927         	5.736
MS.148         	22.882         	5.67
MS.149         	22.837         	5.646
MS.150         	22.792         	5.652
MS.151         	22.745         	5.603
MS.152         	22.7           	5.672
MS.153         	22.655         	5.468
MS.154         	22.61          	5.581
MS.155         	22.565         	5.432
MS.156         	22.52          	5.624
MS.157         	22.475         	5.342
MS.158         	22.43          	5.37
MS.159         	22.385         	5.331
MS.160         	22.34          	5.215
MS.161         	22.295         	5.066
MS.162         	22.25          	5.291
MS.163         	22.207         	5.124
MS.164         	22.163         	5.15
MS.165         	22.118         	5.052
MS.166         	22.073         	5.072
MS.167         	22.03          	5.078
MS.168         	21.985         	5.14
MS.169         	21.942         	4.925
MS.170         	21.897         	4.957
MS.171         	21.855         	5.118
MS.172         	21.81          	4.9
MS.173         	21.767         	4.848
MS.174         	21.722         	4.878
MS.175         	21.68          	4.685
MS.176         	21.637         	4.737
MS.177         	21.592         	4.878
MS.178         	21.55          	4.774
MS.179         	21.507         	4.653
MS.180         	21.465         	4.925
MS.181         	21.422         	4.906
MS.182         	21.377         	4.675
MS.183         	21.335         	4.647
MS.184         	21.292         	4.723
MS.185         	21.25          	4.719
MS.186         	21.208         	4.459
MS.187         	21.165         	4.512
MS.188         	21.122         	4.443
MS.189         	21.083         	4.482
MS.190         	21.04          	4.592
MS.191         	20.997         	4.387
MS.192         	20.955         	4.401
MS.193         	20.913         	4.459
MS.194         	20.872         	4.385
MS.195         	20.83          	4.27
MS.196         	20.788         	4.403
MS.197         	20.747         	4.431
MS.198         	20.705         	4.191
MS.199         	20.665         	4.224
MS.200         	20.622         	4.202
MS.201         	20.583         	4.113
MS.202         	20.54          	4.028
MS.203         	20.5           	4.244
MS.204         	20.458         	3.833
MS.205         	20.417         	3.853
MS.206         	20.377         	3.96
MS.207         	20.335         	4.175
MS.208         	20.295         	4.377
MS.209         	20.255         	3.825
MS.210         	20.215         	4.363
MS.211         	20.175         	4.371
MS.212         	20.132         	4.318
MS.213         	20.092         	3.758
MS.214         	20.052         	3.515
MS.215         	20.012         	3.583
MS.216         	19.972         	3.597
MS.217         	19.932         	3.263
MS.218         	19.892         	2.844
MS.219         	19.852         	3.162
MS.220         	19.815         	2.765
MS.221         	19.775         	3.09
MS.222         	19.735         	2.713
MS.223         	19.695         	2.534
MS.224         	19.655         	2.651
MS.225         	19.618         	2.558
MS.226         	19.577         	2.778
MS.227         	19.538         	2.647
MS.228         	19.5           	2.55
MS.229         	19.46          	2.572
MS.230         	19.422         	2.55
MS.231         	19.382         	2.526
MS.232         	19.345         	2.455
MS.233         	19.305         	2.512
MS.234         	19.267         	2.421
MS.235         	19.227         	2.552
MS.236         	19.19          	2.753
MS.237         	19.153         	2.596
MS.238         	19.112         	2.542
MS.239         	19.075         	2.53
MS.240         	19.038         	2.524
MS.241         	19             	2.487
MS.242         	18.96          	2.022
MS.243         	18.922         	2.054
MS.244         	18.885         	2.334
MS.245         	18.847         	2.002
MS.246         	18.81          	2.002
MS.247         	18.772         	2.056
MS.248         	18.735         	2.022
MS.249         	18.698         	1.998
MS.250         	18.66          	2.06
MS.251         	18.622         	1.917
MS.252         	18.585         	1.851
MS.253         	18.547         	1.851
MS.254         	18.512         	1.881
MS.255         	18.475         	2
MS.256         	18.438         	1.926
MS.257         	18.4           	1.911
MS.258         	18.365         	1.913
MS.259         	18.327         	1.942
MS.260         	18.29          	1.795
MS.261         	18.255         	1.821
MS.262         	18.217         	1.853
MS.263         	18.18          	1.764
MS.264         	18.145         	1.922
MS.265         	18.108         	1.799
MS.266         	18.073         	1.781
MS.267         	18.038         	1.776
MS.268         	18             	1.764
MS.269         	17.965         	1.813
MS.270         	17.927         	1.601
MS.271         	17.892         	1.646
MS.272         	17.858         	1.529
MS.273         	17.82          	1.41
MS.274         	17.785         	1.746
MS.275         	17.75          	1.646
MS.276         	17.715         	1.748
MS.277         	17.68          	1.569
MS.278         	17.645         	1.484
MS.279         	17.608         	1.372
MS.280         	17.573         	1.732
MS.281         	17.538         	1.613
MS.282         	17.503         	1.36
MS.283         	17.467         	1.327
MS.284         	17.432         	1.311
MS.285         	17.397         	1.293
MS.286         	17.365         	1.194
MS.287         	17.33          	1.136
MS.288         	17.295         	1.233
MS.289         	17.26          	1.025
MS.290         	17.225         	1.18
MS.291         	17.19          	1.166
MS.292         	17.157         	1.031
MS.293         	17.122         	1.029
MS.294         	17.087         	0.931
MS.295         	17.055         	1.025
MS.296         	17.02          	1.086
MS.297         	16.985         	1.021
MS.298         	16.952         	1.031
MS.299         	16.917         	0.955
MS.300         	16.885         	1.152
MS.301         	16.85          	1.025
MS.302         	16.817         	1.132
MS.303         	16.782         	0.951
MS.304         	16.75          	1.011
MS.305         	16.717         	0.937
MS.306         	16.682         	1.009
MS.307         	16.65          	0.931
MS.308         	16.618         	0.87
MS.309         	16.583         	0.947
MS.310         	16.55          	0.872
MS.311         	16.517         	0.8
MS.312         	16.485         	0.84
MS.313         	16.45          	0.935
MS.314         	16.417         	0.876
MS.315         	16.385         	0.961
MS.316         	16.352         	0.92
MS.317         	16.32          	0.802
MS.318         	16.288         	0.79
MS.319         	16.255         	0.604
MS.320         	16.222         	0.792
MS.321         	16.19          	0.673
MS.322         	16.157         	0.767
MS.323         	16.125         	0.606
MS.324         	16.092         	0.604
MS.325         	16.06          	0.504
MS.326         	16.03          	0.622
MS.327         	15.997         	0.546
MS.328         	15.965         	0.602
MS.329         	15.932         	0.542
MS.330         	15.9           	0.57
MS.331         	15.87          	0.578
MS.332         	15.837         	0.558
MS.333         	15.805         	0.558
MS.334         	15.775         	0.58
MS.335         	15.742         	0.516
MS.336         	15.712         	0.522
MS.337         	15.68          	0.546
MS.338         	15.648         	0.508
MS.339         	15.617         	0.574
MS.340         	15.585         	0.576
MS.341         	15.555         	0.532
MS.342         	15.525         	0.528
MS.343         	15.492         	0.5
MS.344         	15.462         	0.479
MS.345         	15.43          	0.504
MS.346         	15.4           	0.413
MS.347         	15.37          	0.479
MS.348         	15.34          	0.485
MS.349         	15.307         	0.502
MS.350         	15.277         	0.495
MS.351         	15.247         	0.526
MS.352         	15.217         	0.427
MS.353         	15.185         	0.485
MS.354         	15.155         	0.485
MS.355         	15.125         	0.502
MS.356         	15.095         	0.52
MS.357         	15.065         	0.479
MS.358         	15.035         	0.459
MS.359         	15.005         	0.336
MS.360         	14.975         	0.477
MS.361         	14.945         	0.397
MS.362         	14.915         	0.314
MS.363         	14.885         	0.348
MS.364         	14.855         	0.344
MS.365         	14.825         	0.34
MS.366         	14.797         	0.332
MS.367         	14.767         	0.332
MS.368         	14.737         	0.33
MS.369         	14.707         	0.308
MS.370         	14.677         	0.195
MS.371         	14.65          	0.216
MS.372         	14.62          	0.282
MS.373         	14.59          	0.211
MS.374         	14.562         	0.284
MS.375         	14.532         	0.214
MS.376         	14.502         	0.296
MS.377         	14.475         	0.306
MS.378         	14.445         	0.365
MS.379         	14.417         	0.318
MS.380         	14.387         	0.236
MS.381         	14.36          	0.246
MS.382         	14.33          	0.222
MS.383         	14.302         	0.195
MS.384         	14.273         	0.238
MS.385         	14.245         	0.199
MS.386         	14.217         	0.191
MS.387         	14.188         	0.193
MS.388         	14.16          	0.189
MS.389         	14.13          	0.189
MS.390         	14.102         	0.193
MS.391         	14.075         	0.191
MS.392         	14.047         	0.189
MS.393         	14.017         	0.189
MS.394         	13.99          	0.191
MS.395         	13.962         	0.191
MS.396         	13.935         	0.197
MS.397         	13.907         	0.189
MS.398         	13.88          	0.175
MS.399         	13.852         	0.185
MS.400         	13.822         	0.171
MS.401         	13.795         	0.167
MS.402         	13.767         	0.197
MS.403         	13.74          	0.133
MS.404         	13.712         	0.171
MS.405         	13.685         	0.185
MS.406         	13.66          	0.161
MS.407         	13.632         	0.171
MS.408         	13.605         	0.195
MS.409         	13.577         	0.179
MS.410         	13.55          	0.147
MS.411         	13.523         	0.177
MS.412         	13.495         	0.137
MS.413         	13.47          	0.276
MS.414         	13.443         	0.205
MS.415         	13.415         	0.169
MS.416         	13.387         	0.191
MS.417         	13.362         	0.163
MS.418         	13.335         	0.163
MS.419         	13.307         	0.205
MS.420         	13.282         	0.175
MS.421         	13.255         	0.117
MS.422         	13.227         	0.141
MS.423         	13.202         	0.165
MS.424         	13.175         	0.155
MS.425         	13.15          	0.119
MS.426         	13.122         	0.145
MS.427         	13.097         	0.161
MS.428         	13.07          	0.117
MS.429         	13.045         	0.127
MS.430         	13.017         	0.125
MS.431         	12.992         	0.123
MS.432         	12.967         	0.133
MS.433         	12.94          	0.127
MS.434         	12.915         	0.113
MS.435         	12.89          	0.127
MS.436         	12.862         	0.127
MS.437         	12.837         	0.103
MS.438         	12.812         	0.129
MS.439         	12.787         	0.107
MS.440         	12.76          	0.093
MS.441         	12.735         	0.101
MS.442         	12.71          	0.101
MS.443         	12.685         	0.087
MS.444         	12.66          	0.101
MS.445         	12.635         	0.117
MS.446         	12.608         	0.099
MS.447         	12.582         	0.089
MS.448         	12.557         	0.099
MS.449         	12.532         	0.079
MS.450         	12.507         	0.095
MS.451         	12.483         	0.101
MS.452         	12.457         	0.083
MS.453         	12.432         	0.083
MS.454         	12.407         	0.081
MS.455         	12.385         	0.081
MS.456         	12.36          	0.064
MS.457         	12.335         	0.06
MS.458         	12.31          	0.083
MS.459         	12.285         	0.058
MS.460         	12.26          	0.054
MS.461         	12.235         	0.054
MS.462         	12.212         	0.062
MS.463         	12.188         	0.058
MS.464         	12.162         	0.05
MS.465         	12.137         	0.07
MS.466         	12.115         	0.056
MS.467         	12.09          	0.044
MS.468         	12.065         	0.056
MS.469         	12.042         	0.056
MS.470         	12.017         	0.058
MS.471         	11.995         	0.046
MS.472         	11.97          	0.056
MS.473         	11.945         	0.056
MS.474         	11.922         	0.056
MS.475         	11.898         	0.048
MS.476         	11.875         	0.044
MS.477         	11.85          	0.052
MS.478         	11.827         	0.046
MS.479         	11.802         	0.048
MS.480         	11.78          	0.052
MS.481         	11.757         	0.048
MS.482         	11.733         	0.048
MS.483         	11.71          	0.044
MS.484         	11.685         	0.046
MS.485         	11.662         	0.038
MS.486         	11.64          	0.046
MS.487         	11.615         	0.038
MS.488         	11.592         	0.05
MS.489         	11.57          	0.042
MS.490         	11.547         	0.05
MS.491         	11.523         	0.048
MS.492         	11.5           	0.048
MS.493         	11.477         	0.052
MS.494         	11.455         	0.044
MS.495         	11.432         	0.04
MS.496         	11.41          	0.046
MS.497         	11.385         	0.05
MS.498         	11.363         	0.06
MS.499         	11.34          	0.044
MS.500         	11.318         	0.05
MS.501         	11.295         	0.044
