File:              	C:\Qtrac\Data\Daniel M Sørensen\MScan multicentre study\Data from centres\Aarhus\Processed data\DMSB91205A.QZD
Name:              	DK.AAR.NC.6.2
Protocol:          	MSCAN-R2
Date:              	5/12/19
Start time:        	10:46:30
Age:               	66
Sex:               	f
Temperature:       	34,4
S/R sites:         	APB
NC/disease:        	Control
Operator:          	DS
Comments:
M-SCAN DATA (10.4-3.1m)
Scanpts: 164, 177, 727, 753
Stim. (mA)     	Amp. (mV)
MS.1           	30             	7.968
MS.2           	30             	7.972
MS.3           	30             	7.978
MS.4           	30             	7.956
MS.5           	30             	7.932
MS.6           	30             	7.956
MS.7           	30             	7.948
MS.8           	30             	7.952
MS.9           	30             	7.954
MS.10          	30             	7.95
MS.11          	30             	7.95
MS.12          	30             	7.95
MS.13          	30             	7.944
MS.14          	30             	7.942
MS.15          	30             	7.936
MS.16          	30             	7.94
MS.17          	30             	7.924
MS.18          	30             	7.958
MS.19          	30             	7.956
MS.20          	30             	7.946
MS.21          	30             	7.962
MS.22          	30             	7.952
MS.23          	30             	7.974
MS.24          	29.88          	7.97
MS.25          	29.76          	7.98
MS.26          	29.702         	7.998
MS.27          	29.642         	7.998
MS.28          	29.582         	7.986
MS.29          	29.522         	8.002
MS.30          	29.465         	7.998
MS.31          	29.405         	8.004
MS.32          	29.347         	7.996
MS.33          	29.287         	7.996
MS.34          	29.23          	8.004
MS.35          	29.172         	7.998
MS.36          	29.112         	8.008
MS.37          	29.055         	7.998
MS.38          	28.997         	7.994
MS.39          	28.94          	8.008
MS.40          	28.882         	7.996
MS.41          	28.823         	8
MS.42          	28.765         	8.016
MS.43          	28.707         	8.012
MS.44          	28.65          	8.012
MS.45          	28.595         	8.004
MS.46          	28.537         	8.01
MS.47          	28.48          	8.018
MS.48          	28.422         	8.002
MS.49          	28.365         	8.012
MS.50          	28.31          	8.012
MS.51          	28.252         	8.016
MS.52          	28.198         	8.006
MS.53          	28.14          	8.02
MS.54          	28.085         	8.02
MS.55          	28.028         	8.016
MS.56          	27.972         	8.01
MS.57          	27.915         	8.018
MS.58          	27.86          	7.998
MS.59          	27.805         	8.006
MS.60          	27.75          	8.02
MS.61          	27.692         	8.022
MS.62          	27.637         	8.02
MS.63          	27.582         	8.016
MS.64          	27.528         	8.01
MS.65          	27.472         	8.02
MS.66          	27.417         	8.022
MS.67          	27.362         	8.026
MS.68          	27.307         	8.026
MS.69          	27.255         	8.016
MS.70          	27.2           	8.036
MS.71          	27.145         	8.028
MS.72          	27.09          	8.02
MS.73          	27.037         	8.026
MS.74          	26.983         	8.032
MS.75          	26.927         	8.026
MS.76          	26.875         	8.039
MS.77          	26.82          	8.03
MS.78          	26.767         	8.01
MS.79          	26.715         	8.028
MS.80          	26.66          	8.014
MS.81          	26.608         	8.006
MS.82          	26.555         	8.01
MS.83          	26.502         	8.014
MS.84          	26.448         	8.004
MS.85          	26.395         	8
MS.86          	26.342         	8.014
MS.87          	26.29          	8.002
MS.88          	26.237         	8.004
MS.89          	26.185         	8.008
MS.90          	26.132         	8.008
MS.91          	26.08          	8.008
MS.92          	26.028         	8.004
MS.93          	25.977         	8.01
MS.94          	25.925         	8.008
MS.95          	25.872         	7.996
MS.96          	25.82          	8.006
MS.97          	25.77          	8.02
MS.98          	25.717         	8.018
MS.99          	25.667         	8.016
MS.100         	25.615         	8.012
MS.101         	25.565         	8.032
MS.102         	25.512         	8.03
MS.103         	25.462         	8.012
MS.104         	25.413         	8.026
MS.105         	25.36          	8.024
MS.106         	25.31          	8.026
MS.107         	25.26          	8.022
MS.108         	25.21          	8.024
MS.109         	25.157         	8.034
MS.110         	25.108         	8.045
MS.111         	25.057         	8.018
MS.112         	25.007         	8.026
MS.113         	24.957         	8.032
MS.114         	24.907         	8.028
MS.115         	24.858         	8.03
MS.116         	24.807         	8.03
MS.117         	24.76          	8.032
MS.118         	24.71          	8.043
MS.119         	24.66          	8.026
MS.120         	24.61          	8.036
MS.121         	24.562         	8.03
MS.122         	24.512         	8.039
MS.123         	24.465         	8.028
MS.124         	24.415         	7.998
MS.125         	24.365         	8.032
MS.126         	24.317         	8.028
MS.127         	24.27          	8.036
MS.128         	24.22          	8.053
MS.129         	24.172         	8.039
MS.130         	24.122         	8.03
MS.131         	24.075         	8.028
MS.132         	24.028         	8.03
MS.133         	23.98          	8.03
MS.134         	23.932         	8.01
MS.135         	23.882         	8.002
MS.136         	23.835         	8.03
MS.137         	23.788         	8.036
MS.138         	23.74          	8.02
MS.139         	23.692         	7.998
MS.140         	23.645         	8.036
MS.141         	23.597         	8.006
MS.142         	23.552         	8.014
MS.143         	23.505         	8.012
MS.144         	23.457         	8.039
MS.145         	23.41          	8.01
MS.146         	23.365         	8.006
MS.147         	23.317         	8.024
MS.148         	23.27          	8.051
MS.149         	23.225         	8.032
MS.150         	23.177         	8.004
MS.151         	23.132         	8.036
MS.152         	23.085         	8.036
MS.153         	23.04          	8.039
MS.154         	22.993         	8.045
MS.155         	22.948         	8.032
MS.156         	22.903         	8.053
MS.157         	22.855         	8.034
MS.158         	22.81          	8.02
MS.159         	22.765         	8.073
MS.160         	22.72          	8.067
MS.161         	22.672         	8.043
MS.162         	22.627         	8.057
MS.163         	22.582         	8.043
MS.164         	22.538         	8.049
MS.165         	22.493         	8.061
MS.166         	22.448         	8.049
MS.167         	22.403         	8.049
MS.168         	22.358         	8.051
MS.169         	22.312         	8.049
MS.170         	22.27          	8.059
MS.171         	22.225         	8.073
MS.172         	22.18          	8.067
MS.173         	22.135         	8.063
MS.174         	22.092         	8.061
MS.175         	22.047         	8.077
MS.176         	22.002         	8.059
MS.177         	21.96          	8.081
MS.178         	21.915         	8.073
MS.179         	21.872         	8.063
MS.180         	21.827         	8.059
MS.181         	21.785         	8.061
MS.182         	21.74          	8.099
MS.183         	21.698         	8.093
MS.184         	21.655         	8.067
MS.185         	21.61          	8.071
MS.186         	21.567         	8.083
MS.187         	21.525         	8.079
MS.188         	21.483         	8.061
MS.189         	21.438         	8.063
MS.190         	21.395         	8.061
MS.191         	21.352         	8.065
MS.192         	21.31          	8.047
MS.193         	21.267         	8.045
MS.194         	21.225         	8.039
MS.195         	21.182         	7.896
MS.196         	21.14          	8.063
MS.197         	21.097         	7.879
MS.198         	21.055         	7.883
MS.199         	21.015         	8.053
MS.200         	20.972         	7.871
MS.201         	20.93          	8.057
MS.202         	20.887         	8.057
MS.203         	20.847         	7.883
MS.204         	20.805         	7.877
MS.205         	20.762         	7.873
MS.206         	20.722         	7.813
MS.207         	20.68          	7.881
MS.208         	20.64          	7.813
MS.209         	20.597         	7.873
MS.210         	20.557         	7.499
MS.211         	20.515         	7.819
MS.212         	20.475         	7.827
MS.213         	20.435         	7.823
MS.214         	20.392         	7.458
MS.215         	20.352         	7.821
MS.216         	20.312         	7.289
MS.217         	20.27          	7.835
MS.218         	20.23          	7.837
MS.219         	20.19          	7.203
MS.220         	20.15          	7.607
MS.221         	20.11          	7.247
MS.222         	20.07          	7.46
MS.223         	20.03          	7.821
MS.224         	19.99          	7.215
MS.225         	19.95          	7.243
MS.226         	19.91          	7.225
MS.227         	19.87          	7.227
MS.228         	19.83          	7.231
MS.229         	19.79          	6.699
MS.230         	19.75          	6.683
MS.231         	19.712         	6.955
MS.232         	19.672         	6.693
MS.233         	19.632         	6.981
MS.234         	19.592         	6.701
MS.235         	19.555         	7.219
MS.236         	19.515         	6.697
MS.237         	19.475         	6.701
MS.238         	19.438         	6.578
MS.239         	19.397         	6.695
MS.240         	19.36          	6.697
MS.241         	19.32          	6.665
MS.242         	19.282         	6.673
MS.243         	19.245         	6.556
MS.244         	19.205         	6.689
MS.245         	19.167         	6.679
MS.246         	19.13          	6.637
MS.247         	19.09          	6.643
MS.248         	19.052         	6.643
MS.249         	19.015         	6.494
MS.250         	18.977         	6.51
MS.251         	18.938         	6.5
MS.252         	18.9           	6.5
MS.253         	18.862         	6.5
MS.254         	18.825         	6.498
MS.255         	18.788         	6.492
MS.256         	18.75          	6.53
MS.257         	18.712         	6.471
MS.258         	18.675         	6.504
MS.259         	18.637         	6.51
MS.260         	18.6           	6.49
MS.261         	18.562         	6.51
MS.262         	18.528         	6.506
MS.263         	18.49          	6.498
MS.264         	18.452         	6.514
MS.265         	18.415         	6.494
MS.266         	18.378         	6.463
MS.267         	18.342         	6.465
MS.268         	18.305         	6.401
MS.269         	18.27          	6.443
MS.270         	18.233         	6.441
MS.271         	18.195         	6.486
MS.272         	18.16          	6.385
MS.273         	18.122         	6.373
MS.274         	18.087         	6.443
MS.275         	18.05          	6.439
MS.276         	18.015         	6.461
MS.277         	17.98          	6.345
MS.278         	17.942         	6.395
MS.279         	17.907         	6.222
MS.280         	17.87          	6.139
MS.281         	17.835         	6.387
MS.282         	17.8           	6.288
MS.283         	17.765         	6.218
MS.284         	17.73          	6.075
MS.285         	17.692         	6.129
MS.286         	17.657         	6.28
MS.287         	17.622         	5.901
MS.288         	17.587         	6.19
MS.289         	17.552         	6.073
MS.290         	17.517         	5.795
MS.291         	17.483         	6.063
MS.292         	17.448         	6.131
MS.293         	17.413         	5.839
MS.294         	17.378         	5.775
MS.295         	17.342         	5.803
MS.296         	17.307         	5.809
MS.297         	17.275         	6.038
MS.298         	17.24          	5.754
MS.299         	17.205         	5.767
MS.300         	17.17          	5.738
MS.301         	17.135         	5.791
MS.302         	17.102         	5.646
MS.303         	17.067         	5.736
MS.304         	17.032         	5.632
MS.305         	17             	5.706
MS.306         	16.965         	5.662
MS.307         	16.932         	5.666
MS.308         	16.897         	5.676
MS.309         	16.865         	5.652
MS.310         	16.83          	5.404
MS.311         	16.797         	5.295
MS.312         	16.762         	5.454
MS.313         	16.73          	5.319
MS.314         	16.698         	5.378
MS.315         	16.663         	5.102
MS.316         	16.63          	5.154
MS.317         	16.597         	5.039
MS.318         	16.562         	5.108
MS.319         	16.53          	5.118
MS.320         	16.497         	5.039
MS.321         	16.465         	4.888
MS.322         	16.432         	4.772
MS.323         	16.397         	4.81
MS.324         	16.365         	4.858
MS.325         	16.333         	4.86
MS.326         	16.3           	4.909
MS.327         	16.267         	4.955
MS.328         	16.235         	4.826
MS.329         	16.202         	4.836
MS.330         	16.17          	4.882
MS.331         	16.137         	4.866
MS.332         	16.105         	4.957
MS.333         	16.075         	4.81
MS.334         	16.042         	4.866
MS.335         	16.01          	4.727
MS.336         	15.977         	4.659
MS.337         	15.945         	4.834
MS.338         	15.915         	4.552
MS.339         	15.882         	4.548
MS.340         	15.85          	4.677
MS.341         	15.818         	4.755
MS.342         	15.787         	4.614
MS.343         	15.755         	4.522
MS.344         	15.725         	4.703
MS.345         	15.693         	4.582
MS.346         	15.662         	4.381
MS.347         	15.63          	4.274
MS.348         	15.6           	4.389
MS.349         	15.568         	4.306
MS.350         	15.537         	4.391
MS.351         	15.505         	4.248
MS.352         	15.475         	4.139
MS.353         	15.443         	4.165
MS.354         	15.412         	3.857
MS.355         	15.382         	4.044
MS.356         	15.35          	4.103
MS.357         	15.32          	3.833
MS.358         	15.29          	4.032
MS.359         	15.26          	3.895
MS.360         	15.23          	3.702
MS.361         	15.197         	3.793
MS.362         	15.167         	3.944
MS.363         	15.137         	3.831
MS.364         	15.108         	3.652
MS.365         	15.077         	3.499
MS.366         	15.047         	3.454
MS.367         	15.017         	3.267
MS.368         	14.987         	3.497
MS.369         	14.957         	3.503
MS.370         	14.927         	3.476
MS.371         	14.898         	3.35
MS.372         	14.867         	3.484
MS.373         	14.837         	3.291
MS.374         	14.807         	3.305
MS.375         	14.78          	3.559
MS.376         	14.75          	3.237
MS.377         	14.72          	3.08
MS.378         	14.69          	2.818
MS.379         	14.66          	2.961
MS.380         	14.632         	3.086
MS.381         	14.602         	2.939
MS.382         	14.572         	3.029
MS.383         	14.545         	3.049
MS.384         	14.515         	3.005
MS.385         	14.485         	2.836
MS.386         	14.457         	2.89
MS.387         	14.427         	2.838
MS.388         	14.4           	2.755
MS.389         	14.37          	2.804
MS.390         	14.342         	2.828
MS.391         	14.312         	2.759
MS.392         	14.285         	2.709
MS.393         	14.255         	2.576
MS.394         	14.227         	2.294
MS.395         	14.2           	2.471
MS.396         	14.17          	2.266
MS.397         	14.142         	2.328
MS.398         	14.115         	2.31
MS.399         	14.085         	2.397
MS.400         	14.057         	2.21
MS.401         	14.03          	2.344
MS.402         	14.002         	2.115
MS.403         	13.975         	1.998
MS.404         	13.945         	2.147
MS.405         	13.917         	2.115
MS.406         	13.89          	2.103
MS.407         	13.862         	2.123
MS.408         	13.835         	1.94
MS.409         	13.807         	1.94
MS.410         	13.78          	1.75
MS.411         	13.752         	1.964
MS.412         	13.725         	1.964
MS.413         	13.697         	1.795
MS.414         	13.67          	1.648
MS.415         	13.642         	1.702
MS.416         	13.615         	1.756
MS.417         	13.587         	1.682
MS.418         	13.56          	1.47
MS.419         	13.535         	1.557
MS.420         	13.507         	1.698
MS.421         	13.48          	1.48
MS.422         	13.452         	1.527
MS.423         	13.425         	1.7
MS.424         	13.4           	1.559
MS.425         	13.372         	1.337
MS.426         	13.345         	1.271
MS.427         	13.32          	1.275
MS.428         	13.292         	1.452
MS.429         	13.265         	1.305
MS.430         	13.24          	1.297
MS.431         	13.212         	1.206
MS.432         	13.188         	0.852
MS.433         	13.16          	0.943
MS.434         	13.135         	1.001
MS.435         	13.108         	1.023
MS.436         	13.082         	0.87
MS.437         	13.055         	0.896
MS.438         	13.03          	0.868
MS.439         	13.002         	0.814
MS.440         	12.977         	0.916
MS.441         	12.952         	0.874
MS.442         	12.925         	0.854
MS.443         	12.9           	0.796
MS.444         	12.875         	0.862
MS.445         	12.847         	0.804
MS.446         	12.822         	0.707
MS.447         	12.797         	0.777
MS.448         	12.77          	0.665
MS.449         	12.745         	0.659
MS.450         	12.72          	0.657
MS.451         	12.695         	0.727
MS.452         	12.67          	0.739
MS.453         	12.645         	0.667
MS.454         	12.62          	0.663
MS.455         	12.592         	0.655
MS.456         	12.568         	0.572
MS.457         	12.542         	0.568
MS.458         	12.517         	0.568
MS.459         	12.492         	0.659
MS.460         	12.467         	0.578
MS.461         	12.443         	0.53
MS.462         	12.417         	0.542
MS.463         	12.395         	0.554
MS.464         	12.37          	0.582
MS.465         	12.345         	0.556
MS.466         	12.32          	0.576
MS.467         	12.295         	0.582
MS.468         	12.27          	0.536
MS.469         	12.245         	0.572
MS.470         	12.222         	0.556
MS.471         	12.197         	0.598
MS.472         	12.172         	0.502
MS.473         	12.148         	0.491
MS.474         	12.125         	0.558
MS.475         	12.1           	0.556
MS.476         	12.075         	0.532
MS.477         	12.052         	0.385
MS.478         	12.028         	0.375
MS.479         	12.002         	0.554
MS.480         	11.98          	0.566
MS.481         	11.955         	0.554
MS.482         	11.932         	0.411
MS.483         	11.907         	0.306
MS.484         	11.885         	0.518
MS.485         	11.86          	0.282
MS.486         	11.837         	0.401
MS.487         	11.812         	0.524
MS.488         	11.79          	0.409
MS.489         	11.765         	0.29
MS.490         	11.742         	0.153
MS.491         	11.72          	0.512
MS.492         	11.695         	0.145
MS.493         	11.672         	0.133
MS.494         	11.648         	0.151
MS.495         	11.625         	0.149
MS.496         	11.602         	0.149
MS.497         	11.58          	0.147
MS.498         	11.555         	0.145
MS.499         	11.532         	0.153
MS.500         	11.51          	0.139
MS.501         	11.488         	0.133
