File:              	C:\Qtrac\Data\Daniel M Sørensen\MScan multicentre study\Data from centres\Aarhus\Processed data\DMSB91202C (2).QZD
Name:              	DK.AAR.NC.11.1
Protocol:          	MSCAN-R2
Date:              	2/12/19
Start time:        	15:24:41
Age:               	80
Sex:               	f
Temperature:       	34,3
S/R sites:         	TA
NC/disease:        	Controle
Operator:          	DS
Comments:
M-SCAN DATA (4.1-0.0m)
Scanpts: 11, 30, 1039, 1090
Stim. (mA)     	Amp. (mV)
MS.1           	31.5           	7.197
MS.2           	31.5           	7.245
MS.3           	31.375         	7.211
MS.4           	31.312         	7.253
MS.5           	31.25          	7.269
MS.6           	31.188         	7.174
MS.7           	31.125         	7.217
MS.8           	31.062         	7.209
MS.9           	31             	7.142
MS.10          	30.938         	7.205
MS.11          	30.875         	7.172
MS.12          	30.815         	7.062
MS.13          	30.752         	7.104
MS.14          	30.692         	7.16
MS.15          	30.63          	7.289
MS.16          	30.57          	7.263
MS.17          	30.507         	7.189
MS.18          	30.448         	7.12
MS.19          	30.385         	7.255
MS.20          	30.325         	7.14
MS.21          	30.265         	7.285
MS.22          	30.205         	7.227
MS.23          	30.145         	7.132
MS.24          	30.082         	7.138
MS.25          	30.022         	7.249
MS.26          	29.962         	7.176
MS.27          	29.903         	7.195
MS.28          	29.845         	7.108
MS.29          	29.785         	7.09
MS.30          	29.725         	7.136
MS.31          	29.665         	7.144
MS.32          	29.605         	7.16
MS.33          	29.547         	7.118
MS.34          	29.487         	7.042
MS.35          	29.43          	7.166
MS.36          	29.37          	7.168
MS.37          	29.312         	7.126
MS.38          	29.252         	7.241
MS.39          	29.195         	7.162
MS.40          	29.137         	7.15
MS.41          	29.077         	7.189
MS.42          	29.02          	7.156
MS.43          	28.962         	7.17
MS.44          	28.905         	7.046
MS.45          	28.847         	7.17
MS.46          	28.787         	7.247
MS.47          	28.73          	7.126
MS.48          	28.675         	7.17
MS.49          	28.618         	7.158
MS.50          	28.56          	7.197
MS.51          	28.502         	7.136
MS.52          	28.445         	7.037
MS.53          	28.387         	7.116
MS.54          	28.332         	7.261
MS.55          	28.275         	7.213
MS.56          	28.217         	7.023
MS.57          	28.162         	7.207
MS.58          	28.105         	7.052
MS.59          	28.05          	7.007
MS.60          	27.995         	7.197
MS.61          	27.938         	7.112
MS.62          	27.882         	7.007
MS.63          	27.827         	7.18
MS.64          	27.77          	7.142
MS.65          	27.715         	7.203
MS.66          	27.66          	7.265
MS.67          	27.605         	7.182
MS.68          	27.55          	6.963
MS.69          	27.495         	7.072
MS.70          	27.44          	7.247
MS.71          	27.385         	7.197
MS.72          	27.33          	7.17
MS.73          	27.275         	7.06
MS.74          	27.22          	7.072
MS.75          	27.167         	7.023
MS.76          	27.112         	7.178
MS.77          	27.057         	7.066
MS.78          	27.005         	7.209
MS.79          	26.95          	7.132
MS.80          	26.895         	7.126
MS.81          	26.842         	6.957
MS.82          	26.79          	6.989
MS.83          	26.735         	7.12
MS.84          	26.682         	7.215
MS.85          	26.627         	7.374
MS.86          	26.575         	7.144
MS.87          	26.522         	7.158
MS.88          	26.47          	7.154
MS.89          	26.417         	7.187
MS.90          	26.362         	7.197
MS.91          	26.31          	7.134
MS.92          	26.257         	7.209
MS.93          	26.205         	7.172
MS.94          	26.153         	7.154
MS.95          	26.102         	7.257
MS.96          	26.05          	7.104
MS.97          	25.997         	7.197
MS.98          	25.945         	7.148
MS.99          	25.892         	7.088
MS.100         	25.842         	7.044
MS.101         	25.79          	7.084
MS.102         	25.737         	7.031
MS.103         	25.688         	7.263
MS.104         	25.635         	7.299
MS.105         	25.585         	7.09
MS.106         	25.532         	6.989
MS.107         	25.483         	7.037
MS.108         	25.432         	7.104
MS.109         	25.38          	7.176
MS.110         	25.33          	7.082
MS.111         	25.28          	7.11
MS.112         	25.227         	7.144
MS.113         	25.177         	7.189
MS.114         	25.127         	7.249
MS.115         	25.077         	7.08
MS.116         	25.028         	7.108
MS.117         	24.977         	7.193
MS.118         	24.927         	7.251
MS.119         	24.877         	7.102
MS.120         	24.827         	7.148
MS.121         	24.778         	7.207
MS.122         	24.73          	7.015
MS.123         	24.68          	7.074
MS.124         	24.63          	6.975
MS.125         	24.58          	7.094
MS.126         	24.532         	7.084
MS.127         	24.483         	7.062
MS.128         	24.435         	7.07
MS.129         	24.385         	7.277
MS.130         	24.337         	7.062
MS.131         	24.288         	7.15
MS.132         	24.24          	7.253
MS.133         	24.19          	7.185
MS.134         	24.142         	7.269
MS.135         	24.095         	7.078
MS.136         	24.047         	7.074
MS.137         	23.997         	7.136
MS.138         	23.95          	7.118
MS.139         	23.903         	7.176
MS.140         	23.855         	7.086
MS.141         	23.807         	6.989
MS.142         	23.76          	7.154
MS.143         	23.712         	7.09
MS.144         	23.665         	7.164
MS.145         	23.618         	7.154
MS.146         	23.57          	7.102
MS.147         	23.522         	7.243
MS.148         	23.475         	7.003
MS.149         	23.43          	7.052
MS.150         	23.382         	7.213
MS.151         	23.335         	7.076
MS.152         	23.29          	7.021
MS.153         	23.243         	7.044
MS.154         	23.195         	7.118
MS.155         	23.15          	7.035
MS.156         	23.102         	7.031
MS.157         	23.057         	7.118
MS.158         	23.01          	7.084
MS.159         	22.965         	7.235
MS.160         	22.92          	7.039
MS.161         	22.872         	7.082
MS.162         	22.827         	7.039
MS.163         	22.782         	7.217
MS.164         	22.737         	7.074
MS.165         	22.692         	7.152
MS.166         	22.645         	7.12
MS.167         	22.6           	7.12
MS.168         	22.555         	7.052
MS.169         	22.51          	6.965
MS.170         	22.465         	7.037
MS.171         	22.42          	6.985
MS.172         	22.375         	6.987
MS.173         	22.33          	7.124
MS.174         	22.288         	7.001
MS.175         	22.243         	7.191
MS.176         	22.198         	7.019
MS.177         	22.153         	7.152
MS.178         	22.11          	7.037
MS.179         	22.065         	7.116
MS.180         	22.02          	6.967
MS.181         	21.977         	7.027
MS.182         	21.932         	7.146
MS.183         	21.89          	7.09
MS.184         	21.845         	7.128
MS.185         	21.802         	7.042
MS.186         	21.757         	7.092
MS.187         	21.715         	7.039
MS.188         	21.67          	7.017
MS.189         	21.627         	7.126
MS.190         	21.585         	7.054
MS.191         	21.542         	7.035
MS.192         	21.497         	6.999
MS.193         	21.455         	7.148
MS.194         	21.413         	7.225
MS.195         	21.37          	7.042
MS.196         	21.327         	7.237
MS.197         	21.285         	7.142
MS.198         	21.243         	7.086
MS.199         	21.2           	7.086
MS.200         	21.157         	7.076
MS.201         	21.115         	7.233
MS.202         	21.073         	7.039
MS.203         	21.03          	7.112
MS.204         	20.987         	7.096
MS.205         	20.948         	7.015
MS.206         	20.905         	6.913
MS.207         	20.862         	7.102
MS.208         	20.823         	7.015
MS.209         	20.78          	7.088
MS.210         	20.737         	7.054
MS.211         	20.698         	7.102
MS.212         	20.655         	7.003
MS.213         	20.615         	7.128
MS.214         	20.573         	6.961
MS.215         	20.532         	6.993
MS.216         	20.49          	6.943
MS.217         	20.45          	7.056
MS.218         	20.41          	7.108
MS.219         	20.368         	7.191
MS.220         	20.327         	7.046
MS.221         	20.288         	6.911
MS.222         	20.247         	7.05
MS.223         	20.205         	7.054
MS.224         	20.165         	7.029
MS.225         	20.125         	7.122
MS.226         	20.085         	6.923
MS.227         	20.045         	7.046
MS.228         	20.005         	7.142
MS.229         	19.965         	7.062
MS.230         	19.925         	7.14
MS.231         	19.885         	6.955
MS.232         	19.845         	7.039
MS.233         	19.805         	7.098
MS.234         	19.767         	6.967
MS.235         	19.727         	6.991
MS.236         	19.688         	7.021
MS.237         	19.647         	7.031
MS.238         	19.61          	6.943
MS.239         	19.57          	7.029
MS.240         	19.53          	7.048
MS.241         	19.493         	6.973
MS.242         	19.452         	7.052
MS.243         	19.415         	7.078
MS.244         	19.375         	6.878
MS.245         	19.337         	7.025
MS.246         	19.297         	6.83
MS.247         	19.26          	6.941
MS.248         	19.22          	6.923
MS.249         	19.182         	6.983
MS.250         	19.145         	6.882
MS.251         	19.105         	6.903
MS.252         	19.067         	6.784
MS.253         	19.03          	6.923
MS.254         	18.993         	6.901
MS.255         	18.952         	7.011
MS.256         	18.915         	6.846
MS.257         	18.877         	6.844
MS.258         	18.84          	6.884
MS.259         	18.802         	6.921
MS.260         	18.765         	6.844
MS.261         	18.727         	6.832
MS.262         	18.69          	6.973
MS.263         	18.653         	6.828
MS.264         	18.615         	6.864
MS.265         	18.577         	6.784
MS.266         	18.54          	6.774
MS.267         	18.505         	6.735
MS.268         	18.467         	6.751
MS.269         	18.43          	6.737
MS.270         	18.392         	6.753
MS.271         	18.358         	6.878
MS.272         	18.32          	6.592
MS.273         	18.282         	6.876
MS.274         	18.247         	6.818
MS.275         	18.21          	6.852
MS.276         	18.175         	6.737
MS.277         	18.137         	6.88
MS.278         	18.102         	6.798
MS.279         	18.065         	6.792
MS.280         	18.03          	6.796
MS.281         	17.993         	6.868
MS.282         	17.958         	6.77
MS.283         	17.92          	6.911
MS.284         	17.885         	6.931
MS.285         	17.85          	6.596
MS.286         	17.815         	6.681
MS.287         	17.778         	6.743
MS.288         	17.743         	6.592
MS.289         	17.708         	6.663
MS.290         	17.672         	6.735
MS.291         	17.637         	6.633
MS.292         	17.602         	6.582
MS.293         	17.567         	6.407
MS.294         	17.53          	6.663
MS.295         	17.495         	6.463
MS.296         	17.46          	6.552
MS.297         	17.427         	6.439
MS.298         	17.392         	6.413
MS.299         	17.358         	6.524
MS.300         	17.323         	6.518
MS.301         	17.288         	6.308
MS.302         	17.253         	6.244
MS.303         	17.217         	6.339
MS.304         	17.185         	6.238
MS.305         	17.15          	6.306
MS.306         	17.115         	6.252
MS.307         	17.083         	6.316
MS.308         	17.047         	6.089
MS.309         	17.012         	6.109
MS.310         	16.98          	6.183
MS.311         	16.945         	6.262
MS.312         	16.913         	6.246
MS.313         	16.878         	6.246
MS.314         	16.845         	6.264
MS.315         	16.81          	6.115
MS.316         	16.778         	6.198
MS.317         	16.743         	6.143
MS.318         	16.71          	6.228
MS.319         	16.675         	6.115
MS.320         	16.642         	6.143
MS.321         	16.61          	6.169
MS.322         	16.577         	6.163
MS.323         	16.542         	6.298
MS.324         	16.51          	6.159
MS.325         	16.477         	6.083
MS.326         	16.445         	6.198
MS.327         	16.413         	6.063
MS.328         	16.378         	6.061
MS.329         	16.345         	6.044
MS.330         	16.312         	6.167
MS.331         	16.28          	6.155
MS.332         	16.247         	6.038
MS.333         	16.215         	6.042
MS.334         	16.182         	5.99
MS.335         	16.15          	6.141
MS.336         	16.118         	6.038
MS.337         	16.087         	6.075
MS.338         	16.055         	6.065
MS.339         	16.022         	5.918
MS.340         	15.99          	5.972
MS.341         	15.957         	5.99
MS.342         	15.927         	6.143
MS.343         	15.895         	6.117
MS.344         	15.862         	6.006
MS.345         	15.83          	6.042
MS.346         	15.8           	6.004
MS.347         	15.767         	6.042
MS.348         	15.737         	5.964
MS.349         	15.705         	5.889
MS.350         	15.672         	6.073
MS.351         	15.642         	6.139
MS.352         	15.61          	6.047
MS.353         	15.58          	6.149
MS.354         	15.55          	6.051
MS.355         	15.517         	6.016
MS.356         	15.487         	6.01
MS.357         	15.455         	5.93
MS.358         	15.425         	5.891
MS.359         	15.395         	6.105
MS.360         	15.362         	6.01
MS.361         	15.332         	5.883
MS.362         	15.302         	5.914
MS.363         	15.273         	5.887
MS.364         	15.24          	5.946
MS.365         	15.21          	5.861
MS.366         	15.18          	6.016
MS.367         	15.15          	5.867
MS.368         	15.12          	5.916
MS.369         	15.09          	5.865
MS.370         	15.06          	5.843
MS.371         	15.03          	5.859
MS.372         	15             	5.825
MS.373         	14.97          	5.853
MS.374         	14.94          	5.801
MS.375         	14.91          	5.801
MS.376         	14.88          	5.779
MS.377         	14.85          	5.827
MS.378         	14.82          	5.942
MS.379         	14.79          	5.799
MS.380         	14.76          	5.853
MS.381         	14.733         	5.819
MS.382         	14.702         	5.775
MS.383         	14.672         	5.805
MS.384         	14.642         	5.76
MS.385         	14.615         	5.849
MS.386         	14.585         	5.799
MS.387         	14.555         	5.823
MS.388         	14.527         	5.785
MS.389         	14.497         	5.668
MS.390         	14.467         	5.698
MS.391         	14.44          	5.71
MS.392         	14.41          	5.724
MS.393         	14.382         	5.704
MS.394         	14.352         	5.678
MS.395         	14.325         	5.742
MS.396         	14.295         	5.704
MS.397         	14.267         	5.736
MS.398         	14.24          	5.714
MS.399         	14.21          	5.666
MS.400         	14.182         	5.672
MS.401         	14.155         	5.696
MS.402         	14.125         	5.682
MS.403         	14.097         	5.66
MS.404         	14.07          	5.678
MS.405         	14.04          	5.726
MS.406         	14.012         	5.662
MS.407         	13.985         	5.706
MS.408         	13.957         	5.71
MS.409         	13.93          	5.66
MS.410         	13.903         	5.71
MS.411         	13.872         	5.613
MS.412         	13.845         	5.617
MS.413         	13.818         	5.688
MS.414         	13.79          	5.644
MS.415         	13.762         	5.656
MS.416         	13.735         	5.613
MS.417         	13.707         	5.646
MS.418         	13.68          	5.593
MS.419         	13.653         	5.593
MS.420         	13.625         	5.591
MS.421         	13.6           	5.589
MS.422         	13.572         	5.599
MS.423         	13.545         	5.611
MS.424         	13.517         	5.597
MS.425         	13.49          	5.666
MS.426         	13.462         	5.589
MS.427         	13.438         	5.513
MS.428         	13.41          	5.533
MS.429         	13.382         	5.444
MS.430         	13.355         	5.563
MS.431         	13.33          	5.499
MS.432         	13.302         	5.481
MS.433         	13.278         	5.511
MS.434         	13.25          	5.47
MS.435         	13.222         	5.396
MS.436         	13.197         	5.505
MS.437         	13.17          	5.622
MS.438         	13.145         	5.593
MS.439         	13.117         	5.539
MS.440         	13.092         	5.609
MS.441         	13.065         	5.583
MS.442         	13.04          	5.424
MS.443         	13.012         	5.537
MS.444         	12.987         	5.466
MS.445         	12.962         	5.507
MS.446         	12.935         	5.531
MS.447         	12.91          	5.394
MS.448         	12.885         	5.46
MS.449         	12.858         	5.499
MS.450         	12.832         	5.497
MS.451         	12.807         	5.36
MS.452         	12.782         	5.547
MS.453         	12.755         	5.35
MS.454         	12.73          	5.342
MS.455         	12.705         	5.281
MS.456         	12.68          	5.229
MS.457         	12.655         	5.503
MS.458         	12.63          	5.255
MS.459         	12.602         	5.239
MS.460         	12.577         	5.251
MS.461         	12.552         	5.325
MS.462         	12.528         	5.112
MS.463         	12.502         	5.346
MS.464         	12.477         	5.172
MS.465         	12.452         	5.239
MS.466         	12.427         	5.317
MS.467         	12.403         	5.269
MS.468         	12.38          	5.273
MS.469         	12.355         	5.245
MS.470         	12.33          	5.235
MS.471         	12.305         	5.213
MS.472         	12.28          	5.34
MS.473         	12.255         	5.132
MS.474         	12.23          	5.114
MS.475         	12.207         	5.14
MS.476         	12.182         	5.188
MS.477         	12.157         	5.199
MS.478         	12.132         	5.056
MS.479         	12.11          	5.19
MS.480         	12.085         	5.182
MS.481         	12.06          	5.025
MS.482         	12.037         	5.166
MS.483         	12.012         	5.199
MS.484         	11.99          	5.273
MS.485         	11.965         	5.249
MS.486         	11.94          	5.102
MS.487         	11.917         	5.136
MS.488         	11.892         	5.227
MS.489         	11.87          	5.271
MS.490         	11.845         	5.068
MS.491         	11.822         	5.049
MS.492         	11.797         	5.072
MS.493         	11.775         	5.013
MS.494         	11.752         	4.85
MS.495         	11.727         	4.933
MS.496         	11.705         	4.89
MS.497         	11.68          	4.915
MS.498         	11.657         	4.961
MS.499         	11.635         	4.874
MS.500         	11.613         	4.747
MS.501         	11.587         	4.957
