File:              	C:\Qtrac\Data\Daniel M Sørensen\MScan multicentre study\Data from centres\Aarhus\Processed data\DMSB91205B (2).QZD
Name:              	DK.AAR.NC.8.1
Protocol:          	MSCAN-R2
Date:              	5/12/19
Start time:        	15:42:54
Age:               	75
Sex:               	m
Temperature:       	35,2
S/R sites:         	APB
NC/disease:        	Control
Operator:          	DS
Comments:
M-SCAN DATA (7.2-1.4m)
Scanpts: 168, 185, 609, 630
Stim. (mA)     	Amp. (mV)
MS.1           	30.5           	9.461
MS.2           	30.5           	9.452
MS.3           	30.5           	9.446
MS.4           	30.5           	9.434
MS.5           	30.5           	9.42
MS.6           	30.5           	9.452
MS.7           	30.5           	9.456
MS.8           	30.5           	9.444
MS.9           	30.5           	9.438
MS.10          	30.5           	9.463
MS.11          	30.5           	9.434
MS.12          	30.5           	9.45
MS.13          	30.5           	9.42
MS.14          	30.5           	9.408
MS.15          	30.5           	9.434
MS.16          	30.5           	9.444
MS.17          	30.5           	9.442
MS.18          	30.5           	9.434
MS.19          	30.5           	9.446
MS.20          	30.5           	9.444
MS.21          	30.5           	9.45
MS.22          	30.5           	9.44
MS.23          	30.5           	9.463
MS.24          	30.377         	9.448
MS.25          	30.317         	9.452
MS.26          	30.257         	9.454
MS.27          	30.198         	9.467
MS.28          	30.135         	9.471
MS.29          	30.075         	9.463
MS.30          	30.015         	9.473
MS.31          	29.955         	9.454
MS.32          	29.895         	9.463
MS.33          	29.835         	9.469
MS.34          	29.778         	9.463
MS.35          	29.717         	9.483
MS.36          	29.657         	9.481
MS.37          	29.597         	9.475
MS.38          	29.54          	9.463
MS.39          	29.48          	9.495
MS.40          	29.422         	9.497
MS.41          	29.362         	9.493
MS.42          	29.305         	9.495
MS.43          	29.245         	9.477
MS.44          	29.188         	9.483
MS.45          	29.127         	9.489
MS.46          	29.07          	9.497
MS.47          	29.012         	9.495
MS.48          	28.955         	9.493
MS.49          	28.897         	9.505
MS.50          	28.84          	9.499
MS.51          	28.78          	9.493
MS.52          	28.722         	9.511
MS.53          	28.667         	9.507
MS.54          	28.61          	9.511
MS.55          	28.552         	9.507
MS.56          	28.495         	9.529
MS.57          	28.438         	9.499
MS.58          	28.38          	9.527
MS.59          	28.325         	9.529
MS.60          	28.267         	9.541
MS.61          	28.212         	9.541
MS.62          	28.155         	9.549
MS.63          	28.097         	9.527
MS.64          	28.042         	9.515
MS.65          	27.987         	9.519
MS.66          	27.93          	9.519
MS.67          	27.875         	9.517
MS.68          	27.82          	9.499
MS.69          	27.762         	9.515
MS.70          	27.707         	9.513
MS.71          	27.653         	9.511
MS.72          	27.597         	9.513
MS.73          	27.542         	9.521
MS.74          	27.487         	9.519
MS.75          	27.432         	9.519
MS.76          	27.377         	9.517
MS.77          	27.323         	9.507
MS.78          	27.267         	9.511
MS.79          	27.215         	9.509
MS.80          	27.16          	9.501
MS.81          	27.105         	9.458
MS.82          	27.05          	9.475
MS.83          	26.997         	9.475
MS.84          	26.942         	9.473
MS.85          	26.89          	9.428
MS.86          	26.835         	9.469
MS.87          	26.782         	9.456
MS.88          	26.727         	9.471
MS.89          	26.675         	9.473
MS.90          	26.622         	9.467
MS.91          	26.567         	9.469
MS.92          	26.515         	9.446
MS.93          	26.462         	9.452
MS.94          	26.41          	9.463
MS.95          	26.358         	9.456
MS.96          	26.305         	9.463
MS.97          	26.252         	9.461
MS.98          	26.2           	9.456
MS.99          	26.147         	9.458
MS.100         	26.095         	9.458
MS.101         	26.042         	9.469
MS.102         	25.99          	9.452
MS.103         	25.938         	9.461
MS.104         	25.887         	9.467
MS.105         	25.835         	9.456
MS.106         	25.782         	9.442
MS.107         	25.733         	9.452
MS.108         	25.68          	9.463
MS.109         	25.63          	9.458
MS.110         	25.577         	9.458
MS.111         	25.528         	9.473
MS.112         	25.475         	9.463
MS.113         	25.425         	9.452
MS.114         	25.375         	9.448
MS.115         	25.323         	9.471
MS.116         	25.272         	9.454
MS.117         	25.222         	9.469
MS.118         	25.172         	9.483
MS.119         	25.122         	9.483
MS.120         	25.073         	9.463
MS.121         	25.02          	9.487
MS.122         	24.97          	9.461
MS.123         	24.922         	9.463
MS.124         	24.872         	9.454
MS.125         	24.823         	9.438
MS.126         	24.772         	9.45
MS.127         	24.722         	9.442
MS.128         	24.672         	9.44
MS.129         	24.625         	9.428
MS.130         	24.575         	9.446
MS.131         	24.525         	9.44
MS.132         	24.477         	9.454
MS.133         	24.427         	9.44
MS.134         	24.38          	9.442
MS.135         	24.33          	9.444
MS.136         	24.282         	9.426
MS.137         	24.233         	9.444
MS.138         	24.185         	9.43
MS.139         	24.137         	9.434
MS.140         	24.087         	9.432
MS.141         	24.04          	9.42
MS.142         	23.993         	9.416
MS.143         	23.945         	9.418
MS.144         	23.897         	9.438
MS.145         	23.847         	9.432
MS.146         	23.8           	9.452
MS.147         	23.752         	9.45
MS.148         	23.705         	9.465
MS.149         	23.657         	9.461
MS.150         	23.61          	9.475
MS.151         	23.565         	9.487
MS.152         	23.517         	9.489
MS.153         	23.47          	9.495
MS.154         	23.422         	9.461
MS.155         	23.377         	9.461
MS.156         	23.33          	9.479
MS.157         	23.282         	9.491
MS.158         	23.237         	9.501
MS.159         	23.19          	9.529
MS.160         	23.142         	9.477
MS.161         	23.097         	9.495
MS.162         	23.052         	9.495
MS.163         	23.005         	9.535
MS.164         	22.96          	9.515
MS.165         	22.913         	9.529
MS.166         	22.868         	9.477
MS.167         	22.823         	9.461
MS.168         	22.778         	9.463
MS.169         	22.73          	9.463
MS.170         	22.685         	9.467
MS.171         	22.64          	9.458
MS.172         	22.595         	9.442
MS.173         	22.55          	9.42
MS.174         	22.505         	9.428
MS.175         	22.46          	9.446
MS.176         	22.415         	9.463
MS.177         	22.37          	9.467
MS.178         	22.325         	9.469
MS.179         	22.28          	9.461
MS.180         	22.235         	9.436
MS.181         	22.192         	9.473
MS.182         	22.147         	9.456
MS.183         	22.102         	9.471
MS.184         	22.06          	9.438
MS.185         	22.015         	9.448
MS.186         	21.97          	9.446
MS.187         	21.927         	9.418
MS.188         	21.882         	9.43
MS.189         	21.84          	9.416
MS.190         	21.795         	9.428
MS.191         	21.752         	9.36
MS.192         	21.71          	9.426
MS.193         	21.665         	9.428
MS.194         	21.622         	9.346
MS.195         	21.58          	9.422
MS.196         	21.535         	9.428
MS.197         	21.493         	9.428
MS.198         	21.45          	9.354
MS.199         	21.407         	9.448
MS.200         	21.365         	9.334
MS.201         	21.323         	9.452
MS.202         	21.28          	9.219
MS.203         	21.237         	9.372
MS.204         	21.195         	9.1
MS.205         	21.153         	9.023
MS.206         	21.11          	9.023
MS.207         	21.067         	8.935
MS.208         	21.025         	9.164
MS.209         	20.983         	8.939
MS.210         	20.942         	9.062
MS.211         	20.9           	9.036
MS.212         	20.858         	8.939
MS.213         	20.815         	9.003
MS.214         	20.775         	9.104
MS.215         	20.733         	8.925
MS.216         	20.692         	8.901
MS.217         	20.65          	8.913
MS.218         	20.61          	8.661
MS.219         	20.567         	8.713
MS.220         	20.528         	8.919
MS.221         	20.485         	8.703
MS.222         	20.445         	8.929
MS.223         	20.405         	8.866
MS.224         	20.362         	8.667
MS.225         	20.323         	8.665
MS.226         	20.282         	8.695
MS.227         	20.243         	8.53
MS.228         	20.2           	8.677
MS.229         	20.16          	8.518
MS.230         	20.12          	8.655
MS.231         	20.08          	8.691
MS.232         	20.04          	8.472
MS.233         	20             	8.592
MS.234         	19.96          	8.48
MS.235         	19.92          	8.502
MS.236         	19.88          	8.443
MS.237         	19.84          	8.427
MS.238         	19.8           	8.429
MS.239         	19.76          	8.437
MS.240         	19.722         	8.425
MS.241         	19.682         	8.435
MS.242         	19.642         	8.314
MS.243         	19.605         	8.306
MS.244         	19.565         	8.306
MS.245         	19.525         	8.407
MS.246         	19.487         	8.306
MS.247         	19.448         	8.113
MS.248         	19.407         	8.26
MS.249         	19.37          	8.236
MS.250         	19.33          	8.065
MS.251         	19.292         	8.244
MS.252         	19.255         	8.053
MS.253         	19.215         	8.244
MS.254         	19.177         	8.248
MS.255         	19.14          	8.061
MS.256         	19.1           	8.041
MS.257         	19.062         	8.047
MS.258         	19.025         	8.006
MS.259         	18.987         	7.98
MS.260         	18.948         	8.155
MS.261         	18.91          	7.984
MS.262         	18.872         	7.978
MS.263         	18.835         	8.039
MS.264         	18.797         	7.831
MS.265         	18.76          	8.002
MS.266         	18.722         	7.934
MS.267         	18.685         	7.944
MS.268         	18.647         	7.71
MS.269         	18.61          	7.638
MS.270         	18.573         	7.811
MS.271         	18.535         	7.722
MS.272         	18.5           	7.775
MS.273         	18.462         	7.831
MS.274         	18.425         	7.738
MS.275         	18.387         	7.688
MS.276         	18.352         	7.656
MS.277         	18.315         	7.755
MS.278         	18.278         	7.636
MS.279         	18.243         	7.525
MS.280         	18.205         	7.654
MS.281         	18.17          	7.565
MS.282         	18.132         	7.656
MS.283         	18.097         	7.638
MS.284         	18.06          	7.529
MS.285         	18.025         	7.704
MS.286         	17.987         	7.46
MS.287         	17.952         	7.432
MS.288         	17.917         	7.43
MS.289         	17.88          	7.436
MS.290         	17.845         	7.444
MS.291         	17.81          	7.531
MS.292         	17.772         	7.275
MS.293         	17.737         	7.166
MS.294         	17.702         	7.366
MS.295         	17.667         	7.291
MS.296         	17.632         	6.929
MS.297         	17.597         	6.882
MS.298         	17.562         	6.921
MS.299         	17.528         	7.323
MS.300         	17.493         	6.878
MS.301         	17.458         	7.128
MS.302         	17.422         	6.826
MS.303         	17.387         	7.029
MS.304         	17.352         	6.87
MS.305         	17.317         	6.687
MS.306         	17.282         	6.786
MS.307         	17.247         	6.639
MS.308         	17.215         	6.647
MS.309         	17.18          	6.675
MS.310         	17.145         	6.621
MS.311         	17.11          	6.621
MS.312         	17.077         	6.683
MS.313         	17.042         	6.725
MS.314         	17.007         	6.615
MS.315         	16.975         	6.608
MS.316         	16.94          	6.629
MS.317         	16.907         	6.556
MS.318         	16.872         	6.498
MS.319         	16.84          	6.566
MS.320         	16.805         	6.478
MS.321         	16.772         	6.528
MS.322         	16.737         	6.107
MS.323         	16.705         	6.038
MS.324         	16.672         	6.322
MS.325         	16.637         	6.343
MS.326         	16.605         	6.079
MS.327         	16.573         	6.061
MS.328         	16.54          	5.984
MS.329         	16.505         	5.869
MS.330         	16.472         	5.946
MS.331         	16.44          	5.922
MS.332         	16.407         	5.771
MS.333         	16.375         	5.833
MS.334         	16.342         	5.938
MS.335         	16.31          	5.875
MS.336         	16.278         	5.783
MS.337         	16.245         	5.746
MS.338         	16.212         	5.807
MS.339         	16.18          	5.708
MS.340         	16.147         	5.785
MS.341         	16.115         	5.799
MS.342         	16.083         	5.732
MS.343         	16.05          	5.648
MS.344         	16.017         	5.644
MS.345         	15.985         	5.682
MS.346         	15.955         	5.644
MS.347         	15.922         	5.547
MS.348         	15.89          	5.585
MS.349         	15.86          	5.611
MS.350         	15.827         	5.65
MS.351         	15.795         	5.597
MS.352         	15.765         	5.648
MS.353         	15.733         	5.489
MS.354         	15.7           	5.539
MS.355         	15.67          	5.521
MS.356         	15.637         	5.352
MS.357         	15.608         	5.46
MS.358         	15.575         	5.005
MS.359         	15.545         	5.442
MS.360         	15.512         	5.414
MS.361         	15.483         	5.368
MS.362         	15.452         	5.164
MS.363         	15.42          	5.287
MS.364         	15.39          	4.608
MS.365         	15.36          	5.178
MS.366         	15.327         	5.005
MS.367         	15.297         	5.023
MS.368         	15.267         	5.325
MS.369         	15.237         	4.302
MS.370         	15.207         	4.455
MS.371         	15.175         	4.262
MS.372         	15.145         	4.407
MS.373         	15.115         	4.421
MS.374         	15.085         	4.568
MS.375         	15.055         	4.177
MS.376         	15.025         	4.486
MS.377         	14.995         	4.365
MS.378         	14.965         	4.218
MS.379         	14.935         	4.155
MS.380         	14.905         	4.101
MS.381         	14.875         	4.131
MS.382         	14.845         	3.988
MS.383         	14.815         	4.004
MS.384         	14.787         	4.032
MS.385         	14.757         	3.92
MS.386         	14.727         	3.855
MS.387         	14.697         	3.873
MS.388         	14.67          	3.948
MS.389         	14.64          	3.837
MS.390         	14.61          	3.863
MS.391         	14.58          	3.893
MS.392         	14.552         	3.785
MS.393         	14.523         	3.839
MS.394         	14.495         	3.897
MS.395         	14.465         	3.837
MS.396         	14.435         	3.67
MS.397         	14.407         	3.752
MS.398         	14.377         	3.954
MS.399         	14.35          	3.589
MS.400         	14.32          	3.698
MS.401         	14.292         	3.533
MS.402         	14.265         	3.704
MS.403         	14.235         	3.658
MS.404         	14.207         	3.634
MS.405         	14.177         	3.547
MS.406         	14.15          	3.613
MS.407         	14.122         	3.499
MS.408         	14.092         	3.529
MS.409         	14.065         	3.587
MS.410         	14.037         	3.499
MS.411         	14.01          	3.388
MS.412         	13.983         	3.567
MS.413         	13.952         	3.521
MS.414         	13.925         	3.472
MS.415         	13.898         	3.432
MS.416         	13.87          	3.416
MS.417         	13.842         	3.495
MS.418         	13.815         	3.356
MS.419         	13.787         	3.378
MS.420         	13.76          	3.362
MS.421         	13.733         	3.384
MS.422         	13.705         	3.205
MS.423         	13.677         	3.247
MS.424         	13.65          	3.319
MS.425         	13.622         	3.327
MS.426         	13.595         	3.094
MS.427         	13.568         	3.215
MS.428         	13.54          	3.144
MS.429         	13.515         	3.146
MS.430         	13.487         	3.021
MS.431         	13.46          	3.086
MS.432         	13.432         	2.939
MS.433         	13.407         	2.947
MS.434         	13.38          	3.043
MS.435         	13.352         	3.154
MS.436         	13.325         	2.973
MS.437         	13.3           	2.892
MS.438         	13.273         	2.723
MS.439         	13.247         	2.681
MS.440         	13.22          	2.685
MS.441         	13.193         	2.624
MS.442         	13.167         	2.528
MS.443         	13.14          	2.637
MS.444         	13.115         	2.637
MS.445         	13.087         	2.298
MS.446         	13.062         	2.512
MS.447         	13.035         	2.087
MS.448         	13.01          	2.62
MS.449         	12.985         	2.332
MS.450         	12.957         	2.49
MS.451         	12.932         	2.179
MS.452         	12.907         	2.244
MS.453         	12.88          	2.135
MS.454         	12.855         	2.085
MS.455         	12.83          	2.024
MS.456         	12.802         	2.159
MS.457         	12.778         	2.091
MS.458         	12.752         	1.964
MS.459         	12.727         	1.847
MS.460         	12.702         	1.724
MS.461         	12.675         	1.732
MS.462         	12.65          	1.815
MS.463         	12.625         	1.72
MS.464         	12.6           	1.682
MS.465         	12.575         	1.803
MS.466         	12.55          	1.589
MS.467         	12.525         	1.629
MS.468         	12.5           	1.787
MS.469         	12.475         	1.611
MS.470         	12.45          	1.527
MS.471         	12.425         	1.529
MS.472         	12.4           	1.593
MS.473         	12.375         	1.533
MS.474         	12.35          	1.611
MS.475         	12.325         	1.529
MS.476         	12.302         	1.495
MS.477         	12.278         	1.499
MS.478         	12.252         	1.362
MS.479         	12.227         	1.412
MS.480         	12.202         	1.402
MS.481         	12.18          	1.327
MS.482         	12.155         	1.414
MS.483         	12.13          	1.418
MS.484         	12.108         	1.362
MS.485         	12.082         	1.301
MS.486         	12.057         	1.285
MS.487         	12.035         	1.279
MS.488         	12.01          	1.271
MS.489         	11.985         	1.279
MS.490         	11.962         	1.261
MS.491         	11.938         	1.287
MS.492         	11.915         	1.265
MS.493         	11.89          	1.227
MS.494         	11.867         	1.219
MS.495         	11.842         	1.18
MS.496         	11.82          	1.1
MS.497         	11.795         	1.142
MS.498         	11.773         	1.07
MS.499         	11.747         	1.043
MS.500         	11.725         	1.124
