File:              	C:\Qtrac\Data\Daniel M Sørensen\MScan multicentre study\Data from centres\Aarhus\Processed data\DMSB91212A.QZD
Name:              	DK.AAR.NC.5.2
Protocol:          	MSCAN-R2
Date:              	12/12/19
Start time:        	09:06:11
Age:               	57
Sex:               	f
Temperature:       	35
S/R sites:         	APB
NC/disease:        	Control
Operator:          	DS
Comments:
M-SCAN DATA (10.9-3.9m)
Scanpts: 389, 403, 722, 743
Stim. (mA)     	Amp. (mV)
MS.1           	21             	8.053
MS.2           	21             	8.061
MS.3           	21             	8.063
MS.4           	21             	8.043
MS.5           	21             	8.032
MS.6           	21             	8.02
MS.7           	21             	8.043
MS.8           	21             	8.039
MS.9           	21             	8.024
MS.10          	21             	8.063
MS.11          	21             	8.085
MS.12          	21             	8.061
MS.13          	21             	8.079
MS.14          	21             	8.095
MS.15          	21             	8.105
MS.16          	21             	8.119
MS.17          	21             	8.117
MS.18          	21             	8.127
MS.19          	21             	8.137
MS.20          	21             	8.149
MS.21          	21             	8.135
MS.22          	21             	8.163
MS.23          	21             	8.177
MS.24          	20.915         	8.163
MS.25          	20.875         	8.186
MS.26          	20.833         	8.169
MS.27          	20.79          	8.151
MS.28          	20.75          	8.133
MS.29          	20.708         	8.032
MS.30          	20.667         	8.109
MS.31          	20.625         	8.147
MS.32          	20.585         	8.159
MS.33          	20.542         	8.163
MS.34          	20.502         	8.198
MS.35          	20.46          	8.192
MS.36          	20.42          	8.214
MS.37          	20.38          	8.208
MS.38          	20.337         	8.204
MS.39          	20.297         	8.198
MS.40          	20.257         	8.204
MS.41          	20.217         	8.196
MS.42          	20.177         	8.198
MS.43          	20.135         	8.19
MS.44          	20.095         	8.204
MS.45          	20.055         	8.202
MS.46          	20.015         	8.204
MS.47          	19.975         	8.234
MS.48          	19.935         	8.228
MS.49          	19.895         	8.238
MS.50          	19.855         	8.234
MS.51          	19.817         	8.244
MS.52          	19.778         	8.266
MS.53          	19.737         	8.25
MS.54          	19.698         	8.26
MS.55          	19.657         	8.254
MS.56          	19.62          	8.262
MS.57          	19.58          	8.248
MS.58          	19.54          	8.24
MS.59          	19.502         	8.25
MS.60          	19.462         	8.252
MS.61          	19.425         	8.256
MS.62          	19.385         	8.244
MS.63          	19.347         	8.26
MS.64          	19.307         	8.246
MS.65          	19.27          	8.242
MS.66          	19.23          	8.248
MS.67          	19.192         	8.25
MS.68          	19.155         	8.254
MS.69          	19.115         	8.242
MS.70          	19.077         	8.252
MS.71          	19.04          	8.256
MS.72          	19.002         	8.242
MS.73          	18.962         	8.254
MS.74          	18.925         	8.236
MS.75          	18.887         	8.242
MS.76          	18.85          	8.25
MS.77          	18.812         	8.25
MS.78          	18.775         	8.256
MS.79          	18.737         	8.262
MS.80          	18.7           	8.272
MS.81          	18.663         	8.278
MS.82          	18.625         	8.29
MS.83          	18.587         	8.266
MS.84          	18.55          	8.286
MS.85          	18.515         	8.278
MS.86          	18.477         	8.3
MS.87          	18.44          	8.29
MS.88          	18.403         	8.292
MS.89          	18.368         	8.3
MS.90          	18.33          	8.29
MS.91          	18.292         	8.282
MS.92          	18.257         	8.278
MS.93          	18.22          	8.298
MS.94          	18.182         	8.294
MS.95          	18.147         	8.286
MS.96          	18.11          	8.288
MS.97          	18.075         	8.284
MS.98          	18.038         	8.282
MS.99          	18.003         	8.29
MS.100         	17.967         	8.302
MS.101         	17.93          	8.298
MS.102         	17.895         	8.282
MS.103         	17.86          	8.29
MS.104         	17.823         	8.292
MS.105         	17.788         	8.282
MS.106         	17.753         	8.288
MS.107         	17.717         	8.31
MS.108         	17.682         	8.29
MS.109         	17.645         	8.298
MS.110         	17.61          	8.292
MS.111         	17.575         	8.294
MS.112         	17.54          	8.284
MS.113         	17.505         	8.286
MS.114         	17.47          	8.292
MS.115         	17.435         	8.274
MS.116         	17.4           	8.286
MS.117         	17.365         	8.284
MS.118         	17.333         	8.278
MS.119         	17.297         	8.286
MS.120         	17.262         	8.278
MS.121         	17.227         	8.282
MS.122         	17.192         	8.294
MS.123         	17.16          	8.29
MS.124         	17.125         	8.296
MS.125         	17.09          	8.298
MS.126         	17.057         	8.292
MS.127         	17.022         	8.288
MS.128         	16.987         	8.306
MS.129         	16.955         	8.3
MS.130         	16.92          	8.302
MS.131         	16.887         	8.312
MS.132         	16.852         	8.296
MS.133         	16.82          	8.306
MS.134         	16.785         	8.3
MS.135         	16.753         	8.3
MS.136         	16.717         	8.31
MS.137         	16.685         	8.306
MS.138         	16.653         	8.294
MS.139         	16.618         	8.298
MS.140         	16.585         	8.292
MS.141         	16.552         	8.294
MS.142         	16.52          	8.282
MS.143         	16.485         	8.282
MS.144         	16.452         	8.288
MS.145         	16.42          	8.28
MS.146         	16.387         	8.278
MS.147         	16.355         	8.278
MS.148         	16.323         	8.272
MS.149         	16.29          	8.276
MS.150         	16.257         	8.26
MS.151         	16.225         	8.266
MS.152         	16.192         	8.276
MS.153         	16.16          	8.266
MS.154         	16.128         	8.264
MS.155         	16.095         	8.256
MS.156         	16.062         	8.262
MS.157         	16.03          	8.258
MS.158         	16             	8.25
MS.159         	15.967         	8.242
MS.160         	15.935         	8.244
MS.161         	15.902         	8.25
MS.162         	15.872         	8.244
MS.163         	15.84          	8.236
MS.164         	15.807         	8.246
MS.165         	15.777         	8.25
MS.166         	15.745         	8.232
MS.167         	15.712         	8.246
MS.168         	15.682         	8.242
MS.169         	15.65          	8.234
MS.170         	15.62          	8.242
MS.171         	15.587         	8.234
MS.172         	15.557         	8.23
MS.173         	15.525         	8.224
MS.174         	15.495         	8.224
MS.175         	15.465         	8.218
MS.176         	15.432         	8.216
MS.177         	15.402         	8.208
MS.178         	15.372         	8.214
MS.179         	15.34          	8.204
MS.180         	15.31          	8.216
MS.181         	15.28          	8.204
MS.182         	15.25          	8.206
MS.183         	15.217         	8.206
MS.184         	15.188         	8.196
MS.185         	15.157         	8.208
MS.186         	15.127         	8.196
MS.187         	15.097         	8.2
MS.188         	15.068         	8.194
MS.189         	15.037         	8.192
MS.190         	15.007         	8.202
MS.191         	14.977         	8.19
MS.192         	14.947         	8.19
MS.193         	14.917         	8.184
MS.194         	14.887         	8.194
MS.195         	14.858         	8.173
MS.196         	14.827         	8.188
MS.197         	14.797         	8.18
MS.198         	14.77          	8.19
MS.199         	14.74          	8.202
MS.200         	14.71          	8.192
MS.201         	14.68          	8.182
MS.202         	14.65          	8.18
MS.203         	14.622         	8.167
MS.204         	14.592         	8.171
MS.205         	14.562         	8.175
MS.206         	14.535         	8.175
MS.207         	14.505         	8.169
MS.208         	14.477         	8.155
MS.209         	14.447         	8.169
MS.210         	14.417         	8.159
MS.211         	14.39          	8.159
MS.212         	14.36          	8.163
MS.213         	14.332         	8.155
MS.214         	14.302         	8.153
MS.215         	14.275         	8.161
MS.216         	14.247         	8.147
MS.217         	14.217         	8.145
MS.218         	14.19          	8.145
MS.219         	14.162         	8.139
MS.220         	14.132         	8.131
MS.221         	14.105         	8.139
MS.222         	14.077         	8.143
MS.223         	14.047         	8.133
MS.224         	14.02          	8.141
MS.225         	13.992         	8.135
MS.226         	13.965         	8.125
MS.227         	13.938         	8.133
MS.228         	13.91          	8.135
MS.229         	13.88          	8.135
MS.230         	13.852         	8.131
MS.231         	13.825         	8.143
MS.232         	13.797         	8.131
MS.233         	13.77          	8.123
MS.234         	13.742         	8.129
MS.235         	13.715         	8.131
MS.236         	13.688         	8.125
MS.237         	13.66          	8.119
MS.238         	13.632         	8.131
MS.239         	13.605         	8.119
MS.240         	13.58          	8.115
MS.241         	13.552         	8.125
MS.242         	13.525         	8.113
MS.243         	13.497         	8.119
MS.244         	13.47          	8.121
MS.245         	13.445         	8.115
MS.246         	13.417         	8.109
MS.247         	13.39          	8.109
MS.248         	13.362         	8.119
MS.249         	13.337         	8.103
MS.250         	13.31          	8.107
MS.251         	13.282         	8.113
MS.252         	13.257         	8.117
MS.253         	13.23          	8.109
MS.254         	13.205         	8.115
MS.255         	13.177         	8.107
MS.256         	13.153         	8.107
MS.257         	13.125         	8.107
MS.258         	13.1           	8.099
MS.259         	13.072         	8.101
MS.260         	13.047         	8.109
MS.261         	13.02          	8.099
MS.262         	12.995         	8.113
MS.263         	12.967         	8.103
MS.264         	12.943         	8.109
MS.265         	12.917         	8.123
MS.266         	12.89          	8.105
MS.267         	12.865         	8.105
MS.268         	12.84          	8.109
MS.269         	12.812         	8.111
MS.270         	12.787         	8.113
MS.271         	12.762         	8.101
MS.272         	12.738         	8.093
MS.273         	12.712         	8.103
MS.274         	12.685         	8.101
MS.275         	12.66          	8.091
MS.276         	12.635         	8.097
MS.277         	12.61          	8.101
MS.278         	12.585         	8.093
MS.279         	12.56          	8.093
MS.280         	12.535         	8.083
MS.281         	12.51          	8.095
MS.282         	12.485         	8.041
MS.283         	12.46          	8.034
MS.284         	12.435         	8.047
MS.285         	12.41          	8.073
MS.286         	12.385         	8.045
MS.287         	12.36          	8.067
MS.288         	12.335         	8.077
MS.289         	12.312         	8.039
MS.290         	12.287         	8.061
MS.291         	12.262         	8.051
MS.292         	12.238         	8.061
MS.293         	12.212         	8.059
MS.294         	12.19          	8.069
MS.295         	12.165         	8.063
MS.296         	12.14          	8.065
MS.297         	12.115         	8.061
MS.298         	12.092         	8.077
MS.299         	12.068         	8.081
MS.300         	12.042         	8.079
MS.301         	12.02          	8.083
MS.302         	11.995         	8.087
MS.303         	11.972         	8.085
MS.304         	11.947         	8.085
MS.305         	11.922         	8.085
MS.306         	11.9           	8.081
MS.307         	11.875         	8.083
MS.308         	11.852         	8.095
MS.309         	11.827         	8.087
MS.310         	11.805         	8.089
MS.311         	11.782         	8.083
MS.312         	11.757         	8.095
MS.313         	11.735         	8.089
MS.314         	11.71          	8.107
MS.315         	11.688         	8.113
MS.316         	11.665         	8.123
MS.317         	11.64          	8.113
MS.318         	11.617         	8.123
MS.319         	11.595         	8.091
MS.320         	11.57          	8.089
MS.321         	11.547         	8.137
MS.322         	11.525         	8.125
MS.323         	11.502         	8.123
MS.324         	11.48          	8.123
MS.325         	11.455         	8.113
MS.326         	11.432         	8.103
MS.327         	11.41          	8.129
MS.328         	11.387         	8.139
MS.329         	11.365         	8.135
MS.330         	11.342         	8.141
MS.331         	11.32          	8.115
MS.332         	11.297         	8.139
MS.333         	11.275         	8.155
MS.334         	11.252         	8.135
MS.335         	11.23          	8.129
MS.336         	11.207         	8.135
MS.337         	11.185         	8.135
MS.338         	11.162         	8.133
MS.339         	11.14          	8.159
MS.340         	11.117         	8.139
MS.341         	11.095         	8.137
MS.342         	11.073         	8.151
MS.343         	11.05          	8.139
MS.344         	11.03          	8.143
MS.345         	11.007         	8.155
MS.346         	10.985         	8.141
MS.347         	10.962         	8.143
MS.348         	10.94          	8.153
MS.349         	10.92          	8.143
MS.350         	10.898         	8.149
MS.351         	10.875         	8.143
MS.352         	10.855         	8.149
MS.353         	10.832         	8.149
MS.354         	10.81          	8.151
MS.355         	10.79          	8.157
MS.356         	10.767         	8.167
MS.357         	10.745         	8.165
MS.358         	10.725         	8.165
MS.359         	10.702         	8.161
MS.360         	10.682         	8.163
MS.361         	10.66          	8.177
MS.362         	10.64          	8.177
MS.363         	10.617         	8.198
MS.364         	10.597         	8.186
MS.365         	10.575         	8.184
MS.366         	10.555         	8.184
MS.367         	10.532         	8.204
MS.368         	10.512         	8.177
MS.369         	10.49          	8.194
MS.370         	10.47          	8.204
MS.371         	10.45          	8.196
MS.372         	10.427         	8.204
MS.373         	10.407         	8.182
MS.374         	10.387         	8.19
MS.375         	10.365         	8.198
MS.376         	10.345         	8.192
MS.377         	10.325         	8.198
MS.378         	10.305         	8.19
MS.379         	10.282         	8.186
MS.380         	10.262         	8.208
MS.381         	10.242         	8.222
MS.382         	10.222         	8.216
MS.383         	10.202         	8.218
MS.384         	10.18          	8.204
MS.385         	10.16          	8.218
MS.386         	10.14          	8.226
MS.387         	10.12          	8.23
MS.388         	10.1           	8.24
MS.389         	10.08          	8.218
MS.390         	10.06          	8.218
MS.391         	10.04          	8.224
MS.392         	10.02          	8.214
MS.393         	10             	8.248
MS.394         	9.98           	8.224
MS.395         	9.96           	8.206
MS.396         	9.94           	8.198
MS.397         	9.92           	8.23
MS.398         	9.9            	8.208
MS.399         	9.88           	8.222
MS.400         	9.86           	8.21
MS.401         	9.84           	8.196
MS.402         	9.82           	8.242
MS.403         	9.802          	8.214
MS.404         	9.782          	8.218
MS.405         	9.762          	8.222
MS.406         	9.742          	8.226
MS.407         	9.722          	8.22
MS.408         	9.705          	8.216
MS.409         	9.685          	8.206
MS.410         	9.665          	8.095
MS.411         	9.645          	8.208
MS.412         	9.627          	8.206
MS.413         	9.608          	8.216
MS.414         	9.587          	8.198
MS.415         	9.57           	8.206
MS.416         	9.55           	8.212
MS.417         	9.53           	8.204
MS.418         	9.512          	8.099
MS.419         	9.492          	8.039
MS.420         	9.472          	8.107
MS.421         	9.455          	8.041
MS.422         	9.435          	8.212
MS.423         	9.417          	8.107
MS.424         	9.398          	8.111
MS.425         	9.38           	8.117
MS.426         	9.36           	8.119
MS.427         	9.342          	7.964
MS.428         	9.323          	8.212
MS.429         	9.305          	8.123
MS.430         	9.285          	7.972
MS.431         	9.267          	8.113
MS.432         	9.25           	7.976
MS.433         	9.23           	8.234
MS.434         	9.212          	7.962
MS.435         	9.193          	8.141
MS.436         	9.175          	7.966
MS.437         	9.158          	7.974
MS.438         	9.137          	7.98
MS.439         	9.12           	7.97
MS.440         	9.102          	7.99
MS.441         	9.085          	7.986
MS.442         	9.065          	7.956
MS.443         	9.047          	7.986
MS.444         	9.03           	7.988
MS.445         	9.012          	7.948
MS.446         	8.992          	7.976
MS.447         	8.975          	7.988
MS.448         	8.957          	7.869
MS.449         	8.94           	7.99
MS.450         	8.922          	7.982
MS.451         	8.905          	7.887
MS.452         	8.887          	7.984
MS.453         	8.867          	7.454
MS.454         	8.85           	7.471
MS.455         	8.832          	7.97
MS.456         	8.815          	7.893
MS.457         	8.797          	7.942
MS.458         	8.78           	7.863
MS.459         	8.762          	7.857
MS.460         	8.745          	7.887
MS.461         	8.727          	7.323
MS.462         	8.71           	7.803
MS.463         	8.693          	7.863
MS.464         	8.675          	7.044
MS.465         	8.658          	7.561
MS.466         	8.64           	7.305
MS.467         	8.622          	7.815
MS.468         	8.608          	6.943
MS.469         	8.59           	7.841
MS.470         	8.573          	6.876
MS.471         	8.555          	7.271
MS.472         	8.537          	7.799
MS.473         	8.52           	7.434
MS.474         	8.505          	6.534
MS.475         	8.488          	7.75
MS.476         	8.47           	6.602
MS.477         	8.452          	7.017
MS.478         	8.435          	6.617
MS.479         	8.42           	6.54
MS.480         	8.403          	6.915
MS.481         	8.385          	6.58
MS.482         	8.37           	6.598
MS.483         	8.352          	6.478
MS.484         	8.335          	6.574
MS.485         	8.32           	6.568
MS.486         	8.302          	6.544
MS.487         	8.285          	6.57
MS.488         	8.27           	6.538
MS.489         	8.252          	6.578
MS.490         	8.235          	6.546
MS.491         	8.22           	6.498
MS.492         	8.202          	6.51
MS.493         	8.188          	6.51
MS.494         	8.17           	6.48
MS.495         	8.155          	6.409
MS.496         	8.137          	6.51
MS.497         	8.122          	6.453
MS.498         	8.105          	6.469
MS.499         	8.09           	5.984
MS.500         	8.073          	5.93
MS.501         	8.057          	6.047
