File:              	C:\Qtrac\Data\Daniel M Sørensen\MScan multicentre study\Data from centres\Aarhus\Processed data\DMSB91218B.QZD
Name:              	DK.AAR.NC.9.2
Protocol:          	MSCAN-R2
Date:              	18/12/19
Start time:        	09:18:57
Age:               	74
Sex:               	m
Temperature:       	34,8
S/R sites:         	ADM
NC/disease:        	Control
Operator:          	DS
Comments:
M-SCAN DATA (10.7-2.4m)
Scanpts: 153, 194, 845, 866
Stim. (mA)     	Amp. (mV)
MS.1           	30             	10.262
MS.2           	30             	10.252
MS.3           	30             	10.254
MS.4           	30             	10.24
MS.5           	30             	10.222
MS.6           	30             	10.23
MS.7           	30             	10.244
MS.8           	30             	10.236
MS.9           	30             	10.242
MS.10          	30             	10.214
MS.11          	30             	10.206
MS.12          	30             	10.244
MS.13          	30             	10.25
MS.14          	30             	10.254
MS.15          	30             	10.244
MS.16          	30             	10.216
MS.17          	30             	10.254
MS.18          	30             	10.236
MS.19          	30             	10.244
MS.20          	30             	10.228
MS.21          	30             	10.24
MS.22          	30             	10.222
MS.23          	30             	10.282
MS.24          	29.88          	10.234
MS.25          	29.76          	10.236
MS.26          	29.702         	10.238
MS.27          	29.642         	10.238
MS.28          	29.582         	10.256
MS.29          	29.522         	10.25
MS.30          	29.465         	10.242
MS.31          	29.405         	10.224
MS.32          	29.347         	10.228
MS.33          	29.287         	10.236
MS.34          	29.23          	10.244
MS.35          	29.172         	10.246
MS.36          	29.112         	10.236
MS.37          	29.055         	10.248
MS.38          	28.997         	10.252
MS.39          	28.94          	10.276
MS.40          	28.882         	10.252
MS.41          	28.823         	10.284
MS.42          	28.765         	10.276
MS.43          	28.707         	10.274
MS.44          	28.65          	10.244
MS.45          	28.595         	10.266
MS.46          	28.537         	10.268
MS.47          	28.48          	10.292
MS.48          	28.422         	10.282
MS.49          	28.365         	10.272
MS.50          	28.31          	10.28
MS.51          	28.252         	10.272
MS.52          	28.198         	10.258
MS.53          	28.14          	10.292
MS.54          	28.085         	10.331
MS.55          	28.028         	10.335
MS.56          	27.972         	10.323
MS.57          	27.915         	10.331
MS.58          	27.86          	10.353
MS.59          	27.805         	10.341
MS.60          	27.75          	10.341
MS.61          	27.692         	10.339
MS.62          	27.637         	10.353
MS.63          	27.582         	10.359
MS.64          	27.528         	10.312
MS.65          	27.472         	10.343
MS.66          	27.417         	10.339
MS.67          	27.362         	10.359
MS.68          	27.307         	10.331
MS.69          	27.255         	10.341
MS.70          	27.2           	10.367
MS.71          	27.145         	10.345
MS.72          	27.09          	10.333
MS.73          	27.037         	10.349
MS.74          	26.983         	10.343
MS.75          	26.927         	10.325
MS.76          	26.875         	10.365
MS.77          	26.82          	10.351
MS.78          	26.767         	10.335
MS.79          	26.715         	10.333
MS.80          	26.66          	10.401
MS.81          	26.608         	10.389
MS.82          	26.555         	10.375
MS.83          	26.502         	10.385
MS.84          	26.448         	10.363
MS.85          	26.395         	10.341
MS.86          	26.342         	10.347
MS.87          	26.29          	10.341
MS.88          	26.237         	10.349
MS.89          	26.185         	10.359
MS.90          	26.132         	10.389
MS.91          	26.08          	10.401
MS.92          	26.028         	10.431
MS.93          	25.977         	10.427
MS.94          	25.925         	10.441
MS.95          	25.872         	10.441
MS.96          	25.82          	10.415
MS.97          	25.77          	10.431
MS.98          	25.717         	10.409
MS.99          	25.667         	10.441
MS.100         	25.615         	10.441
MS.101         	25.565         	10.466
MS.102         	25.512         	10.468
MS.103         	25.462         	10.48
MS.104         	25.413         	10.47
MS.105         	25.36          	10.464
MS.106         	25.31          	10.435
MS.107         	25.26          	10.407
MS.108         	25.21          	10.449
MS.109         	25.157         	10.427
MS.110         	25.108         	10.451
MS.111         	25.057         	10.443
MS.112         	25.007         	10.49
MS.113         	24.957         	10.51
MS.114         	24.907         	10.51
MS.115         	24.858         	10.49
MS.116         	24.807         	10.488
MS.117         	24.76          	10.51
MS.118         	24.71          	10.514
MS.119         	24.66          	10.488
MS.120         	24.61          	10.514
MS.121         	24.562         	10.524
MS.122         	24.512         	10.514
MS.123         	24.465         	10.536
MS.124         	24.415         	10.506
MS.125         	24.365         	10.49
MS.126         	24.317         	10.494
MS.127         	24.27          	10.478
MS.128         	24.22          	10.48
MS.129         	24.172         	10.462
MS.130         	24.122         	10.464
MS.131         	24.075         	10.433
MS.132         	24.028         	10.464
MS.133         	23.98          	10.502
MS.134         	23.932         	10.486
MS.135         	23.882         	10.488
MS.136         	23.835         	10.492
MS.137         	23.788         	10.502
MS.138         	23.74          	10.496
MS.139         	23.692         	10.504
MS.140         	23.645         	10.506
MS.141         	23.597         	10.514
MS.142         	23.552         	10.514
MS.143         	23.505         	10.496
MS.144         	23.457         	10.498
MS.145         	23.41          	10.532
MS.146         	23.365         	10.55
MS.147         	23.317         	10.556
MS.148         	23.27          	10.526
MS.149         	23.225         	10.526
MS.150         	23.177         	10.554
MS.151         	23.132         	10.51
MS.152         	23.085         	10.508
MS.153         	23.04          	10.508
MS.154         	22.993         	10.518
MS.155         	22.948         	10.538
MS.156         	22.903         	10.534
MS.157         	22.855         	10.546
MS.158         	22.81          	10.534
MS.159         	22.765         	10.538
MS.160         	22.72          	10.518
MS.161         	22.672         	10.522
MS.162         	22.627         	10.536
MS.163         	22.582         	10.536
MS.164         	22.538         	10.552
MS.165         	22.493         	10.522
MS.166         	22.448         	10.548
MS.167         	22.403         	10.504
MS.168         	22.358         	10.536
MS.169         	22.312         	10.518
MS.170         	22.27          	10.532
MS.171         	22.225         	10.516
MS.172         	22.18          	10.496
MS.173         	22.135         	10.516
MS.174         	22.092         	10.552
MS.175         	22.047         	10.536
MS.176         	22.002         	10.51
MS.177         	21.96          	10.516
MS.178         	21.915         	10.528
MS.179         	21.872         	10.54
MS.180         	21.827         	10.568
MS.181         	21.785         	10.55
MS.182         	21.74          	10.552
MS.183         	21.698         	10.552
MS.184         	21.655         	10.558
MS.185         	21.61          	10.538
MS.186         	21.567         	10.536
MS.187         	21.525         	10.534
MS.188         	21.483         	10.516
MS.189         	21.438         	10.53
MS.190         	21.395         	10.498
MS.191         	21.352         	10.536
MS.192         	21.31          	10.524
MS.193         	21.267         	10.522
MS.194         	21.225         	10.516
MS.195         	21.182         	10.538
MS.196         	21.14          	10.52
MS.197         	21.097         	10.526
MS.198         	21.055         	10.538
MS.199         	21.015         	10.52
MS.200         	20.972         	10.526
MS.201         	20.93          	10.504
MS.202         	20.887         	10.524
MS.203         	20.847         	10.53
MS.204         	20.805         	10.536
MS.205         	20.762         	10.506
MS.206         	20.722         	10.544
MS.207         	20.68          	10.48
MS.208         	20.64          	10.478
MS.209         	20.597         	10.484
MS.210         	20.557         	10.494
MS.211         	20.515         	10.474
MS.212         	20.475         	10.494
MS.213         	20.435         	10.542
MS.214         	20.392         	10.528
MS.215         	20.352         	10.492
MS.216         	20.312         	10.514
MS.217         	20.27          	10.476
MS.218         	20.23          	10.546
MS.219         	20.19          	10.528
MS.220         	20.15          	10.484
MS.221         	20.11          	10.46
MS.222         	20.07          	10.508
MS.223         	20.03          	10.468
MS.224         	19.99          	10.472
MS.225         	19.95          	10.51
MS.226         	19.91          	10.502
MS.227         	19.87          	10.484
MS.228         	19.83          	10.51
MS.229         	19.79          	10.474
MS.230         	19.75          	10.468
MS.231         	19.712         	10.474
MS.232         	19.672         	10.371
MS.233         	19.632         	10.433
MS.234         	19.592         	10.369
MS.235         	19.555         	10.409
MS.236         	19.515         	10.339
MS.237         	19.475         	10.449
MS.238         	19.438         	10.331
MS.239         	19.397         	10.315
MS.240         	19.36          	10.278
MS.241         	19.32          	10.242
MS.242         	19.282         	10.292
MS.243         	19.245         	10.423
MS.244         	19.205         	10.256
MS.245         	19.167         	10.294
MS.246         	19.13          	10.26
MS.247         	19.09          	10.133
MS.248         	19.052         	10.312
MS.249         	19.015         	10.264
MS.250         	18.977         	10.361
MS.251         	18.938         	10.363
MS.252         	18.9           	10.254
MS.253         	18.862         	10.151
MS.254         	18.825         	10.208
MS.255         	18.788         	10.163
MS.256         	18.75          	10.208
MS.257         	18.712         	10.095
MS.258         	18.675         	10.155
MS.259         	18.637         	10.139
MS.260         	18.6           	10.186
MS.261         	18.562         	10.153
MS.262         	18.528         	10.147
MS.263         	18.49          	10.127
MS.264         	18.452         	10.091
MS.265         	18.415         	10.053
MS.266         	18.378         	10.043
MS.267         	18.342         	10.053
MS.268         	18.305         	10.097
MS.269         	18.27          	10.065
MS.270         	18.233         	10.022
MS.271         	18.195         	10.033
MS.272         	18.16          	9.988
MS.273         	18.122         	10.041
MS.274         	18.087         	10.111
MS.275         	18.05          	10.123
MS.276         	18.015         	9.732
MS.277         	17.98          	9.998
MS.278         	17.942         	9.73
MS.279         	17.907         	9.742
MS.280         	17.87          	9.656
MS.281         	17.835         	9.763
MS.282         	17.8           	9.902
MS.283         	17.765         	9.944
MS.284         	17.73          	9.892
MS.285         	17.692         	9.875
MS.286         	17.657         	9.656
MS.287         	17.622         	9.875
MS.288         	17.587         	9.664
MS.289         	17.552         	9.851
MS.290         	17.517         	9.698
MS.291         	17.483         	9.863
MS.292         	17.448         	9.636
MS.293         	17.413         	9.863
MS.294         	17.378         	9.704
MS.295         	17.342         	9.67
MS.296         	17.307         	9.616
MS.297         	17.275         	9.642
MS.298         	17.24          	9.612
MS.299         	17.205         	9.652
MS.300         	17.17          	9.626
MS.301         	17.135         	9.555
MS.302         	17.102         	9.616
MS.303         	17.067         	9.545
MS.304         	17.032         	9.555
MS.305         	17             	9.632
MS.306         	16.965         	9.545
MS.307         	16.932         	9.501
MS.308         	16.897         	9.485
MS.309         	16.865         	9.547
MS.310         	16.83          	9.521
MS.311         	16.797         	9.523
MS.312         	16.762         	9.523
MS.313         	16.73          	9.442
MS.314         	16.698         	9.479
MS.315         	16.663         	9.477
MS.316         	16.63          	9.418
MS.317         	16.597         	9.452
MS.318         	16.562         	9.322
MS.319         	16.53          	9.37
MS.320         	16.497         	9.203
MS.321         	16.465         	9.392
MS.322         	16.432         	9.291
MS.323         	16.397         	9.241
MS.324         	16.365         	9.402
MS.325         	16.333         	9.197
MS.326         	16.3           	9.235
MS.327         	16.267         	9.229
MS.328         	16.235         	9.146
MS.329         	16.202         	9.215
MS.330         	16.17          	9.179
MS.331         	16.137         	9.179
MS.332         	16.105         	9.106
MS.333         	16.075         	9.263
MS.334         	16.042         	8.709
MS.335         	16.01          	9.136
MS.336         	15.977         	8.635
MS.337         	15.945         	9.118
MS.338         	15.915         	8.482
MS.339         	15.882         	8.629
MS.340         	15.85          	8.411
MS.341         	15.818         	8.945
MS.342         	15.787         	9.064
MS.343         	15.755         	8.419
MS.344         	15.725         	8.895
MS.345         	15.693         	8.385
MS.346         	15.662         	8.435
MS.347         	15.63          	8.157
MS.348         	15.6           	8.445
MS.349         	15.568         	8.371
MS.350         	15.537         	7.988
MS.351         	15.505         	8.169
MS.352         	15.475         	8.024
MS.353         	15.443         	8.165
MS.354         	15.412         	8.02
MS.355         	15.382         	7.9
MS.356         	15.35          	8.109
MS.357         	15.32          	7.684
MS.358         	15.29          	7.833
MS.359         	15.26          	7.392
MS.360         	15.23          	7.936
MS.361         	15.197         	8.063
MS.362         	15.167         	7.074
MS.363         	15.137         	7.684
MS.364         	15.108         	7.736
MS.365         	15.077         	7.68
MS.366         	15.047         	7.616
MS.367         	15.017         	7.416
MS.368         	14.987         	7.442
MS.369         	14.957         	7.255
MS.370         	14.927         	6.975
MS.371         	14.898         	7.539
MS.372         	14.867         	6.572
MS.373         	14.837         	6.731
MS.374         	14.807         	6.419
MS.375         	14.78          	5.922
MS.376         	14.75          	6.538
MS.377         	14.72          	6.375
MS.378         	14.69          	6.109
MS.379         	14.66          	6.443
MS.380         	14.632         	6.312
MS.381         	14.602         	6.206
MS.382         	14.572         	6.04
MS.383         	14.545         	6.24
MS.384         	14.515         	5.972
MS.385         	14.485         	5.803
MS.386         	14.457         	5.694
MS.387         	14.427         	6.008
MS.388         	14.4           	6.171
MS.389         	14.37          	5.551
MS.390         	14.342         	6.163
MS.391         	14.312         	5.847
MS.392         	14.285         	5.662
MS.393         	14.255         	5.636
MS.394         	14.227         	5.579
MS.395         	14.2           	5.716
MS.396         	14.17          	5.384
MS.397         	14.142         	5.406
MS.398         	14.115         	5.366
MS.399         	14.085         	5.36
MS.400         	14.057         	5.575
MS.401         	14.03          	5.263
MS.402         	14.002         	5.225
MS.403         	13.975         	5.408
MS.404         	13.945         	5.074
MS.405         	13.917         	5.269
MS.406         	13.89          	5.273
MS.407         	13.862         	5.342
MS.408         	13.835         	5.362
MS.409         	13.807         	5.299
MS.410         	13.78          	5.215
MS.411         	13.752         	5.241
MS.412         	13.725         	5.146
MS.413         	13.697         	5.273
MS.414         	13.67          	5.025
MS.415         	13.642         	5.09
MS.416         	13.615         	5.09
MS.417         	13.587         	5.07
MS.418         	13.56          	4.884
MS.419         	13.535         	4.975
MS.420         	13.507         	4.995
MS.421         	13.48          	4.766
MS.422         	13.452         	4.909
MS.423         	13.425         	4.753
MS.424         	13.4           	4.526
MS.425         	13.372         	4.858
MS.426         	13.345         	4.467
MS.427         	13.32          	4.637
MS.428         	13.292         	4.518
MS.429         	13.265         	4.403
MS.430         	13.24          	4.365
MS.431         	13.212         	4.528
MS.432         	13.188         	4.435
MS.433         	13.16          	4.343
MS.434         	13.135         	4.048
MS.435         	13.108         	4.272
MS.436         	13.082         	4.308
MS.437         	13.055         	3.805
MS.438         	13.03          	3.938
MS.439         	13.002         	3.946
MS.440         	12.977         	4.006
MS.441         	12.952         	3.785
MS.442         	12.925         	3.871
MS.443         	12.9           	3.702
MS.444         	12.875         	3.986
MS.445         	12.847         	3.688
MS.446         	12.822         	3.476
MS.447         	12.797         	3.829
MS.448         	12.77          	3.527
MS.449         	12.745         	3.525
MS.450         	12.72          	3.402
MS.451         	12.695         	3.581
MS.452         	12.67          	3.434
MS.453         	12.645         	3.404
MS.454         	12.62          	3.237
MS.455         	12.592         	3.468
MS.456         	12.568         	3.327
MS.457         	12.542         	3.116
MS.458         	12.517         	3.176
MS.459         	12.492         	3.08
MS.460         	12.467         	2.723
MS.461         	12.443         	2.941
MS.462         	12.417         	3.039
MS.463         	12.395         	2.88
MS.464         	12.37          	2.872
MS.465         	12.345         	2.828
MS.466         	12.32          	2.637
MS.467         	12.295         	2.806
MS.468         	12.27          	2.902
MS.469         	12.245         	2.616
MS.470         	12.222         	2.608
MS.471         	12.197         	2.616
MS.472         	12.172         	2.663
MS.473         	12.148         	2.649
MS.474         	12.125         	2.566
MS.475         	12.1           	2.626
MS.476         	12.075         	2.596
MS.477         	12.052         	2.373
MS.478         	12.028         	2.298
MS.479         	12.002         	2.508
MS.480         	11.98          	2.445
MS.481         	11.955         	2.208
MS.482         	11.932         	2.351
MS.483         	11.907         	2.33
MS.484         	11.885         	2.441
MS.485         	11.86          	2.375
MS.486         	11.837         	2.447
MS.487         	11.812         	2.344
MS.488         	11.79          	2.274
MS.489         	11.765         	2.159
MS.490         	11.742         	1.932
MS.491         	11.72          	2.272
MS.492         	11.695         	2.077
MS.493         	11.672         	2.024
MS.494         	11.648         	1.841
