File:              	C:\Qtrac\Data\Daniel M Sørensen\MScan multicentre study\Data from centres\Aarhus\Processed data\DMSC10423C.QZD
Name:              	DK.AAR.NC.12.2
Protocol:          	MSCAN-R2
Date:              	23/4/21
Start time:        	11:06:12
Age:               	26
Sex:               	f
Temperature:       	32,1
S/R sites:         	TA
NC/disease:        	NC
Operator:          	DS
Comments:
M-SCAN DATA (7-1.8m)
Scanpts: 5, 12, 544, 565
Stim. (mA)     	Amp. (mV)
MS.1           	25.5           	7.309
MS.2           	25.5           	7.317
MS.3           	25.5           	7.321
MS.4           	25.5           	7.295
MS.5           	25.5           	7.263
MS.6           	25.5           	7.267
MS.7           	25.5           	7.261
MS.8           	25.5           	7.255
MS.9           	25.5           	7.249
MS.10          	25.5           	7.251
MS.11          	25.5           	7.271
MS.12          	25.5           	7.253
MS.13          	25.5           	7.261
MS.14          	25.5           	7.257
MS.15          	25.5           	7.257
MS.16          	25.5           	7.259
MS.17          	25.5           	7.255
MS.18          	25.5           	7.237
MS.19          	25.5           	7.247
MS.20          	25.5           	7.229
MS.21          	25.5           	7.249
MS.22          	25.5           	7.239
MS.23          	25.5           	7.271
MS.24          	25.397         	7.259
MS.25          	25.347         	7.229
MS.26          	25.297         	7.215
MS.27          	25.245         	7.261
MS.28          	25.195         	7.233
MS.29          	25.145         	7.231
MS.30          	25.095         	7.243
MS.31          	25.045         	7.233
MS.32          	24.995         	7.237
MS.33          	24.945         	7.231
MS.34          	24.895         	7.229
MS.35          	24.845         	7.225
MS.36          	24.795         	7.245
MS.37          	24.747         	7.229
MS.38          	24.698         	7.231
MS.39          	24.647         	7.235
MS.40          	24.597         	7.225
MS.41          	24.55          	7.223
MS.42          	24.5           	7.239
MS.43          	24.45          	7.201
MS.44          	24.403         	7.241
MS.45          	24.352         	7.213
MS.46          	24.305         	7.193
MS.47          	24.257         	7.227
MS.48          	24.207         	7.227
MS.49          	24.16          	7.201
MS.50          	24.11          	7.211
MS.51          	24.062         	7.174
MS.52          	24.015         	7.209
MS.53          	23.967         	7.178
MS.54          	23.92          	7.162
MS.55          	23.87          	7.193
MS.56          	23.823         	7.221
MS.57          	23.775         	7.174
MS.58          	23.727         	7.158
MS.59          	23.68          	7.132
MS.60          	23.632         	7.172
MS.61          	23.587         	7.172
MS.62          	23.54          	7.193
MS.63          	23.493         	7.104
MS.64          	23.445         	7.118
MS.65          	23.397         	7.146
MS.66          	23.352         	7.138
MS.67          	23.305         	7.14
MS.68          	23.257         	7.132
MS.69          	23.212         	7.042
MS.70          	23.165         	7.148
MS.71          	23.12          	7.078
MS.72          	23.073         	7.064
MS.73          	23.028         	7.08
MS.74          	22.98          	7.07
MS.75          	22.935         	7.078
MS.76          	22.89          	7.056
MS.77          	22.842         	7.037
MS.78          	22.797         	7.09
MS.79          	22.752         	7.094
MS.80          	22.707         	7.058
MS.81          	22.663         	7.025
MS.82          	22.618         	7.011
MS.83          	22.57          	7.013
MS.84          	22.525         	6.991
MS.85          	22.48          	6.997
MS.86          	22.435         	6.971
MS.87          	22.392         	6.973
MS.88          	22.347         	6.925
MS.89          	22.302         	6.969
MS.90          	22.257         	6.965
MS.91          	22.212         	6.949
MS.92          	22.167         	6.941
MS.93          	22.125         	6.965
MS.94          	22.08          	6.894
MS.95          	22.035         	6.894
MS.96          	21.993         	6.878
MS.97          	21.948         	6.892
MS.98          	21.905         	6.874
MS.99          	21.86          	6.913
MS.100         	21.817         	6.901
MS.101         	21.772         	6.919
MS.102         	21.73          	6.898
MS.103         	21.685         	6.802
MS.104         	21.642         	6.854
MS.105         	21.6           	6.758
MS.106         	21.557         	6.83
MS.107         	21.512         	6.788
MS.108         	21.47          	6.814
MS.109         	21.427         	6.886
MS.110         	21.385         	6.804
MS.111         	21.342         	6.82
MS.112         	21.3           	6.749
MS.113         	21.257         	6.735
MS.114         	21.215         	6.76
MS.115         	21.172         	6.8
MS.116         	21.13          	6.766
MS.117         	21.087         	6.697
MS.118         	21.045         	6.762
MS.119         	21.002         	6.723
MS.120         	20.96          	6.745
MS.121         	20.92          	6.735
MS.122         	20.877         	6.697
MS.123         	20.835         	6.695
MS.124         	20.795         	6.713
MS.125         	20.752         	6.691
MS.126         	20.71          	6.679
MS.127         	20.67          	6.635
MS.128         	20.627         	6.727
MS.129         	20.587         	6.675
MS.130         	20.545         	6.588
MS.131         	20.505         	6.687
MS.132         	20.465         	6.572
MS.133         	20.422         	6.633
MS.134         	20.382         	6.558
MS.135         	20.342         	6.534
MS.136         	20.3           	6.586
MS.137         	20.26          	6.506
MS.138         	20.22          	6.492
MS.139         	20.18          	6.445
MS.140         	20.14          	6.486
MS.141         	20.1           	6.397
MS.142         	20.06          	6.411
MS.143         	20.02          	6.413
MS.144         	19.98          	6.403
MS.145         	19.94          	6.371
MS.146         	19.9           	6.322
MS.147         	19.86          	6.3
MS.148         	19.82          	6.28
MS.149         	19.78          	6.333
MS.150         	19.74          	6.29
MS.151         	19.7           	6.31
MS.152         	19.663         	6.27
MS.153         	19.622         	6.304
MS.154         	19.583         	6.22
MS.155         	19.545         	6.274
MS.156         	19.505         	6.262
MS.157         	19.465         	6.238
MS.158         	19.427         	6.236
MS.159         	19.387         	6.169
MS.160         	19.35          	6.139
MS.161         	19.31          	6.173
MS.162         	19.272         	6.149
MS.163         	19.235         	6.204
MS.164         	19.195         	6.121
MS.165         	19.157         	5.978
MS.166         	19.12          	6.101
MS.167         	19.08          	5.863
MS.168         	19.042         	6.077
MS.169         	19.005         	5.98
MS.170         	18.967         	5.956
MS.171         	18.927         	5.914
MS.172         	18.89          	5.793
MS.173         	18.852         	5.821
MS.174         	18.815         	5.877
MS.175         	18.778         	5.775
MS.176         	18.74          	5.787
MS.177         	18.702         	5.694
MS.178         	18.665         	5.756
MS.179         	18.628         	5.712
MS.180         	18.59          	5.692
MS.181         	18.555         	5.771
MS.182         	18.517         	5.75
MS.183         	18.48          	5.597
MS.184         	18.442         	5.712
MS.185         	18.405         	5.632
MS.186         	18.37          	5.468
MS.187         	18.333         	5.448
MS.188         	18.295         	5.46
MS.189         	18.26          	5.46
MS.190         	18.222         	5.442
MS.191         	18.188         	5.448
MS.192         	18.15          	5.398
MS.193         	18.115         	5.41
MS.194         	18.077         	5.317
MS.195         	18.042         	5.402
MS.196         	18.005         	5.14
MS.197         	17.97          	5.221
MS.198         	17.932         	5.237
MS.199         	17.897         	5.172
MS.200         	17.862         	5.162
MS.201         	17.827         	5.06
MS.202         	17.79          	5.068
MS.203         	17.755         	4.911
MS.204         	17.72          	5.088
MS.205         	17.685         	5.003
MS.206         	17.65          	4.88
MS.207         	17.612         	4.931
MS.208         	17.577         	4.753
MS.209         	17.542         	4.778
MS.210         	17.507         	4.794
MS.211         	17.472         	4.675
MS.212         	17.438         	4.637
MS.213         	17.403         	4.689
MS.214         	17.37          	4.586
MS.215         	17.335         	4.606
MS.216         	17.3           	4.568
MS.217         	17.265         	4.423
MS.218         	17.23          	4.564
MS.219         	17.195         	4.616
MS.220         	17.163         	4.496
MS.221         	17.128         	4.473
MS.222         	17.092         	4.367
MS.223         	17.06          	4.379
MS.224         	17.025         	4.429
MS.225         	16.99          	4.393
MS.226         	16.958         	4.369
MS.227         	16.922         	4.423
MS.228         	16.89          	4.363
MS.229         	16.855         	4.294
MS.230         	16.823         	4.328
MS.231         	16.788         	4.387
MS.232         	16.755         	4.187
MS.233         	16.72          	4.242
MS.234         	16.688         	4.242
MS.235         	16.655         	4.24
MS.236         	16.62          	4.085
MS.237         	16.587         	4.026
MS.238         	16.555         	4.052
MS.239         	16.522         	4.01
MS.240         	16.487         	3.871
MS.241         	16.455         	3.942
MS.242         	16.422         	3.811
MS.243         	16.39          	3.877
MS.244         	16.358         	3.895
MS.245         	16.325         	3.785
MS.246         	16.292         	3.722
MS.247         	16.26          	3.702
MS.248         	16.227         	3.738
MS.249         	16.195         	3.648
MS.250         	16.163         	3.672
MS.251         	16.13          	3.555
MS.252         	16.097         	3.615
MS.253         	16.065         	3.438
MS.254         	16.032         	3.529
MS.255         	16.003         	3.519
MS.256         	15.97          	3.436
MS.257         	15.938         	3.36
MS.258         	15.905         	3.344
MS.259         	15.875         	3.362
MS.260         	15.842         	3.227
MS.261         	15.81          	3.356
MS.262         	15.78          	3.309
MS.263         	15.747         	3.188
MS.264         	15.715         	3.243
MS.265         	15.685         	3.209
MS.266         	15.652         	3.104
MS.267         	15.622         	3.102
MS.268         	15.59          	3.088
MS.269         	15.56          	3.047
MS.270         	15.527         	2.983
MS.271         	15.497         	3.06
MS.272         	15.467         	3.112
MS.273         	15.435         	3.033
MS.274         	15.405         	3.023
MS.275         	15.375         	2.999
MS.276         	15.342         	3.033
MS.277         	15.312         	3.041
MS.278         	15.282         	3.005
MS.279         	15.252         	2.923
MS.280         	15.22          	2.757
MS.281         	15.19          	2.85
MS.282         	15.16          	2.84
MS.283         	15.13          	2.844
MS.284         	15.1           	2.812
MS.285         	15.07          	2.731
MS.286         	15.04          	2.63
MS.287         	15.01          	2.725
MS.288         	14.98          	2.612
MS.289         	14.95          	2.568
MS.290         	14.92          	2.455
MS.291         	14.89          	2.479
MS.292         	14.86          	2.423
MS.293         	14.83          	2.487
MS.294         	14.8           	2.351
MS.295         	14.77          	2.373
MS.296         	14.742         	2.304
MS.297         	14.712         	2.355
MS.298         	14.682         	2.252
MS.299         	14.652         	2.226
MS.300         	14.625         	2.121
MS.301         	14.595         	2.195
MS.302         	14.565         	2.151
MS.303         	14.537         	2.04
MS.304         	14.507         	2.008
MS.305         	14.477         	2.016
MS.306         	14.45          	1.952
MS.307         	14.42          	1.95
MS.308         	14.392         	1.948
MS.309         	14.362         	2.028
MS.310         	14.335         	1.893
MS.311         	14.305         	1.976
MS.312         	14.278         	1.926
MS.313         	14.25          	1.96
MS.314         	14.22          	1.843
MS.315         	14.193         	1.966
MS.316         	14.162         	1.845
MS.317         	14.135         	1.928
MS.318         	14.108         	1.907
MS.319         	14.08          	1.811
MS.320         	14.05          	1.809
MS.321         	14.023         	1.795
MS.322         	13.995         	1.684
MS.323         	13.967         	1.736
MS.324         	13.94          	1.635
MS.325         	13.91          	1.712
MS.326         	13.882         	1.597
MS.327         	13.855         	1.533
MS.328         	13.827         	1.575
MS.329         	13.8           	1.499
MS.330         	13.773         	1.531
MS.331         	13.745         	1.362
MS.332         	13.717         	1.412
MS.333         	13.69          	1.432
MS.334         	13.662         	1.354
MS.335         	13.635         	1.305
MS.336         	13.608         	1.335
MS.337         	13.58          	1.339
MS.338         	13.555         	1.215
MS.339         	13.528         	1.194
MS.340         	13.5           	1.16
MS.341         	13.472         	1.259
MS.342         	13.445         	1.213
MS.343         	13.42          	1.118
MS.344         	13.392         	1.186
MS.345         	13.365         	1.162
MS.346         	13.34          	1.114
MS.347         	13.312         	1.1
MS.348         	13.285         	0.953
MS.349         	13.26          	1.116
MS.350         	13.233         	1.078
MS.351         	13.205         	1.088
MS.352         	13.18          	1.076
MS.353         	13.153         	1.023
MS.354         	13.127         	1.009
MS.355         	13.1           	0.961
MS.356         	13.075         	1.001
MS.357         	13.047         	0.927
MS.358         	13.023         	0.886
MS.359         	12.997         	0.935
MS.360         	12.97          	0.878
MS.361         	12.945         	0.83
MS.362         	12.917         	0.876
MS.363         	12.892         	0.822
MS.364         	12.867         	0.918
MS.365         	12.842         	0.771
MS.366         	12.815         	0.82
MS.367         	12.79          	0.745
MS.368         	12.765         	0.796
MS.369         	12.74          	0.745
MS.370         	12.712         	0.723
MS.371         	12.688         	0.663
MS.372         	12.662         	0.717
MS.373         	12.637         	0.743
MS.374         	12.613         	0.616
MS.375         	12.587         	0.669
MS.376         	12.562         	0.594
MS.377         	12.537         	0.558
MS.378         	12.512         	0.552
MS.379         	12.488         	0.578
MS.380         	12.462         	0.598
MS.381         	12.438         	0.493
MS.382         	12.412         	0.524
MS.383         	12.387         	0.491
MS.384         	12.363         	0.586
MS.385         	12.337         	0.479
MS.386         	12.312         	0.441
MS.387         	12.287         	0.489
MS.388         	12.265         	0.403
MS.389         	12.24          	0.485
MS.390         	12.215         	0.431
MS.391         	12.19          	0.421
MS.392         	12.167         	0.439
MS.393         	12.142         	0.379
MS.394         	12.117         	0.354
MS.395         	12.092         	0.399
MS.396         	12.07          	0.383
MS.397         	12.045         	0.354
MS.398         	12.02          	0.338
MS.399         	11.997         	0.361
MS.400         	11.972         	0.365
MS.401         	11.95          	0.296
MS.402         	11.925         	0.248
MS.403         	11.903         	0.27
MS.404         	11.877         	0.306
MS.405         	11.855         	0.254
MS.406         	11.83          	0.246
MS.407         	11.807         	0.252
MS.408         	11.782         	0.274
MS.409         	11.76          	0.278
MS.410         	11.735         	0.234
MS.411         	11.712         	0.24
MS.412         	11.69          	0.238
MS.413         	11.665         	0.214
MS.414         	11.642         	0.222
MS.415         	11.62          	0.22
MS.416         	11.595         	0.171
MS.417         	11.572         	0.159
MS.418         	11.55          	0.149
MS.419         	11.528         	0.236
MS.420         	11.505         	0.173
MS.421         	11.48          	0.211
MS.422         	11.457         	0.177
MS.423         	11.435         	0.191
MS.424         	11.412         	0.129
MS.425         	11.39          	0.181
MS.426         	11.367         	0.201
MS.427         	11.345         	0.155
MS.428         	11.32          	0.119
MS.429         	11.297         	0.115
MS.430         	11.275         	0.147
MS.431         	11.252         	0.113
MS.432         	11.23          	0.123
MS.433         	11.207         	0.121
MS.434         	11.185         	0.129
MS.435         	11.165         	0.123
MS.436         	11.142         	0.115
MS.437         	11.12          	0.141
MS.438         	11.097         	0.123
MS.439         	11.075         	0.109
MS.440         	11.052         	0.097
MS.441         	11.03          	0.097
MS.442         	11.007         	0.089
MS.443         	10.988         	0.079
MS.444         	10.965         	0.089
MS.445         	10.943         	0.085
MS.446         	10.92          	0.113
MS.447         	10.9           	0.087
MS.448         	10.877         	0.103
MS.449         	10.855         	0.085
MS.450         	10.835         	0.099
MS.451         	10.812         	0.089
MS.452         	10.79          	0.079
MS.453         	10.77          	0.062
MS.454         	10.747         	0.073
MS.455         	10.725         	0.06
MS.456         	10.705         	0.06
MS.457         	10.682         	0.079
MS.458         	10.662         	0.066
MS.459         	10.64          	0.075
MS.460         	10.62          	0.064
MS.461         	10.597         	0.068
MS.462         	10.577         	0.054
MS.463         	10.555         	0.054
MS.464         	10.535         	0.052
MS.465         	10.512         	0.052
MS.466         	10.492         	0.066
MS.467         	10.472         	0.052
MS.468         	10.45          	0.075
MS.469         	10.43          	0.044
MS.470         	10.41          	0.054
MS.471         	10.387         	0.048
MS.472         	10.367         	0.06
MS.473         	10.347         	0.04
MS.474         	10.325         	0.048
MS.475         	10.305         	0.06
MS.476         	10.285         	0.042
MS.477         	10.265         	0.052
MS.478         	10.245         	0.038
MS.479         	10.222         	0.052
MS.480         	10.202         	0.038
MS.481         	10.182         	0.036
MS.482         	10.162         	0.038
MS.483         	10.142         	0.036
MS.484         	10.122         	0.028
MS.485         	10.102         	0.034
MS.486         	10.08          	0.048
MS.487         	10.06          	0.04
MS.488         	10.04          	0.03
MS.489         	10.02          	0.032
MS.490         	10             	0.034
MS.491         	9.98           	0.028
MS.492         	9.96           	0.028
MS.493         	9.94           	0.032
MS.494         	9.92           	0.02
MS.495         	9.903          	0.042
MS.496         	9.882          	0.028
MS.497         	9.863          	0.038
MS.498         	9.842          	0.03
MS.499         	9.823          	0.03
MS.500         	9.802          	0.034
MS.501         	9.782          	0.026
