File:              	C:\Qtrac\Data\Daniel M Sørensen\MScan multicentre study\Data from centres\Aarhus\Processed data\DMSC00303C.QZD
Name:              	DK.AAR.NC.3.2
Protocol:          	MSCAN-R2
Date:              	3/3/20
Start time:        	14:40:20
Age:               	48
Sex:               	m
Temperature:       	35,4
S/R sites:         	TA
NC/disease:        	NC
Operator:          	DS
Comments:
M-SCAN DATA (11-3.4m)
Scanpts: 8, 19, 790, 812
Stim. (mA)     	Amp. (mV)
MS.1           	41             	5.605
MS.2           	41             	5.611
MS.3           	41             	5.595
MS.4           	41             	5.589
MS.5           	41             	5.557
MS.6           	41             	5.573
MS.7           	41             	5.523
MS.8           	41             	5.545
MS.9           	41             	5.547
MS.10          	41             	5.523
MS.11          	41             	5.525
MS.12          	41             	5.527
MS.13          	41             	5.537
MS.14          	41             	5.529
MS.15          	41             	5.551
MS.16          	41             	5.541
MS.17          	41             	5.529
MS.18          	41             	5.539
MS.19          	41             	5.525
MS.20          	41             	5.539
MS.21          	41             	5.531
MS.22          	41             	5.535
MS.23          	41             	5.555
MS.24          	40.835         	5.533
MS.25          	40.755         	5.543
MS.26          	40.673         	5.537
MS.27          	40.592         	5.519
MS.28          	40.51          	5.529
MS.29          	40.43          	5.539
MS.30          	40.35          	5.525
MS.31          	40.267         	5.537
MS.32          	40.188         	5.509
MS.33          	40.107         	5.521
MS.34          	40.028         	5.517
MS.35          	39.947         	5.535
MS.36          	39.868         	5.537
MS.37          	39.787         	5.527
MS.38          	39.708         	5.517
MS.39          	39.63          	5.499
MS.40          	39.55          	5.505
MS.41          	39.47          	5.501
MS.42          	39.392         	5.501
MS.43          	39.312         	5.481
MS.44          	39.235         	5.495
MS.45          	39.157         	5.44
MS.46          	39.077         	5.509
MS.47          	39             	5.483
MS.48          	38.923         	5.47
MS.49          	38.845         	5.474
MS.50          	38.767         	5.481
MS.51          	38.69          	5.442
MS.52          	38.612         	5.481
MS.53          	38.535         	5.45
MS.54          	38.458         	5.47
MS.55          	38.38          	5.456
MS.56          	38.305         	5.438
MS.57          	38.228         	5.444
MS.58          	38.153         	5.481
MS.59          	38.075         	5.44
MS.60          	38             	5.406
MS.61          	37.923         	5.414
MS.62          	37.847         	5.456
MS.63          	37.772         	5.438
MS.64          	37.697         	5.386
MS.65          	37.62          	5.432
MS.66          	37.545         	5.414
MS.67          	37.47          	5.348
MS.68          	37.395         	5.344
MS.69          	37.322         	5.352
MS.70          	37.247         	5.36
MS.71          	37.173         	5.402
MS.72          	37.097         	5.315
MS.73          	37.025         	5.358
MS.74          	36.95          	5.418
MS.75          	36.875         	5.392
MS.76          	36.802         	5.394
MS.77          	36.73          	5.299
MS.78          	36.655         	5.34
MS.79          	36.583         	5.331
MS.80          	36.51          	5.307
MS.81          	36.438         	5.279
MS.82          	36.362         	5.257
MS.83          	36.29          	5.364
MS.84          	36.217         	5.313
MS.85          	36.145         	5.223
MS.86          	36.075         	5.275
MS.87          	36.002         	5.19
MS.88          	35.93          	5.249
MS.89          	35.857         	5.211
MS.90          	35.787         	5.251
MS.91          	35.715         	5.225
MS.92          	35.642         	5.225
MS.93          	35.572         	5.223
MS.94          	35.5           	5.193
MS.95          	35.43          	5.168
MS.96          	35.36          	5.221
MS.97          	35.29          	5.174
MS.98          	35.217         	5.184
MS.99          	35.147         	5.182
MS.100         	35.077         	5.15
MS.101         	35.007         	5.142
MS.102         	34.938         	5.122
MS.103         	34.868         	5.142
MS.104         	34.798         	5.112
MS.105         	34.73          	5.126
MS.106         	34.66          	5.124
MS.107         	34.59          	5.096
MS.108         	34.52          	5.126
MS.109         	34.452         	5.14
MS.110         	34.382         	5.142
MS.111         	34.315         	5.116
MS.112         	34.245         	5.13
MS.113         	34.177         	5.096
MS.114         	34.11          	5.132
MS.115         	34.04          	5.066
MS.116         	33.972         	5.084
MS.117         	33.905         	5.1
MS.118         	33.837         	5.096
MS.119         	33.77          	5.082
MS.120         	33.702         	5.092
MS.121         	33.635         	5.094
MS.122         	33.568         	5.094
MS.123         	33.5           	5.09
MS.124         	33.435         	5.072
MS.125         	33.368         	5.066
MS.126         	33.3           	5.043
MS.127         	33.235         	5.029
MS.128         	33.167         	5.013
MS.129         	33.1           	4.983
MS.130         	33.035         	5.003
MS.131         	32.97          	4.937
MS.132         	32.903         	5.035
MS.133         	32.837         	4.965
MS.134         	32.772         	4.973
MS.135         	32.708         	4.991
MS.136         	32.64          	4.969
MS.137         	32.575         	4.943
MS.138         	32.51          	4.935
MS.139         	32.445         	4.947
MS.140         	32.38          	4.87
MS.141         	32.315         	4.941
MS.142         	32.252         	4.923
MS.143         	32.188         	4.88
MS.144         	32.122         	4.945
MS.145         	32.057         	4.862
MS.146         	31.995         	4.88
MS.147         	31.93          	4.814
MS.148         	31.867         	4.919
MS.149         	31.802         	4.86
MS.150         	31.74          	4.834
MS.151         	31.677         	4.848
MS.152         	31.612         	4.878
MS.153         	31.55          	4.872
MS.154         	31.487         	4.814
MS.155         	31.425         	4.788
MS.156         	31.36          	4.731
MS.157         	31.297         	4.838
MS.158         	31.235         	4.757
MS.159         	31.172         	4.719
MS.160         	31.11          	4.751
MS.161         	31.05          	4.745
MS.162         	30.987         	4.693
MS.163         	30.925         	4.757
MS.164         	30.862         	4.737
MS.165         	30.802         	4.693
MS.166         	30.74          	4.719
MS.167         	30.677         	4.641
MS.168         	30.617         	4.721
MS.169         	30.555         	4.701
MS.170         	30.495         	4.653
MS.171         	30.435         	4.616
MS.172         	30.372         	4.57
MS.173         	30.312         	4.685
MS.174         	30.252         	4.592
MS.175         	30.192         	4.562
MS.176         	30.132         	4.55
MS.177         	30.07          	4.558
MS.178         	30.01          	4.572
MS.179         	29.95          	4.562
MS.180         	29.892         	4.576
MS.181         	29.832         	4.544
MS.182         	29.772         	4.548
MS.183         	29.712         	4.52
MS.184         	29.653         	4.482
MS.185         	29.595         	4.508
MS.186         	29.535         	4.482
MS.187         	29.475         	4.459
MS.188         	29.417         	4.453
MS.189         	29.358         	4.477
MS.190         	29.3           	4.417
MS.191         	29.24          	4.437
MS.192         	29.182         	4.316
MS.193         	29.125         	4.407
MS.194         	29.065         	4.389
MS.195         	29.007         	4.387
MS.196         	28.95          	4.453
MS.197         	28.892         	4.447
MS.198         	28.835         	4.439
MS.199         	28.778         	4.3
MS.200         	28.72          	4.363
MS.201         	28.662         	4.349
MS.202         	28.605         	4.339
MS.203         	28.547         	4.341
MS.204         	28.49          	4.339
MS.205         	28.432         	4.242
MS.206         	28.377         	4.27
MS.207         	28.32          	4.365
MS.208         	28.262         	4.32
MS.209         	28.207         	4.363
MS.210         	28.15          	4.365
MS.211         	28.095         	4.353
MS.212         	28.037         	4.268
MS.213         	27.983         	4.332
MS.214         	27.927         	4.288
MS.215         	27.87          	4.248
MS.216         	27.815         	4.266
MS.217         	27.76          	4.324
MS.218         	27.705         	4.242
MS.219         	27.647         	4.308
MS.220         	27.592         	4.25
MS.221         	27.537         	4.26
MS.222         	27.483         	4.256
MS.223         	27.427         	4.26
MS.224         	27.372         	4.21
MS.225         	27.317         	4.212
MS.226         	27.265         	4.222
MS.227         	27.21          	4.183
MS.228         	27.155         	4.151
MS.229         	27.1           	4.161
MS.230         	27.047         	4.119
MS.231         	26.993         	4.103
MS.232         	26.94          	4.191
MS.233         	26.885         	4.117
MS.234         	26.832         	3.998
MS.235         	26.778         	4.113
MS.236         	26.725         	4.075
MS.237         	26.67          	4.089
MS.238         	26.618         	4.105
MS.239         	26.565         	4.046
MS.240         	26.51          	4.077
MS.241         	26.457         	3.948
MS.242         	26.405         	4.032
MS.243         	26.352         	4
MS.244         	26.3           	3.996
MS.245         	26.247         	3.986
MS.246         	26.195         	3.994
MS.247         	26.142         	3.958
MS.248         	26.09          	3.877
MS.249         	26.037         	3.885
MS.250         	25.987         	3.813
MS.251         	25.935         	3.926
MS.252         	25.882         	3.766
MS.253         	25.83          	3.781
MS.254         	25.78          	3.797
MS.255         	25.727         	3.684
MS.256         	25.677         	3.724
MS.257         	25.625         	3.658
MS.258         	25.575         	3.615
MS.259         	25.522         	3.654
MS.260         	25.472         	3.666
MS.261         	25.42          	3.726
MS.262         	25.37          	3.609
MS.263         	25.32          	3.722
MS.264         	25.267         	3.644
MS.265         	25.217         	3.571
MS.266         	25.167         	3.69
MS.267         	25.118         	3.452
MS.268         	25.067         	3.555
MS.269         	25.017         	3.362
MS.270         	24.967         	3.591
MS.271         	24.917         	3.491
MS.272         	24.868         	3.495
MS.273         	24.817         	3.41
MS.274         	24.767         	3.464
MS.275         	24.72          	3.43
MS.276         	24.67          	3.35
MS.277         	24.62          	3.45
MS.278         	24.57          	3.303
MS.279         	24.522         	3.47
MS.280         	24.472         	3.47
MS.281         	24.425         	3.446
MS.282         	24.375         	3.291
MS.283         	24.327         	3.275
MS.284         	24.278         	3.42
MS.285         	24.23          	3.366
MS.286         	24.18          	3.392
MS.287         	24.132         	3.164
MS.288         	24.085         	3.164
MS.289         	24.038         	3.315
MS.290         	23.987         	3.207
MS.291         	23.94          	3.211
MS.292         	23.892         	3.168
MS.293         	23.845         	3.156
MS.294         	23.797         	3.114
MS.295         	23.75          	3.122
MS.296         	23.702         	3.134
MS.297         	23.655         	3.134
MS.298         	23.608         	3.066
MS.299         	23.56          	3.06
MS.300         	23.512         	3.025
MS.301         	23.467         	3.1
MS.302         	23.42          	3.086
MS.303         	23.372         	3.029
MS.304         	23.325         	3.049
MS.305         	23.28          	3.076
MS.306         	23.233         	3.037
MS.307         	23.188         	2.993
MS.308         	23.14          	3.06
MS.309         	23.095         	3.023
MS.310         	23.047         	2.983
MS.311         	23.002         	3.025
MS.312         	22.955         	2.894
MS.313         	22.91          	2.919
MS.314         	22.865         	3.013
MS.315         	22.817         	2.88
MS.316         	22.772         	2.951
MS.317         	22.727         	2.894
MS.318         	22.682         	2.83
MS.319         	22.637         	2.9
MS.320         	22.592         	2.874
MS.321         	22.545         	2.848
MS.322         	22.5           	2.818
MS.323         	22.455         	2.798
MS.324         	22.413         	2.773
MS.325         	22.368         	2.788
MS.326         	22.323         	2.761
MS.327         	22.278         	2.802
MS.328         	22.233         	2.8
MS.329         	22.188         	2.715
MS.330         	22.145         	2.735
MS.331         	22.1           	2.743
MS.332         	22.055         	2.705
MS.333         	22.012         	2.695
MS.334         	21.967         	2.719
MS.335         	21.922         	2.741
MS.336         	21.88          	2.683
MS.337         	21.835         	2.699
MS.338         	21.792         	2.737
MS.339         	21.75          	2.679
MS.340         	21.705         	2.687
MS.341         	21.663         	2.536
MS.342         	21.62          	2.556
MS.343         	21.575         	2.626
MS.344         	21.532         	2.568
MS.345         	21.49          	2.584
MS.346         	21.448         	2.534
MS.347         	21.405         	2.518
MS.348         	21.36          	2.463
MS.349         	21.317         	2.512
MS.350         	21.275         	2.508
MS.351         	21.233         	2.526
MS.352         	21.19          	2.516
MS.353         	21.147         	2.512
MS.354         	21.105         	2.483
MS.355         	21.065         	2.421
MS.356         	21.022         	2.433
MS.357         	20.98          	2.405
MS.358         	20.938         	2.403
MS.359         	20.895         	2.391
MS.360         	20.855         	2.346
MS.361         	20.812         	2.306
MS.362         	20.77          	2.403
MS.363         	20.73          	2.338
MS.364         	20.688         	2.278
MS.365         	20.647         	2.326
MS.366         	20.605         	2.32
MS.367         	20.565         	2.264
MS.368         	20.522         	2.292
MS.369         	20.483         	2.26
MS.370         	20.442         	2.284
MS.371         	20.4           	2.25
MS.372         	20.36          	2.27
MS.373         	20.32          	2.224
MS.374         	20.278         	2.22
MS.375         	20.237         	2.181
MS.376         	20.198         	2.191
MS.377         	20.157         	2.189
MS.378         	20.118         	2.201
MS.379         	20.077         	2.141
MS.380         	20.038         	2.183
MS.381         	19.997         	2.183
MS.382         	19.958         	2.129
MS.383         	19.917         	2.111
MS.384         	19.877         	2.143
MS.385         	19.837         	2.193
MS.386         	19.797         	2.123
MS.387         	19.757         	2.101
MS.388         	19.717         	2.111
MS.389         	19.68          	2.067
MS.390         	19.64          	2.077
MS.391         	19.6           	2.141
MS.392         	19.562         	2.071
MS.393         	19.522         	2.048
MS.394         	19.483         	2.062
MS.395         	19.445         	2.046
MS.396         	19.405         	2.079
MS.397         	19.368         	2.044
MS.398         	19.327         	2.018
MS.399         	19.29          	2.058
MS.400         	19.25          	2.052
MS.401         	19.212         	1.998
MS.402         	19.175         	1.982
MS.403         	19.135         	1.96
MS.404         	19.097         	2.006
MS.405         	19.06          	1.998
MS.406         	19.022         	1.962
MS.407         	18.983         	2.004
MS.408         	18.945         	1.97
MS.409         	18.907         	1.839
MS.410         	18.87          	1.944
MS.411         	18.833         	1.853
MS.412         	18.795         	1.865
MS.413         	18.757         	1.897
MS.414         	18.72          	1.922
MS.415         	18.682         	1.901
MS.416         	18.645         	1.845
MS.417         	18.608         	1.922
MS.418         	18.57          	1.813
MS.419         	18.532         	1.789
MS.420         	18.497         	1.891
MS.421         	18.46          	1.821
MS.422         	18.422         	1.847
MS.423         	18.385         	1.734
MS.424         	18.35          	1.754
MS.425         	18.312         	1.819
MS.426         	18.275         	1.845
MS.427         	18.24          	1.801
MS.428         	18.202         	1.726
MS.429         	18.167         	1.688
MS.430         	18.13          	1.718
MS.431         	18.095         	1.682
MS.432         	18.057         	1.666
MS.433         	18.022         	1.785
MS.434         	17.985         	1.654
MS.435         	17.95          	1.744
MS.436         	17.913         	1.752
MS.437         	17.878         	1.646
MS.438         	17.842         	1.644
MS.439         	17.807         	1.619
MS.440         	17.77          	1.66
MS.441         	17.735         	1.623
MS.442         	17.7           	1.64
MS.443         	17.665         	1.67
MS.444         	17.63          	1.587
MS.445         	17.595         	1.642
MS.446         	17.56          	1.617
MS.447         	17.525         	1.593
MS.448         	17.49          	1.595
MS.449         	17.455         	1.555
MS.450         	17.42          	1.619
MS.451         	17.385         	1.581
MS.452         	17.35          	1.456
MS.453         	17.315         	1.468
MS.454         	17.28          	1.543
MS.455         	17.245         	1.511
MS.456         	17.212         	1.484
MS.457         	17.177         	1.557
MS.458         	17.142         	1.446
MS.459         	17.108         	1.555
MS.460         	17.075         	1.583
MS.461         	17.04          	1.533
MS.462         	17.005         	1.521
MS.463         	16.972         	1.398
MS.464         	16.938         	1.547
MS.465         	16.905         	1.386
MS.466         	16.87          	1.454
MS.467         	16.837         	1.341
MS.468         	16.802         	1.356
MS.469         	16.77          	1.472
MS.470         	16.735         	1.345
MS.471         	16.702         	1.305
MS.472         	16.67          	1.4
MS.473         	16.635         	1.309
MS.474         	16.602         	1.307
MS.475         	16.57          	1.102
MS.476         	16.538         	1.291
MS.477         	16.503         	1.269
MS.478         	16.47          	1.263
MS.479         	16.438         	1.13
MS.480         	16.405         	1.251
MS.481         	16.372         	1.174
MS.482         	16.34          	1.188
MS.483         	16.307         	1.229
MS.484         	16.275         	1.104
MS.485         	16.243         	1.057
MS.486         	16.21          	1.11
MS.487         	16.177         	1.059
MS.488         	16.145         	0.929
MS.489         	16.112         	1.072
MS.490         	16.08          	1.082
MS.491         	16.047         	0.838
MS.492         	16.015         	0.892
MS.493         	15.983         	0.874
MS.494         	15.952         	0.914
MS.495         	15.92          	0.842
MS.496         	15.887         	1.003
MS.497         	15.858         	0.955
MS.498         	15.825         	1.025
MS.499         	15.792         	0.826
MS.500         	15.762         	0.91
MS.501         	15.73          	0.824
MS.502         	15.697         	0.868
