File:              	C:\Qtrac\Data\Daniel M Sørensen\MScan multicentre study\Data from centres\Aarhus\Processed data\DMSC00618E.QZD
Name:              	DK.AAR.NC.1.2
Protocol:          	MSCAN-R2
Date:              	18/6/20
Start time:        	12:56:18
Age:               	21
Sex:               	f
Temperature:       	32,8
S/R sites:         	APB
NC/disease:        	NC
Operator:          	DS
Comments:
M-SCAN DATA (6.2-1.7m)
Scanpts: 123, 142, 467, 488
Stim. (mA)     	Amp. (mV)
MS.1           	16             	11.515
MS.2           	16             	11.517
MS.3           	16             	11.541
MS.4           	16             	11.533
MS.5           	16             	11.577
MS.6           	16             	11.525
MS.7           	16             	11.523
MS.8           	16             	11.547
MS.9           	16             	11.517
MS.10          	16             	11.501
MS.11          	16             	11.489
MS.12          	16             	11.453
MS.13          	16             	11.491
MS.14          	16             	11.467
MS.15          	16             	11.489
MS.16          	16             	11.505
MS.17          	16             	11.519
MS.18          	16             	11.523
MS.19          	16             	11.533
MS.20          	16             	11.525
MS.21          	16             	11.537
MS.22          	16             	11.565
MS.23          	15.935         	11.523
MS.24          	15.905         	11.507
MS.25          	15.872         	11.497
MS.26          	15.84          	11.481
MS.27          	15.81          	11.529
MS.28          	15.777         	11.521
MS.29          	15.745         	11.465
MS.30          	15.715         	11.507
MS.31          	15.682         	11.521
MS.32          	15.652         	11.547
MS.33          	15.62          	11.551
MS.34          	15.59          	11.537
MS.35          	15.557         	11.535
MS.36          	15.527         	11.535
MS.37          	15.495         	11.523
MS.38          	15.465         	11.539
MS.39          	15.435         	11.527
MS.40          	15.402         	11.521
MS.41          	15.372         	11.539
MS.42          	15.342         	11.555
MS.43          	15.31          	11.571
MS.44          	15.28          	11.581
MS.45          	15.25          	11.583
MS.46          	15.22          	11.549
MS.47          	15.19          	11.539
MS.48          	15.16          	11.535
MS.49          	15.127         	11.547
MS.50          	15.097         	11.545
MS.51          	15.068         	11.491
MS.52          	15.037         	11.517
MS.53          	15.007         	11.543
MS.54          	14.977         	11.565
MS.55          	14.947         	11.555
MS.56          	14.917         	11.384
MS.57          	14.887         	11.537
MS.58          	14.858         	11.547
MS.59          	14.83          	11.557
MS.60          	14.8           	11.547
MS.61          	14.77          	11.561
MS.62          	14.74          	11.557
MS.63          	14.71          	11.571
MS.64          	14.682         	11.585
MS.65          	14.652         	11.594
MS.66          	14.622         	11.569
MS.67          	14.592         	11.591
MS.68          	14.565         	11.577
MS.69          	14.535         	11.583
MS.70          	14.507         	11.563
MS.71          	14.477         	11.416
MS.72          	14.447         	11.501
MS.73          	14.42          	11.579
MS.74          	14.39          	11.416
MS.75          	14.362         	11.348
MS.76          	14.332         	11.376
MS.77          	14.305         	11.436
MS.78          	14.275         	11.348
MS.79          	14.247         	11.434
MS.80          	14.22          	11.422
MS.81          	14.19          	11.525
MS.82          	14.162         	11.561
MS.83          	14.135         	11.565
MS.84          	14.105         	11.402
MS.85          	14.077         	11.36
MS.86          	14.05          	11.384
MS.87          	14.023         	11.529
MS.88          	13.992         	11.565
MS.89          	13.965         	11.557
MS.90          	13.938         	11.583
MS.91          	13.91          	11.575
MS.92          	13.882         	11.571
MS.93          	13.855         	11.602
MS.94          	13.827         	11.598
MS.95          	13.8           	11.612
MS.96          	13.773         	11.61
MS.97          	13.745         	11.557
MS.98          	13.717         	11.575
MS.99          	13.69          	11.618
MS.100         	13.662         	11.604
MS.101         	13.635         	11.62
MS.102         	13.608         	11.62
MS.103         	13.58          	11.602
MS.104         	13.552         	11.487
MS.105         	13.525         	11.501
MS.106         	13.497         	11.38
MS.107         	13.472         	11.374
MS.108         	13.445         	11.366
MS.109         	13.417         	11.406
MS.110         	13.39          	11.382
MS.111         	13.365         	11.356
MS.112         	13.337         	11.404
MS.113         	13.31          	11.366
MS.114         	13.285         	11.388
MS.115         	13.257         	11.384
MS.116         	13.233         	11.398
MS.117         	13.205         	11.406
MS.118         	13.177         	11.41
MS.119         	13.153         	11.442
MS.120         	13.125         	11.434
MS.121         	13.1           	11.459
MS.122         	13.072         	11.368
MS.123         	13.047         	11.406
MS.124         	13.023         	11.428
MS.125         	12.995         	11.418
MS.126         	12.97          	11.428
MS.127         	12.943         	11.428
MS.128         	12.917         	11.426
MS.129         	12.892         	11.358
MS.130         	12.865         	11.378
MS.131         	12.84          	11.402
MS.132         	12.815         	11.39
MS.133         	12.79          	11.392
MS.134         	12.762         	11.386
MS.135         	12.738         	11.416
MS.136         	12.712         	11.442
MS.137         	12.688         	11.388
MS.138         	12.662         	11.384
MS.139         	12.637         	11.35
MS.140         	12.61          	11.388
MS.141         	12.585         	11.426
MS.142         	12.56          	11.424
MS.143         	12.535         	11.434
MS.144         	12.51          	11.442
MS.145         	12.485         	11.396
MS.146         	12.46          	11.4
MS.147         	12.435         	11.432
MS.148         	12.41          	11.398
MS.149         	12.385         	11.418
MS.150         	12.363         	11.459
MS.151         	12.337         	11.434
MS.152         	12.312         	11.481
MS.153         	12.287         	11.442
MS.154         	12.262         	11.471
MS.155         	12.238         	11.499
MS.156         	12.215         	11.501
MS.157         	12.19          	11.465
MS.158         	12.165         	11.336
MS.159         	12.14          	11.362
MS.160         	12.117         	11.318
MS.161         	12.092         	11.35
MS.162         	12.068         	11.342
MS.163         	12.045         	11.36
MS.164         	12.02          	11.352
MS.165         	11.995         	11.326
MS.166         	11.972         	11.34
MS.167         	11.947         	11.358
MS.168         	11.925         	11.38
MS.169         	11.9           	11.41
MS.170         	11.877         	11.428
MS.171         	11.852         	11.406
MS.172         	11.83          	11.334
MS.173         	11.805         	11.342
MS.174         	11.782         	11.362
MS.175         	11.757         	11.372
MS.176         	11.735         	11.384
MS.177         	11.712         	11.372
MS.178         	11.688         	11.36
MS.179         	11.665         	11.368
MS.180         	11.642         	11.348
MS.181         	11.617         	11.346
MS.182         	11.595         	11.37
MS.183         	11.572         	11.344
MS.184         	11.55          	11.368
MS.185         	11.525         	11.408
MS.186         	11.502         	11.402
MS.187         	11.48          	11.352
MS.188         	11.457         	11.376
MS.189         	11.435         	11.388
MS.190         	11.41          	11.33
MS.191         	11.387         	10.878
MS.192         	11.365         	11.358
MS.193         	11.342         	10.84
MS.194         	11.32          	10.907
MS.195         	11.297         	10.901
MS.196         	11.275         	11.364
MS.197         	11.252         	11.322
MS.198         	11.23          	10.905
MS.199         	11.207         	11.316
MS.200         	11.185         	10.83
MS.201         	11.162         	11.356
MS.202         	11.14          	10.901
MS.203         	11.117         	10.84
MS.204         	11.095         	10.876
MS.205         	11.075         	10.85
MS.206         	11.052         	10.836
MS.207         	11.03          	10.876
MS.208         	11.007         	10.824
MS.209         	10.985         	10.834
MS.210         	10.962         	10.82
MS.211         	10.943         	10.866
MS.212         	10.92          	10.889
MS.213         	10.898         	10.854
MS.214         	10.877         	10.838
MS.215         	10.855         	10.87
MS.216         	10.832         	10.788
MS.217         	10.81          	10.782
MS.218         	10.79          	10.792
MS.219         	10.767         	10.81
MS.220         	10.747         	10.8
MS.221         	10.725         	10.764
MS.222         	10.702         	10.818
MS.223         	10.682         	10.816
MS.224         	10.66          	10.802
MS.225         	10.64          	10.766
MS.226         	10.617         	10.754
MS.227         	10.597         	10.79
MS.228         	10.575         	10.818
MS.229         	10.555         	10.758
MS.230         	10.535         	10.784
MS.231         	10.512         	10.798
MS.232         	10.492         	10.758
MS.233         	10.47          	10.762
MS.234         	10.45          	10.449
MS.235         	10.43          	10.401
MS.236         	10.407         	10.629
MS.237         	10.387         	10.756
MS.238         	10.367         	10.756
MS.239         	10.345         	10.425
MS.240         	10.325         	10.76
MS.241         	10.305         	10.238
MS.242         	10.285         	10.248
MS.243         	10.262         	10.447
MS.244         	10.242         	10.447
MS.245         	10.222         	10.28
MS.246         	10.202         	10.451
MS.247         	10.182         	10.159
MS.248         	10.162         	10.155
MS.249         	10.14          	10.292
MS.250         	10.12          	9.753
MS.251         	10.1           	10.163
MS.252         	10.08          	10.308
MS.253         	10.06          	9.807
MS.254         	10.04          	9.974
MS.255         	10.02          	10.365
MS.256         	10             	9.672
MS.257         	9.98           	9.781
MS.258         	9.96           	9.795
MS.259         	9.94           	9.734
MS.260         	9.92           	9.273
MS.261         	9.9            	9.283
MS.262         	9.88           	9.61
MS.263         	9.86           	9.642
MS.264         	9.842          	10.043
MS.265         	9.823          	9.626
MS.266         	9.802          	9.064
MS.267         	9.782          	9.108
MS.268         	9.762          	8.921
MS.269         	9.742          	8.848
MS.270         	9.725          	8.991
MS.271         	9.705          	8.85
MS.272         	9.685          	9.334
MS.273         	9.665          	9.541
MS.274         	9.648          	8.838
MS.275         	9.627          	9.257
MS.276         	9.608          	8.752
MS.277         	9.587          	8.899
MS.278         	9.57           	9.005
MS.279         	9.55           	8.86
MS.280         	9.532          	8.687
MS.281         	9.512          	8.782
MS.282         	9.492          	8.56
MS.283         	9.475          	8.345
MS.284         	9.455          	8.502
MS.285         	9.438          	8.649
MS.286         	9.417          	8.657
MS.287         	9.4            	8.077
MS.288         	9.38           	8.278
MS.289         	9.363          	8.194
MS.290         	9.342          	8.141
MS.291         	9.325          	8.135
MS.292         	9.305          	7.364
MS.293         	9.287          	8.157
MS.294         	9.267          	7.714
MS.295         	9.25           	7.883
MS.296         	9.23           	7.452
MS.297         	9.212          	6.941
MS.298         	9.195          	7.205
MS.299         	9.175          	7.807
MS.300         	9.158          	7.358
MS.301         	9.14           	7.422
MS.302         	9.12           	7.43
MS.303         	9.102          	6.943
MS.304         	9.085          	6.84
MS.305         	9.068          	6.951
MS.306         	9.047          	6.758
MS.307         	9.03           	7.253
MS.308         	9.012          	6.451
MS.309         	8.995          	6.294
MS.310         	8.977          	6.296
MS.311         	8.957          	6.435
MS.312         	8.94           	5.897
MS.313         	8.922          	6.385
MS.314         	8.905          	6.266
MS.315         	8.887          	5.988
MS.316         	8.87           	5.799
MS.317         	8.852          	5.807
MS.318         	8.835          	5.511
MS.319         	8.815          	5.609
MS.320         	8.797          	5.446
MS.321         	8.78           	5.559
MS.322         	8.762          	5.434
MS.323         	8.745          	5.533
MS.324         	8.727          	5.497
MS.325         	8.71           	5.255
MS.326         	8.693          	5.11
MS.327         	8.675          	5.045
MS.328         	8.66           	4.9
MS.329         	8.642          	5.158
MS.330         	8.625          	4.534
MS.331         	8.608          	5.523
MS.332         	8.59           	5.009
MS.333         	8.573          	4.616
MS.334         	8.555          	4.546
MS.335         	8.537          	4.6
MS.336         	8.523          	4.445
MS.337         	8.505          	4.161
MS.338         	8.488          	3.893
MS.339         	8.47           	3.664
MS.340         	8.452          	3.754
MS.341         	8.438          	3.952
MS.342         	8.42           	4.077
MS.343         	8.403          	3.899
MS.344         	8.385          	3.404
MS.345         	8.37           	3.738
MS.346         	8.352          	3.625
MS.347         	8.335          	3.484
MS.348         	8.32           	3.299
MS.349         	8.302          	3.154
MS.350         	8.285          	3.213
MS.351         	8.27           	3.426
MS.352         	8.252          	2.981
MS.353         	8.238          	3.06
MS.354         	8.22           	2.902
MS.355         	8.202          	2.657
MS.356         	8.188          	3.088
MS.357         	8.17           	2.618
MS.358         	8.155          	2.312
MS.359         	8.137          	2.304
MS.360         	8.122          	2.036
MS.361         	8.105          	2.187
MS.362         	8.09           	1.926
MS.363         	8.073          	2.715
MS.364         	8.057          	2.502
MS.365         	8.042          	2.075
MS.366         	8.025          	1.736
MS.367         	8.01           	2.212
MS.368         	7.992          	1.646
MS.369         	7.977          	1.974
MS.370         	7.96           	1.635
MS.371         	7.945          	1.859
MS.372         	7.93           	1.374
MS.373         	7.912          	1.507
MS.374         	7.898          	1.708
MS.375         	7.882          	1.076
MS.376         	7.867          	1.45
MS.377         	7.85           	1.219
MS.378         	7.835          	1.293
MS.379         	7.82           	1.076
MS.380         	7.802          	1.152
MS.381         	7.787          	0.943
MS.382         	7.773          	0.904
MS.383         	7.757          	1.086
MS.384         	7.742          	1.086
MS.385         	7.725          	0.737
MS.386         	7.71           	0.767
MS.387         	7.695          	0.761
MS.388         	7.68           	0.52
MS.389         	7.665          	0.786
MS.390         	7.65           	0.538
MS.391         	7.635          	0.8
MS.392         	7.617          	0.749
MS.393         	7.602          	0.467
MS.394         	7.587          	0.397
MS.395         	7.572          	0.723
MS.396         	7.557          	0.365
MS.397         	7.543          	0.463
MS.398         	7.527          	0.405
MS.399         	7.512          	0.393
MS.400         	7.497          	0.274
MS.401         	7.482          	0.365
MS.402         	7.467          	0.397
MS.403         	7.452          	0.354
MS.404         	7.438          	0.463
MS.405         	7.422          	0.272
MS.406         	7.407          	0.415
MS.407         	7.392          	0.24
MS.408         	7.378          	0.23
MS.409         	7.365          	0.135
MS.410         	7.35           	0.157
MS.411         	7.335          	0.171
MS.412         	7.32           	0.201
MS.413         	7.305          	0.175
MS.414         	7.29           	0.23
MS.415         	7.275          	0.234
MS.416         	7.262          	0.24
MS.417         	7.247          	0.105
MS.418         	7.233          	0.23
MS.419         	7.217          	0.105
MS.420         	7.202          	0.155
MS.421         	7.19           	0.089
MS.422         	7.175          	0.103
MS.423         	7.16           	0.119
MS.424         	7.145          	0.032
MS.425         	7.132          	0.097
MS.426         	7.117          	0.107
MS.427         	7.102          	0.034
MS.428         	7.09           	0.042
MS.429         	7.075          	0.034
MS.430         	7.06           	0.095
MS.431         	7.047          	0.03
MS.432         	7.032          	0.038
MS.433         	7.017          	0.038
MS.434         	7.005          	0.032
MS.435         	6.99           	0.03
MS.436         	6.977          	0.036
MS.437         	6.962          	0.032
MS.438         	6.95           	0.034
MS.439         	6.935          	0.034
MS.440         	6.92           	0.028
MS.441         	6.907          	0.034
MS.442         	6.892          	0.03
MS.443         	6.88           	0.032
MS.444         	6.865          	0.034
MS.445         	6.852          	0.03
MS.446         	6.837          	0.032
MS.447         	6.825          	0.032
MS.448         	6.812          	0.026
MS.449         	6.797          	0.03
MS.450         	6.785          	0.034
MS.451         	6.77           	0.032
MS.452         	6.757          	0.03
MS.453         	6.742          	0.03
MS.454         	6.73           	0.03
MS.455         	6.717          	0.034
MS.456         	6.702          	0.032
MS.457         	6.69           	0.034
MS.458         	6.677          	0.03
MS.459         	6.662          	0.03
MS.460         	6.65           	0.034
MS.461         	6.637          	0.032
MS.462         	6.622          	0.03
MS.463         	6.61           	0.03
MS.464         	6.597          	0.032
MS.465         	6.582          	0.03
MS.466         	6.57           	0.028
MS.467         	6.557          	0.032
MS.468         	6.545          	0.034
MS.469         	6.53           	0.028
MS.470         	6.517          	0.03
MS.471         	6.505          	0.03
MS.472         	6.492          	0.03
MS.473         	6.48           	0.032
MS.474         	6.465          	0.032
MS.475         	6.452          	0.03
MS.476         	6.44           	0.03
MS.477         	6.427          	0.03
MS.478         	6.415          	0.032
MS.479         	6.402          	0.03
MS.480         	6.39           	0.032
MS.481         	6.378          	0.03
MS.482         	6.362          	0.03
MS.483         	6.35           	0.026
MS.484         	6.338          	0.036
MS.485         	6.325          	0.03
MS.486         	6.312          	0.034
MS.487         	6.3            	0.028
MS.488         	6.287          	0.032
DERIVED EXCITABILITY VARIABLES
Program = QTracP 9/10/2021
Threshold method = 6 (optimised for CAP, using data for present condition only)
SR method = 1 (using actual data values)
6.                 	0.000               	Peak response\(mV)
