File:              	C:\Qtrac\Data\Daniel M Sørensen\MScan multicentre study\Data from centres\Aarhus\Processed data\DMSC00130B.QZD
Name:              	DK.AAR.NC.2.1
Protocol:          	MSCAN-R2
Date:              	30/1/20
Start time:        	12:55:23
Age:               	35
Sex:               	f
Temperature:       	31,8
S/R sites:         	ADM
NC/disease:        	Control
Operator:          	DS
Comments:
M-SCAN DATA (11.2-3.6m)
Scanpts: 39, 52, 720, 734
Stim. (mA)     	Amp. (mV)
MS.1           	21.5           	10.695
MS.2           	21.5           	10.754
MS.3           	21.5           	10.707
MS.4           	21.5           	10.746
MS.5           	21.5           	10.756
MS.6           	21.5           	10.76
MS.7           	21.5           	10.772
MS.8           	21.5           	10.766
MS.9           	21.5           	10.75
MS.10          	21.5           	10.842
MS.11          	21.5           	10.816
MS.12          	21.5           	10.82
MS.13          	21.5           	10.784
MS.14          	21.5           	10.794
MS.15          	21.5           	10.792
MS.16          	21.5           	10.804
MS.17          	21.5           	10.8
MS.18          	21.5           	10.836
MS.19          	21.5           	10.79
MS.20          	21.5           	10.778
MS.21          	21.5           	10.77
MS.22          	21.5           	10.798
MS.23          	21.5           	10.764
MS.24          	21.415         	10.735
MS.25          	21.372         	10.806
MS.26          	21.327         	10.814
MS.27          	21.285         	10.794
MS.28          	21.243         	10.792
MS.29          	21.2           	10.824
MS.30          	21.157         	10.836
MS.31          	21.118         	10.776
MS.32          	21.075         	10.842
MS.33          	21.032         	10.8
MS.34          	20.99          	10.8
MS.35          	20.948         	10.828
MS.36          	20.907         	10.832
MS.37          	20.865         	10.846
MS.38          	20.823         	10.844
MS.39          	20.78          	10.83
MS.40          	20.74          	10.834
MS.41          	20.698         	10.842
MS.42          	20.657         	10.82
MS.43          	20.615         	10.852
MS.44          	20.575         	10.868
MS.45          	20.532         	10.846
MS.46          	20.493         	10.84
MS.47          	20.452         	10.88
MS.48          	20.41          	10.83
MS.49          	20.37          	10.836
MS.50          	20.33          	10.836
MS.51          	20.288         	10.866
MS.52          	20.247         	10.889
MS.53          	20.208         	10.834
MS.54          	20.167         	10.83
MS.55          	20.127         	10.81
MS.56          	20.087         	10.82
MS.57          	20.047         	10.84
MS.58          	20.007         	10.806
MS.59          	19.967         	10.768
MS.60          	19.927         	10.752
MS.61          	19.887         	10.82
MS.62          	19.847         	10.818
MS.63          	19.807         	10.776
MS.64          	19.767         	10.822
MS.65          	19.727         	10.766
MS.66          	19.69          	10.723
MS.67          	19.65          	10.697
MS.68          	19.61          	10.681
MS.69          	19.57          	10.744
MS.70          	19.532         	10.677
MS.71          	19.493         	10.715
MS.72          	19.455         	10.683
MS.73          	19.415         	10.693
MS.74          	19.377         	10.659
MS.75          	19.337         	10.711
MS.76          	19.3           	10.651
MS.77          	19.26          	10.637
MS.78          	19.222         	10.651
MS.79          	19.182         	10.57
MS.80          	19.145         	10.596
MS.81          	19.108         	10.621
MS.82          	19.067         	10.657
MS.83          	19.03          	10.681
MS.84          	18.993         	10.596
MS.85          	18.955         	10.544
MS.86          	18.917         	10.588
MS.87          	18.88          	10.623
MS.88          	18.842         	10.615
MS.89          	18.802         	10.554
MS.90          	18.765         	10.526
MS.91          	18.727         	10.542
MS.92          	18.69          	10.594
MS.93          	18.655         	10.536
MS.94          	18.618         	10.534
MS.95          	18.58          	10.492
MS.96          	18.542         	10.423
MS.97          	18.505         	10.431
MS.98          	18.467         	10.48
MS.99          	18.432         	10.397
MS.100         	18.395         	10.474
MS.101         	18.358         	10.387
MS.102         	18.32          	10.46
MS.103         	18.285         	10.437
MS.104         	18.247         	10.373
MS.105         	18.212         	10.391
MS.106         	18.175         	10.373
MS.107         	18.137         	10.403
MS.108         	18.102         	10.379
MS.109         	18.067         	10.391
MS.110         	18.03          	10.387
MS.111         	17.995         	10.329
MS.112         	17.958         	10.325
MS.113         	17.922         	10.339
MS.114         	17.887         	10.312
MS.115         	17.85          	10.274
MS.116         	17.815         	10.298
MS.117         	17.78          	10.312
MS.118         	17.745         	10.274
MS.119         	17.708         	10.288
MS.120         	17.672         	10.252
MS.121         	17.637         	10.264
MS.122         	17.602         	10.254
MS.123         	17.567         	10.23
MS.124         	17.532         	10.202
MS.125         	17.497         	10.252
MS.126         	17.462         	10.242
MS.127         	17.427         	10.226
MS.128         	17.392         	10.169
MS.129         	17.358         	10.2
MS.130         	17.323         	10.19
MS.131         	17.288         	10.21
MS.132         	17.255         	10.153
MS.133         	17.22          	10.163
MS.134         	17.185         	10.123
MS.135         	17.15          	10.163
MS.136         	17.118         	10.103
MS.137         	17.083         	10.182
MS.138         	17.047         	10.145
MS.139         	17.015         	10.057
MS.140         	16.98          	10.018
MS.141         	16.948         	10.071
MS.142         	16.913         	10.147
MS.143         	16.878         	10.031
MS.144         	16.845         	10.029
MS.145         	16.812         	10.061
MS.146         	16.778         	9.962
MS.147         	16.745         	9.956
MS.148         	16.71          	9.99
MS.149         	16.677         	10.016
MS.150         	16.645         	9.926
MS.151         	16.61          	9.954
MS.152         	16.577         	9.968
MS.153         	16.545         	9.906
MS.154         	16.512         	9.908
MS.155         	16.477         	9.879
MS.156         	16.445         	9.93
MS.157         	16.413         	9.825
MS.158         	16.38          	9.908
MS.159         	16.347         	9.855
MS.160         	16.315         	9.835
MS.161         	16.282         	9.825
MS.162         	16.25          	9.732
MS.163         	16.217         	9.827
MS.164         	16.185         	9.777
MS.165         	16.153         	9.73
MS.166         	16.12          	9.749
MS.167         	16.087         	9.734
MS.168         	16.055         	9.7
MS.169         	16.022         	9.751
MS.170         	15.992         	9.708
MS.171         	15.96          	9.674
MS.172         	15.927         	9.571
MS.173         	15.895         	9.638
MS.174         	15.865         	9.644
MS.175         	15.832         	9.64
MS.176         	15.8           	9.658
MS.177         	15.77          	9.682
MS.178         	15.737         	9.634
MS.179         	15.705         	9.545
MS.180         	15.675         	9.527
MS.181         	15.642         	9.497
MS.182         	15.612         	9.523
MS.183         	15.58          	9.577
MS.184         	15.55          	9.503
MS.185         	15.52          	9.527
MS.186         	15.487         	9.505
MS.187         	15.457         	9.525
MS.188         	15.425         	9.324
MS.189         	15.395         	9.434
MS.190         	15.365         	9.505
MS.191         	15.332         	9.442
MS.192         	15.302         	9.346
MS.193         	15.273         	9.408
MS.194         	15.242         	9.265
MS.195         	15.212         	9.265
MS.196         	15.18          	9.289
MS.197         	15.15          	9.394
MS.198         	15.12          	9.376
MS.199         	15.09          	9.118
MS.200         	15.06          	9.245
MS.201         	15.03          	9.261
MS.202         	15             	9.088
MS.203         	14.97          	9.082
MS.204         	14.94          	9.116
MS.205         	14.91          	9.009
MS.206         	14.88          	8.959
MS.207         	14.85          	9.15
MS.208         	14.82          	9.042
MS.209         	14.792         	8.971
MS.210         	14.762         	8.953
MS.211         	14.733         	8.866
MS.212         	14.702         	8.897
MS.213         	14.672         	8.907
MS.214         	14.645         	8.925
MS.215         	14.615         	8.86
MS.216         	14.585         	8.915
MS.217         	14.557         	8.804
MS.218         	14.527         	8.812
MS.219         	14.497         	8.893
MS.220         	14.47          	8.762
MS.221         	14.44          	8.695
MS.222         	14.412         	8.705
MS.223         	14.382         	8.699
MS.224         	14.355         	8.673
MS.225         	14.325         	8.645
MS.226         	14.297         	8.625
MS.227         	14.267         	8.623
MS.228         	14.24          	8.687
MS.229         	14.212         	8.675
MS.230         	14.182         	8.58
MS.231         	14.155         	8.574
MS.232         	14.127         	8.582
MS.233         	14.097         	8.607
MS.234         	14.07          	8.534
MS.235         	14.042         	8.582
MS.236         	14.015         	8.544
MS.237         	13.985         	8.526
MS.238         	13.957         	8.484
MS.239         	13.93          	8.464
MS.240         	13.903         	8.54
MS.241         	13.875         	8.56
MS.242         	13.847         	8.51
MS.243         	13.82          	8.55
MS.244         	13.792         	8.443
MS.245         	13.765         	8.431
MS.246         	13.737         	8.447
MS.247         	13.71          	8.49
MS.248         	13.682         	8.514
MS.249         	13.655         	8.421
MS.250         	13.627         	8.439
MS.251         	13.6           	8.482
MS.252         	13.572         	8.397
MS.253         	13.545         	8.484
MS.254         	13.517         	8.423
MS.255         	13.492         	8.472
MS.256         	13.465         	8.329
MS.257         	13.438         	8.318
MS.258         	13.41          	8.306
MS.259         	13.385         	8.415
MS.260         	13.358         	8.399
MS.261         	13.33          	8.387
MS.262         	13.305         	8.272
MS.263         	13.278         	8.325
MS.264         	13.25          	8.383
MS.265         	13.225         	8.345
MS.266         	13.197         	8.347
MS.267         	13.172         	8.264
MS.268         	13.145         	8.278
MS.269         	13.12          	8.3
MS.270         	13.092         	8.274
MS.271         	13.068         	8.228
MS.272         	13.04          	8.242
MS.273         	13.015         	8.278
MS.274         	12.987         	8.238
MS.275         	12.962         	8.246
MS.276         	12.938         	8.218
MS.277         	12.91          	8.25
MS.278         	12.885         	8.306
MS.279         	12.86          	8.25
MS.280         	12.832         	8.151
MS.281         	12.807         	8.194
MS.282         	12.782         	8.175
MS.283         	12.757         	8.228
MS.284         	12.73          	8.159
MS.285         	12.705         	8.141
MS.286         	12.68          	8.244
MS.287         	12.655         	8.111
MS.288         	12.63          	8.173
MS.289         	12.605         	8.188
MS.290         	12.58          	8.184
MS.291         	12.555         	8.18
MS.292         	12.53          	8.182
MS.293         	12.505         	8.194
MS.294         	12.48          	8.175
MS.295         	12.455         	8.089
MS.296         	12.43          	8.167
MS.297         	12.405         	8.167
MS.298         	12.38          	8.155
MS.299         	12.355         	8.135
MS.300         	12.33          	8.111
MS.301         	12.305         	8.113
MS.302         	12.28          	8.133
MS.303         	12.257         	8.129
MS.304         	12.233         	8.079
MS.305         	12.207         	8.081
MS.306         	12.182         	8.075
MS.307         	12.157         	8.002
MS.308         	12.135         	8.012
MS.309         	12.11          	8.055
MS.310         	12.085         	8.069
MS.311         	12.062         	8.004
MS.312         	12.037         	8.053
MS.313         	12.012         	8.036
MS.314         	11.99          	8.071
MS.315         	11.965         	8.047
MS.316         	11.943         	7.992
MS.317         	11.917         	8.045
MS.318         	11.895         	8.004
MS.319         	11.87          	7.883
MS.320         	11.847         	7.881
MS.321         	11.822         	7.916
MS.322         	11.8           	7.964
MS.323         	11.775         	7.918
MS.324         	11.752         	7.863
MS.325         	11.73          	7.813
MS.326         	11.705         	7.946
MS.327         	11.682         	7.885
MS.328         	11.657         	7.906
MS.329         	11.635         	7.92
MS.330         	11.613         	7.827
MS.331         	11.59          	7.73
MS.332         	11.565         	7.728
MS.333         	11.542         	7.837
MS.334         	11.52          	7.755
MS.335         	11.497         	7.658
MS.336         	11.472         	7.62
MS.337         	11.45          	7.791
MS.338         	11.427         	7.75
MS.339         	11.405         	7.742
MS.340         	11.382         	7.769
MS.341         	11.36          	7.694
MS.342         	11.337         	7.74
MS.343         	11.315         	7.74
MS.344         	11.292         	7.724
MS.345         	11.27          	7.68
MS.346         	11.247         	7.67
MS.347         	11.225         	7.716
MS.348         	11.202         	7.569
MS.349         	11.18          	7.571
MS.350         	11.157         	7.553
MS.351         	11.135         	7.487
MS.352         	11.113         	7.577
MS.353         	11.09          	7.515
MS.354         	11.068         	7.575
MS.355         	11.045         	7.529
MS.356         	11.023         	7.62
MS.357         	11.002         	7.404
MS.358         	10.98          	7.469
MS.359         	10.957         	7.481
MS.360         	10.935         	7.323
MS.361         	10.915         	7.42
MS.362         	10.892         	7.422
MS.363         	10.87          	7.364
MS.364         	10.847         	7.404
MS.365         	10.827         	7.372
MS.366         	10.805         	7.34
MS.367         	10.785         	7.376
MS.368         	10.762         	7.374
MS.369         	10.74          	7.406
MS.370         	10.72          	7.293
MS.371         	10.698         	7.301
MS.372         	10.677         	7.313
MS.373         	10.655         	7.305
MS.374         	10.635         	7.299
MS.375         	10.613         	7.356
MS.376         	10.592         	7.315
MS.377         	10.57          	7.352
MS.378         	10.55          	7.275
MS.379         	10.528         	7.319
MS.380         	10.507         	7.265
MS.381         	10.485         	7.328
MS.382         	10.465         	7.346
MS.383         	10.445         	7.237
MS.384         	10.422         	7.221
MS.385         	10.403         	7.213
MS.386         	10.382         	7.168
MS.387         	10.36          	7.275
MS.388         	10.34          	7.215
MS.389         	10.32          	7.156
MS.390         	10.3           	7.187
MS.391         	10.278         	7.146
MS.392         	10.257         	7.205
MS.393         	10.238         	7.209
MS.394         	10.217         	7.182
MS.395         	10.198         	7.104
MS.396         	10.175         	7.14
MS.397         	10.155         	7.142
MS.398         	10.135         	7.203
MS.399         	10.115         	7.166
MS.400         	10.095         	7.142
MS.401         	10.075         	7.074
MS.402         	10.055         	6.739
MS.403         	10.035         	6.772
MS.404         	10.015         	7.009
MS.405         	9.995          	6.739
MS.406         	9.975          	6.679
MS.407         	9.955          	6.709
MS.408         	9.935          	6.707
MS.409         	9.915          	6.715
MS.410         	9.895          	6.913
MS.411         	9.875          	6.729
MS.412         	9.855          	6.617
MS.413         	9.835          	6.657
MS.414         	9.818          	6.679
MS.415         	9.797          	6.701
MS.416         	9.778          	6.498
MS.417         	9.757          	6.492
MS.418         	9.738          	6.504
MS.419         	9.717          	6.586
MS.420         	9.7            	6.445
MS.421         	9.68           	6.57
MS.422         	9.66           	6.594
MS.423         	9.64           	6.596
MS.424         	9.622          	6.498
MS.425         	9.602          	6.463
MS.426         	9.582          	6.482
MS.427         	9.565          	6.467
MS.428         	9.545          	6.496
MS.429         	9.525          	6.506
MS.430         	9.507          	6.5
MS.431         	9.488          	6.467
MS.432         	9.47           	6.474
MS.433         	9.45           	6.421
MS.434         	9.432          	6.455
MS.435         	9.412          	6.435
MS.436         	9.395          	6.482
MS.437         	9.375          	6.502
MS.438         	9.358          	6.415
MS.439         	9.337          	6.435
MS.440         	9.32           	6.355
MS.441         	9.3            	6.423
MS.442         	9.283          	6.383
MS.443         	9.262          	6.337
MS.444         	9.245          	6.425
MS.445         	9.225          	6.411
MS.446         	9.207          	6.357
MS.447         	9.19           	6.401
MS.448         	9.17           	6.353
MS.449         	9.153          	6.27
MS.450         	9.135          	6.393
MS.451         	9.115          	6.451
MS.452         	9.097          	6.401
MS.453         	9.08           	6.439
MS.454         	9.062          	6.324
MS.455         	9.042          	6.367
MS.456         	9.025          	6.328
MS.457         	9.007          	6.365
MS.458         	8.99           	6.32
MS.459         	8.972          	6.353
MS.460         	8.952          	6.312
MS.461         	8.935          	6.339
MS.462         	8.917          	6.361
MS.463         	8.9            	6.23
MS.464         	8.882          	6.318
MS.465         	8.865          	6.236
MS.466         	8.847          	6.236
MS.467         	8.83           	6.226
MS.468         	8.812          	6.278
MS.469         	8.795          	6.214
MS.470         	8.775          	6.208
MS.471         	8.757          	6.026
MS.472         	8.74           	6.137
MS.473         	8.722          	6.01
MS.474         	8.707          	6.057
MS.475         	8.69           	5.998
MS.476         	8.672          	6.022
MS.477         	8.655          	6.129
MS.478         	8.637          	6.071
MS.479         	8.62           	5.968
MS.480         	8.602          	5.891
MS.481         	8.585          	5.948
MS.482         	8.568          	5.712
MS.483         	8.55           	5.96
MS.484         	8.535          	6.002
MS.485         	8.517          	5.837
MS.486         	8.5            	5.881
MS.487         	8.483          	5.865
MS.488         	8.465          	5.859
MS.489         	8.45           	5.622
MS.490         	8.432          	5.825
MS.491         	8.415          	5.664
MS.492         	8.398          	5.752
MS.493         	8.382          	5.43
MS.494         	8.365          	5.428
MS.495         	8.347          	5.396
MS.496         	8.332          	5.712
MS.497         	8.315          	5.426
MS.498         	8.297          	5.561
