File:              	C:\Qtrac\Data\Daniel M Sørensen\MScan multicentre study\Data from centres\Aarhus\Processed data\DMSC10413B.QZD
Name:              	DK.AAR.NC.12.1
Protocol:          	MSCAN-R2
Date:              	13/4/21
Start time:        	14:37:36
Age:               	26
Sex:               	f
Temperature:       	38,6
S/R sites:         	APB
NC/disease:        	NC
Operator:          	DS
Comments:
M-SCAN DATA (7.5-2.7m)
Scanpts: 53, 63, 501, 522
Stim. (mA)     	Amp. (mV)
MS.1           	11.5           	8.302
MS.2           	11.5           	8.316
MS.3           	11.5           	8.296
MS.4           	11.5           	8.284
MS.5           	11.5           	8.268
MS.6           	11.5           	8.268
MS.7           	11.5           	8.26
MS.8           	11.5           	8.262
MS.9           	11.5           	8.254
MS.10          	11.5           	8.268
MS.11          	11.5           	8.242
MS.12          	11.5           	8.244
MS.13          	11.5           	8.272
MS.14          	11.5           	8.25
MS.15          	11.5           	8.244
MS.16          	11.5           	8.236
MS.17          	11.5           	8.264
MS.18          	11.5           	8.226
MS.19          	11.5           	8.26
MS.20          	11.5           	8.258
MS.21          	11.5           	8.242
MS.22          	11.5           	8.264
MS.23          	11.5           	8.266
MS.24          	11.455         	8.264
MS.25          	11.43          	8.246
MS.26          	11.407         	8.23
MS.27          	11.385         	8.252
MS.28          	11.363         	8.234
MS.29          	11.34          	8.236
MS.30          	11.318         	8.244
MS.31          	11.295         	8.246
MS.32          	11.273         	8.252
MS.33          	11.25          	8.244
MS.34          	11.227         	8.244
MS.35          	11.205         	8.256
MS.36          	11.182         	8.25
MS.37          	11.16          	8.25
MS.38          	11.137         	8.258
MS.39          	11.115         	8.246
MS.40          	11.092         	8.266
MS.41          	11.07          	8.25
MS.42          	11.05          	8.256
MS.43          	11.028         	8.26
MS.44          	11.005         	8.256
MS.45          	10.983         	8.258
MS.46          	10.96          	8.266
MS.47          	10.94          	8.262
MS.48          	10.917         	8.264
MS.49          	10.895         	8.26
MS.50          	10.872         	8.256
MS.51          	10.852         	8.27
MS.52          	10.83          	8.266
MS.53          	10.807         	8.274
MS.54          	10.787         	8.256
MS.55          	10.765         	8.274
MS.56          	10.745         	8.254
MS.57          	10.722         	8.25
MS.58          	10.7           	8.254
MS.59          	10.68          	8.268
MS.60          	10.657         	8.268
MS.61          	10.637         	8.26
MS.62          	10.615         	8.268
MS.63          	10.595         	8.256
MS.64          	10.573         	8.254
MS.65          	10.552         	8.256
MS.66          	10.53          	8.25
MS.67          	10.51          	8.254
MS.68          	10.49          	8.254
MS.69          	10.467         	8.262
MS.70          	10.448         	8.258
MS.71          	10.427         	8.258
MS.72          	10.405         	8.26
MS.73          	10.385         	8.26
MS.74          	10.365         	8.248
MS.75          	10.342         	8.25
MS.76          	10.323         	8.242
MS.77          	10.302         	8.242
MS.78          	10.282         	8.254
MS.79          	10.26          	8.246
MS.80          	10.24          	8.236
MS.81          	10.22          	8.244
MS.82          	10.2           	8.234
MS.83          	10.18          	8.216
MS.84          	10.16          	8.24
MS.85          	10.137         	8.234
MS.86          	10.117         	8.238
MS.87          	10.097         	8.256
MS.88          	10.077         	8.24
MS.89          	10.057         	8.23
MS.90          	10.037         	8.236
MS.91          	10.017         	8.254
MS.92          	9.997          	8.234
MS.93          	9.977          	8.254
MS.94          	9.957          	8.246
MS.95          	9.938          	8.24
MS.96          	9.917          	8.24
MS.97          	9.898          	8.2
MS.98          	9.877          	8.244
MS.99          	9.858          	8.228
MS.100         	9.84           	8.2
MS.101         	9.82           	8.196
MS.102         	9.8            	8.2
MS.103         	9.78           	8.173
MS.104         	9.76           	8.018
MS.105         	9.74           	8.008
MS.106         	9.722          	7.994
MS.107         	9.702          	8.032
MS.108         	9.682          	8.171
MS.109         	9.662          	8.192
MS.110         	9.645          	7.972
MS.111         	9.625          	8.186
MS.112         	9.605          	8.135
MS.113         	9.587          	8.149
MS.114         	9.568          	8.184
MS.115         	9.547          	8.139
MS.116         	9.53           	7.956
MS.117         	9.51           	8.135
MS.118         	9.49           	7.609
MS.119         	9.472          	7.595
MS.120         	9.452          	7.938
MS.121         	9.435          	7.938
MS.122         	9.415          	7.946
MS.123         	9.398          	7.962
MS.124         	9.377          	7.948
MS.125         	9.36           	7.591
MS.126         	9.34           	7.587
MS.127         	9.323          	7.583
MS.128         	9.302          	7.589
MS.129         	9.285          	7.938
MS.130         	9.265          	7.593
MS.131         	9.247          	7.589
MS.132         	9.23           	7.599
MS.133         	9.21           	7.593
MS.134         	9.193          	7.541
MS.135         	9.172          	7.505
MS.136         	9.155          	7.571
MS.137         	9.137          	7.591
MS.138         	9.12           	7.545
MS.139         	9.1            	7.585
MS.140         	9.082          	7.587
MS.141         	9.065          	7.471
MS.142         	9.045          	7.408
MS.143         	9.028          	7.561
MS.144         	9.01           	7.37
MS.145         	8.992          	7.396
MS.146         	8.975          	7.187
MS.147         	8.955          	7.332
MS.148         	8.938          	7.517
MS.149         	8.92           	7.438
MS.150         	8.903          	7.172
MS.151         	8.885          	7.352
MS.152         	8.867          	7.144
MS.153         	8.85           	7.259
MS.154         	8.832          	7.231
MS.155         	8.815          	7.227
MS.156         	8.797          	7.166
MS.157         	8.78           	7.003
MS.158         	8.762          	7.164
MS.159         	8.745          	6.991
MS.160         	8.727          	6.874
MS.161         	8.71           	7.104
MS.162         	8.693          	7.013
MS.163         	8.675          	7.031
MS.164         	8.658          	7.233
MS.165         	8.64           	7.066
MS.166         	8.622          	6.937
MS.167         	8.605          	7.031
MS.168         	8.587          	7.015
MS.169         	8.57           	6.947
MS.170         	8.552          	6.868
MS.171         	8.537          	6.804
MS.172         	8.52           	6.81
MS.173         	8.502          	6.782
MS.174         	8.485          	6.796
MS.175         	8.467          	6.874
MS.176         	8.452          	6.79
MS.177         	8.435          	6.806
MS.178         	8.417          	6.701
MS.179         	8.4            	6.731
MS.180         	8.385          	6.661
MS.181         	8.367          	6.689
MS.182         	8.35           	6.665
MS.183         	8.335          	6.661
MS.184         	8.318          	6.755
MS.185         	8.3            	6.53
MS.186         	8.285          	6.79
MS.187         	8.267          	6.474
MS.188         	8.25           	6.606
MS.189         	8.235          	6.506
MS.190         	8.217          	6.576
MS.191         	8.202          	6.584
MS.192         	8.185          	6.457
MS.193         	8.17           	6.399
MS.194         	8.153          	6.465
MS.195         	8.137          	6.107
MS.196         	8.12           	6.308
MS.197         	8.105          	6.367
MS.198         	8.087          	6.54
MS.199         	8.073          	6.103
MS.200         	8.055          	6.26
MS.201         	8.04           	6.059
MS.202         	8.023          	5.666
MS.203         	8.007          	5.952
MS.204         	7.99           	5.819
MS.205         	7.975          	5.71
MS.206         	7.96           	5.819
MS.207         	7.942          	5.432
MS.208         	7.927          	5.485
MS.209         	7.912          	5.563
MS.210         	7.895          	5.448
MS.211         	7.88           	5.38
MS.212         	7.865          	5.36
MS.213         	7.847          	5.325
MS.214         	7.832          	5.736
MS.215         	7.817          	5.132
MS.216         	7.802          	5.446
MS.217         	7.785          	4.979
MS.218         	7.77           	5.049
MS.219         	7.755          	5.331
MS.220         	7.74           	4.945
MS.221         	7.725          	5.005
MS.222         	7.707          	4.874
MS.223         	7.692          	4.904
MS.224         	7.677          	4.54
MS.225         	7.662          	4.457
MS.226         	7.648          	4.697
MS.227         	7.632          	4.812
MS.228         	7.617          	4.473
MS.229         	7.602          	4.637
MS.230         	7.587          	4.552
MS.231         	7.57           	4.318
MS.232         	7.555          	4.363
MS.233         	7.54           	4.258
MS.234         	7.525          	4.459
MS.235         	7.51           	3.905
MS.236         	7.495          	3.841
MS.237         	7.48           	4.161
MS.238         	7.465          	3.831
MS.239         	7.45           	3.855
MS.240         	7.435          	3.966
MS.241         	7.42           	3.897
MS.242         	7.407          	3.559
MS.243         	7.392          	3.579
MS.244         	7.378          	3.527
MS.245         	7.362          	3.67
MS.246         	7.347          	3.69
MS.247         	7.332          	3.464
MS.248         	7.317          	3.182
MS.249         	7.302          	3.333
MS.250         	7.29           	3.269
MS.251         	7.275          	3.104
MS.252         	7.26           	3.255
MS.253         	7.245          	2.884
MS.254         	7.23           	2.908
MS.255         	7.217          	2.931
MS.256         	7.202          	2.878
MS.257         	7.188          	3.015
MS.258         	7.172          	2.88
MS.259         	7.16           	2.82
MS.260         	7.145          	2.842
MS.261         	7.13           	2.073
MS.262         	7.115          	2.671
MS.263         	7.102          	2.496
MS.264         	7.087          	2.683
MS.265         	7.072          	2.532
MS.266         	7.06           	2.26
MS.267         	7.045          	2.373
MS.268         	7.03           	2.423
MS.269         	7.017          	1.938
MS.270         	7.003          	1.795
MS.271         	6.99           	2.228
MS.272         	6.975          	2.25
MS.273         	6.96           	2.103
MS.274         	6.947          	2.181
MS.275         	6.932          	2.079
MS.276         	6.92           	1.776
MS.277         	6.905          	2.288
MS.278         	6.892          	1.946
MS.279         	6.878          	1.662
MS.280         	6.865          	1.589
MS.281         	6.85           	1.75
MS.282         	6.837          	2.06
MS.283         	6.822          	1.557
MS.284         	6.81           	1.503
MS.285         	6.795          	1.503
MS.286         	6.782          	1.188
MS.287         	6.77           	1.638
MS.288         	6.755          	1.38
MS.289         	6.742          	1.519
MS.290         	6.727          	1.442
MS.291         	6.715          	1.521
MS.292         	6.702          	1.474
MS.293         	6.688          	1.372
MS.294         	6.675          	1.227
MS.295         	6.662          	1.519
MS.296         	6.648          	1.2
MS.297         	6.635          	1.09
MS.298         	6.622          	1.031
MS.299         	6.608          	1.007
MS.300         	6.595          	1.094
MS.301         	6.582          	1.009
MS.302         	6.57           	1.132
MS.303         	6.555          	1.015
MS.304         	6.543          	1.037
MS.305         	6.53           	0.856
MS.306         	6.517          	0.912
MS.307         	6.503          	0.836
MS.308         	6.49           	1.045
MS.309         	6.477          	0.898
MS.310         	6.465          	0.898
MS.311         	6.452          	0.767
MS.312         	6.44           	0.808
MS.313         	6.425          	0.733
MS.314         	6.412          	0.604
MS.315         	6.4            	0.798
MS.316         	6.387          	0.6
MS.317         	6.375          	0.86
MS.318         	6.362          	0.814
MS.319         	6.35           	0.467
MS.320         	6.338          	0.506
MS.321         	6.325          	0.546
MS.322         	6.312          	0.542
MS.323         	6.297          	0.459
MS.324         	6.285          	0.514
MS.325         	6.273          	0.423
MS.326         	6.26           	0.409
MS.327         	6.247          	0.348
MS.328         	6.235          	0.463
MS.329         	6.222          	0.363
MS.330         	6.21           	0.352
MS.331         	6.197          	0.328
MS.332         	6.188          	0.318
MS.333         	6.175          	0.401
MS.334         	6.162          	0.346
MS.335         	6.15           	0.32
MS.336         	6.137          	0.254
MS.337         	6.125          	0.516
MS.338         	6.112          	0.346
MS.339         	6.1            	0.324
MS.340         	6.088          	0.298
MS.341         	6.075          	0.26
MS.342         	6.065          	0.266
MS.343         	6.052          	0.363
MS.344         	6.04           	0.318
MS.345         	6.027          	0.254
MS.346         	6.015          	0.246
MS.347         	6.003          	0.23
MS.348         	5.992          	0.306
MS.349         	5.98           	0.28
MS.350         	5.967          	0.278
MS.351         	5.955          	0.236
MS.352         	5.945          	0.228
MS.353         	5.932          	0.258
MS.354         	5.92           	0.246
MS.355         	5.907          	0.232
MS.356         	5.898          	0.252
MS.357         	5.885          	0.278
MS.358         	5.872          	0.234
MS.359         	5.86           	0.224
MS.360         	5.85           	0.236
MS.361         	5.838          	0.26
MS.362         	5.825          	0.23
MS.363         	5.815          	0.234
MS.364         	5.802          	0.195
MS.365         	5.79           	0.224
MS.366         	5.78           	0.222
MS.367         	5.767          	0.22
MS.368         	5.757          	0.113
MS.369         	5.745          	0.226
MS.370         	5.733          	0.23
MS.371         	5.722          	0.234
MS.372         	5.71           	0.22
MS.373         	5.7            	0.222
MS.374         	5.688          	0.03
MS.375         	5.677          	0.091
MS.376         	5.665          	0.075
MS.377         	5.655          	0.214
MS.378         	5.642          	0.201
MS.379         	5.632          	0.193
MS.380         	5.62           	0.191
MS.381         	5.61           	0.211
MS.382         	5.597          	0.187
MS.383         	5.588          	0.189
MS.384         	5.575          	0.038
MS.385         	5.565          	0.189
MS.386         	5.552          	0.032
MS.387         	5.543          	0.214
MS.388         	5.53           	0.026
MS.389         	5.52           	0.173
MS.390         	5.51           	0.169
MS.391         	5.497          	0.183
MS.392         	5.487          	0.04
MS.393         	5.475          	0.03
MS.394         	5.465          	0.034
MS.395         	5.455          	0.073
MS.396         	5.443          	0.024
MS.397         	5.432          	0.189
MS.398         	5.422          	0.03
MS.399         	5.41           	0.016
MS.400         	5.4            	0.028
MS.401         	5.39           	0.02
MS.402         	5.378          	0.02
MS.403         	5.367          	0.028
MS.404         	5.358          	0.032
MS.405         	5.345          	0.032
MS.406         	5.335          	0.02
MS.407         	5.325          	0.02
MS.408         	5.315          	0.02
MS.409         	5.302          	0.02
MS.410         	5.293          	0.022
MS.411         	5.282          	0.02
MS.412         	5.273          	0.02
MS.413         	5.26           	0.018
MS.414         	5.25           	0.018
MS.415         	5.24           	0.018
MS.416         	5.23           	0.022
MS.417         	5.22           	0.018
MS.418         	5.21           	0.018
MS.419         	5.197          	0.02
MS.420         	5.188          	0.02
MS.421         	5.177          	0.02
MS.422         	5.168          	0.016
MS.423         	5.157          	0.014
MS.424         	5.148          	0.018
MS.425         	5.137          	0.018
MS.426         	5.125          	0.016
MS.427         	5.115          	0.018
MS.428         	5.105          	0.02
MS.429         	5.095          	0.014
MS.430         	5.085          	0.016
MS.431         	5.075          	0.014
MS.432         	5.065          	0.016
MS.433         	5.055          	0.016
MS.434         	5.045          	0.016
MS.435         	5.035          	0.012
MS.436         	5.025          	0.018
MS.437         	5.015          	0.014
MS.438         	5.005          	0.018
MS.439         	4.995          	0.012
MS.440         	4.985          	0.022
MS.441         	4.975          	0.016
MS.442         	4.965          	0.022
MS.443         	4.955          	0.014
MS.444         	4.945          	0.016
MS.445         	4.935          	0.016
MS.446         	4.925          	0.024
MS.447         	4.915          	0.016
MS.448         	4.905          	0.018
MS.449         	4.895          	0.02
MS.450         	4.885          	0.018
MS.451         	4.875          	0.02
MS.452         	4.867          	0.016
MS.453         	4.858          	0.02
MS.454         	4.847          	0.016
MS.455         	4.838          	0.016
MS.456         	4.827          	0.014
MS.457         	4.818          	0.02
MS.458         	4.807          	0.016
MS.459         	4.797          	0.018
MS.460         	4.79           	0.014
MS.461         	4.78           	0.016
MS.462         	4.77           	0.016
MS.463         	4.76           	0.016
MS.464         	4.75           	0.014
MS.465         	4.742          	0.016
MS.466         	4.733          	0.02
MS.467         	4.722          	0.016
MS.468         	4.713          	0.016
MS.469         	4.702          	0.018
MS.470         	4.695          	0.018
MS.471         	4.685          	0.02
MS.472         	4.675          	0.016
MS.473         	4.665          	0.018
MS.474         	4.657          	0.02
MS.475         	4.648          	0.016
MS.476         	4.637          	0.014
MS.477         	4.63           	0.016
MS.478         	4.62           	0.014
MS.479         	4.61           	0.014
MS.480         	4.602          	0.014
MS.481         	4.592          	0.014
MS.482         	4.582          	0.014
MS.483         	4.575          	0.018
MS.484         	4.565          	0.016
MS.485         	4.555          	0.016
MS.486         	4.548          	0.016
MS.487         	4.537          	0.016
MS.488         	4.527          	0.014
MS.489         	4.52           	0.016
MS.490         	4.51           	0.014
MS.491         	4.5            	0.014
MS.492         	4.492          	0.018
MS.493         	4.483          	0.016
MS.494         	4.475          	0.012
MS.495         	4.465          	0.014
MS.496         	4.457          	0.012
MS.497         	4.447          	0.016
MS.498         	4.438          	0.01
MS.499         	4.43           	0.01
MS.500         	4.42           	0.014
MS.501         	4.412          	0.016
MS.502         	4.402          	0.012
