File:              	C:\Qtrac\Data\Daniel M Sørensen\MScan multicentre study\Data from centres\Aarhus\Processed data\DMSC00911C.QZD
Name:              	DK.AAR.NC.7.2
Protocol:          	MSCAN-R2
Date:              	11/9/20
Start time:        	13:48:18
Age:               	65
Sex:               	m
Temperature:       	34,1
S/R sites:         	TA
NC/disease:        	NC
Operator:          	DS
Comments:
M-SCAN DATA (2.7-0.0m)
Scanpts: 8, 17, 636, 657
Stim. (mA)     	Amp. (mV)
MS.1           	37.5           	5.372
MS.2           	37.5           	5.426
MS.3           	37.35          	5.39
MS.4           	37.275         	5.36
MS.5           	37.2           	5.352
MS.6           	37.127         	5.354
MS.7           	37.052         	5.374
MS.8           	36.978         	5.366
MS.9           	36.905         	5.354
MS.10          	36.83          	5.358
MS.11          	36.757         	5.36
MS.12          	36.685         	5.331
MS.13          	36.61          	5.366
MS.14          	36.537         	5.354
MS.15          	36.465         	5.374
MS.16          	36.392         	5.374
MS.17          	36.32          	5.362
MS.18          	36.247         	5.38
MS.19          	36.175         	5.372
MS.20          	36.103         	5.356
MS.21          	36.03          	5.348
MS.22          	35.958         	5.37
MS.23          	35.885         	5.372
MS.24          	35.815         	5.366
MS.25          	35.743         	5.36
MS.26          	35.67          	5.374
MS.27          	35.6           	5.35
MS.28          	35.528         	5.352
MS.29          	35.458         	5.374
MS.30          	35.388         	5.297
MS.31          	35.315         	5.319
MS.32          	35.245         	5.283
MS.33          	35.175         	5.329
MS.34          	35.105         	5.323
MS.35          	35.035         	5.297
MS.36          	34.965         	5.289
MS.37          	34.895         	5.291
MS.38          	34.825         	5.267
MS.39          	34.755         	5.317
MS.40          	34.685         	5.281
MS.41          	34.618         	5.247
MS.42          	34.548         	5.291
MS.43          	34.478         	5.267
MS.44          	34.41          	5.265
MS.45          	34.34          	5.255
MS.46          	34.272         	5.207
MS.47          	34.205         	5.219
MS.48          	34.135         	5.263
MS.49          	34.068         	5.257
MS.50          	34             	5.255
MS.51          	33.93          	5.193
MS.52          	33.862         	5.215
MS.53          	33.795         	5.241
MS.54          	33.728         	5.253
MS.55          	33.66          	5.203
MS.56          	33.592         	5.188
MS.57          	33.528         	5.211
MS.58          	33.46          	5.199
MS.59          	33.392         	5.146
MS.60          	33.325         	5.148
MS.61          	33.26          	5.146
MS.62          	33.193         	5.122
MS.63          	33.127         	5.148
MS.64          	33.06          	5.156
MS.65          	32.995         	5.154
MS.66          	32.927         	5.126
MS.67          	32.862         	5.108
MS.68          	32.798         	5.106
MS.69          	32.732         	5.09
MS.70          	32.665         	5.142
MS.71          	32.6           	5.11
MS.72          	32.535         	5.062
MS.73          	32.47          	5.06
MS.74          	32.405         	5.142
MS.75          	32.34          	5.142
MS.76          	32.278         	5.047
MS.77          	32.212         	5.049
MS.78          	32.147         	5.098
MS.79          	32.083         	5.126
MS.80          	32.02          	5.011
MS.81          	31.955         	5.039
MS.82          	31.892         	5.021
MS.83          	31.827         	5.072
MS.84          	31.765         	5.047
MS.85          	31.7           	5.043
MS.86          	31.637         	5.058
MS.87          	31.575         	4.997
MS.88          	31.51          	5.031
MS.89          	31.448         	5.082
MS.90          	31.385         	5.035
MS.91          	31.323         	5.041
MS.92          	31.26          	5.001
MS.93          	31.198         	5.009
MS.94          	31.135         	4.999
MS.95          	31.073         	5.019
MS.96          	31.01          	4.989
MS.97          	30.95          	4.981
MS.98          	30.887         	4.955
MS.99          	30.825         	5.027
MS.100         	30.762         	4.965
MS.101         	30.702         	4.963
MS.102         	30.64          	4.993
MS.103         	30.58          	4.941
MS.104         	30.517         	4.981
MS.105         	30.457         	4.959
MS.106         	30.397         	4.9
MS.107         	30.335         	4.963
MS.108         	30.275         	4.88
MS.109         	30.215         	4.923
MS.110         	30.155         	4.945
MS.111         	30.095         	4.852
MS.112         	30.035         	4.864
MS.113         	29.975         	4.888
MS.114         	29.915         	4.858
MS.115         	29.855         	4.822
MS.116         	29.795         	4.836
MS.117         	29.735         	4.836
MS.118         	29.675         	4.812
MS.119         	29.617         	4.844
MS.120         	29.557         	4.822
MS.121         	29.497         	4.796
MS.122         	29.44          	4.816
MS.123         	29.38          	4.8
MS.124         	29.323         	4.772
MS.125         	29.262         	4.755
MS.126         	29.205         	4.753
MS.127         	29.147         	4.778
MS.128         	29.087         	4.792
MS.129         	29.03          	4.808
MS.130         	28.972         	4.699
MS.131         	28.915         	4.665
MS.132         	28.858         	4.707
MS.133         	28.8           	4.701
MS.134         	28.743         	4.693
MS.135         	28.685         	4.665
MS.136         	28.627         	4.659
MS.137         	28.57          	4.649
MS.138         	28.512         	4.57
MS.139         	28.455         	4.701
MS.140         	28.397         	4.594
MS.141         	28.342         	4.522
MS.142         	28.285         	4.526
MS.143         	28.227         	4.576
MS.144         	28.172         	4.667
MS.145         	28.115         	4.582
MS.146         	28.06          	4.614
MS.147         	28.002         	4.568
MS.148         	27.948         	4.578
MS.149         	27.892         	4.427
MS.150         	27.835         	4.451
MS.151         	27.78          	4.417
MS.152         	27.725         	4.477
MS.153         	27.67          	4.473
MS.154         	27.615         	4.451
MS.155         	27.56          	4.316
MS.156         	27.505         	4.302
MS.157         	27.45          	4.117
MS.158         	27.395         	4.363
MS.159         	27.34          	4.123
MS.160         	27.285         	4.266
MS.161         	27.23          	4.314
MS.162         	27.175         	4.302
MS.163         	27.122         	4.121
MS.164         	27.067         	4.246
MS.165         	27.012         	4.256
MS.166         	26.96          	4.046
MS.167         	26.905         	3.96
MS.168         	26.852         	4.115
MS.169         	26.797         	4.075
MS.170         	26.745         	3.978
MS.171         	26.692         	4.012
MS.172         	26.637         	3.964
MS.173         	26.585         	3.857
MS.174         	26.532         	4.073
MS.175         	26.477         	3.914
MS.176         	26.425         	3.819
MS.177         	26.372         	3.825
MS.178         	26.32          	3.768
MS.179         	26.267         	3.819
MS.180         	26.215         	3.823
MS.181         	26.162         	3.865
MS.182         	26.11          	3.732
MS.183         	26.057         	3.69
MS.184         	26.005         	3.676
MS.185         	25.955         	3.73
MS.186         	25.903         	3.656
MS.187         	25.85          	3.609
MS.188         	25.8           	3.678
MS.189         	25.747         	3.698
MS.190         	25.695         	3.632
MS.191         	25.645         	3.557
MS.192         	25.592         	3.716
MS.193         	25.542         	3.658
MS.194         	25.493         	3.559
MS.195         	25.44          	3.587
MS.196         	25.39          	3.579
MS.197         	25.34          	3.559
MS.198         	25.288         	3.46
MS.199         	25.237         	3.569
MS.200         	25.188         	3.583
MS.201         	25.137         	3.41
MS.202         	25.087         	3.452
MS.203         	25.038         	3.507
MS.204         	24.987         	3.432
MS.205         	24.938         	3.372
MS.206         	24.887         	3.362
MS.207         	24.837         	3.406
MS.208         	24.788         	3.424
MS.209         	24.737         	3.416
MS.210         	24.688         	3.487
MS.211         	24.64          	3.267
MS.212         	24.59          	3.239
MS.213         	24.54          	3.325
MS.214         	24.493         	3.35
MS.215         	24.442         	3.241
MS.216         	24.395         	3.231
MS.217         	24.345         	3.18
MS.218         	24.297         	3.146
MS.219         	24.247         	3.178
MS.220         	24.2           	3.134
MS.221         	24.153         	3.128
MS.222         	24.102         	3.021
MS.223         	24.055         	3.055
MS.224         	24.007         	2.975
MS.225         	23.96          	2.979
MS.226         	23.91          	2.902
MS.227         	23.862         	2.886
MS.228         	23.815         	3.009
MS.229         	23.767         	2.878
MS.230         	23.72          	2.761
MS.231         	23.672         	2.858
MS.232         	23.625         	2.761
MS.233         	23.577         	2.818
MS.234         	23.532         	2.689
MS.235         	23.485         	2.703
MS.236         	23.438         	2.685
MS.237         	23.39          	2.681
MS.238         	23.345         	2.657
MS.239         	23.297         	2.721
MS.240         	23.25          	2.588
MS.241         	23.205         	2.596
MS.242         	23.157         	2.628
MS.243         	23.112         	2.576
MS.244         	23.065         	2.445
MS.245         	23.02          	2.485
MS.246         	22.972         	2.584
MS.247         	22.927         	2.459
MS.248         	22.882         	2.302
MS.249         	22.835         	2.417
MS.250         	22.79          	2.3
MS.251         	22.745         	2.344
MS.252         	22.7           	2.336
MS.253         	22.655         	2.308
MS.254         	22.608         	2.33
MS.255         	22.562         	2.349
MS.256         	22.517         	2.232
MS.257         	22.472         	2.23
MS.258         	22.427         	2.175
MS.259         	22.385         	2.208
MS.260         	22.34          	2.203
MS.261         	22.295         	2.141
MS.262         	22.25          	2.123
MS.263         	22.205         	2.123
MS.264         	22.16          	2.167
MS.265         	22.118         	2.018
MS.266         	22.073         	2.024
MS.267         	22.028         	1.978
MS.268         	21.985         	1.976
MS.269         	21.94          	1.889
MS.270         	21.897         	1.877
MS.271         	21.852         	1.958
MS.272         	21.81          	1.827
MS.273         	21.765         	1.77
MS.274         	21.722         	1.789
MS.275         	21.68          	1.783
MS.276         	21.635         	1.718
MS.277         	21.592         	1.623
MS.278         	21.55          	1.722
MS.279         	21.505         	1.69
MS.280         	21.462         	1.603
MS.281         	21.42          	1.563
MS.282         	21.377         	1.629
MS.283         	21.335         	1.694
MS.284         	21.292         	1.501
MS.285         	21.25          	1.577
MS.286         	21.208         	1.501
MS.287         	21.165         	1.505
MS.288         	21.122         	1.484
MS.289         	21.08          	1.472
MS.290         	21.038         	1.537
MS.291         	20.995         	1.44
MS.292         	20.955         	1.452
MS.293         	20.913         	1.49
MS.294         	20.87          	1.354
MS.295         	20.83          	1.277
MS.296         	20.788         	1.392
MS.297         	20.745         	1.386
MS.298         	20.705         	1.422
MS.299         	20.663         	1.422
MS.300         	20.622         	1.372
MS.301         	20.58          	1.297
MS.302         	20.54          	1.337
MS.303         	20.497         	1.257
MS.304         	20.458         	1.307
MS.305         	20.417         	1.305
MS.306         	20.375         	1.194
MS.307         	20.335         	1.19
MS.308         	20.295         	1.192
MS.309         	20.252         	1.13
MS.310         	20.212         	1.148
MS.311         	20.172         	1.11
MS.312         	20.132         	1.104
MS.313         	20.092         	1.14
MS.314         	20.052         	1.088
MS.315         	20.012         	1.14
MS.316         	19.972         	1.114
MS.317         	19.932         	1.051
MS.318         	19.892         	1.168
MS.319         	19.852         	1.015
MS.320         	19.812         	1.051
MS.321         	19.772         	1.003
MS.322         	19.735         	0.953
MS.323         	19.695         	0.951
MS.324         	19.655         	0.979
MS.325         	19.615         	0.91
MS.326         	19.577         	0.912
MS.327         	19.538         	0.957
MS.328         	19.497         	0.828
MS.329         	19.46          	0.898
MS.330         	19.42          	0.82
MS.331         	19.382         	0.838
MS.332         	19.342         	0.858
MS.333         	19.305         	0.884
MS.334         	19.265         	0.854
MS.335         	19.227         	0.81
MS.336         	19.19          	0.82
MS.337         	19.15          	0.751
MS.338         	19.112         	0.842
MS.339         	19.075         	0.695
MS.340         	19.035         	0.741
MS.341         	18.997         	0.739
MS.342         	18.96          	0.818
MS.343         	18.922         	0.681
MS.344         	18.885         	0.711
MS.345         	18.847         	0.683
MS.346         	18.81          	0.659
MS.347         	18.772         	0.655
MS.348         	18.735         	0.693
MS.349         	18.698         	0.647
MS.350         	18.66          	0.638
MS.351         	18.622         	0.636
MS.352         	18.585         	0.6
MS.353         	18.547         	0.669
MS.354         	18.51          	0.614
MS.355         	18.472         	0.562
MS.356         	18.438         	0.608
MS.357         	18.4           	0.502
MS.358         	18.362         	0.592
MS.359         	18.327         	0.628
MS.360         	18.29          	0.564
MS.361         	18.253         	0.598
MS.362         	18.217         	0.524
MS.363         	18.18          	0.524
MS.364         	18.145         	0.516
MS.365         	18.108         	0.556
MS.366         	18.073         	0.568
MS.367         	18.035         	0.522
MS.368         	18             	0.524
MS.369         	17.962         	0.504
MS.370         	17.927         	0.51
MS.371         	17.892         	0.435
MS.372         	17.855         	0.485
MS.373         	17.82          	0.477
MS.374         	17.785         	0.439
MS.375         	17.75          	0.441
MS.376         	17.712         	0.407
MS.377         	17.677         	0.435
MS.378         	17.642         	0.415
MS.379         	17.608         	0.437
MS.380         	17.573         	0.421
MS.381         	17.538         	0.399
MS.382         	17.503         	0.405
MS.383         	17.467         	0.409
MS.384         	17.432         	0.397
MS.385         	17.397         	0.373
MS.386         	17.362         	0.367
MS.387         	17.327         	0.391
MS.388         	17.292         	0.397
MS.389         	17.26          	0.373
MS.390         	17.225         	0.371
MS.391         	17.19          	0.373
MS.392         	17.155         	0.369
MS.393         	17.122         	0.357
MS.394         	17.087         	0.359
MS.395         	17.052         	0.34
MS.396         	17.02          	0.348
MS.397         	16.985         	0.336
MS.398         	16.95          	0.336
MS.399         	16.917         	0.328
MS.400         	16.882         	0.34
MS.401         	16.85          	0.338
MS.402         	16.815         	0.336
MS.403         	16.782         	0.306
MS.404         	16.75          	0.318
MS.405         	16.715         	0.322
MS.406         	16.682         	0.312
MS.407         	16.65          	0.304
MS.408         	16.615         	0.302
MS.409         	16.583         	0.312
MS.410         	16.55          	0.312
MS.411         	16.515         	0.296
MS.412         	16.483         	0.28
MS.413         	16.45          	0.314
MS.414         	16.417         	0.29
MS.415         	16.385         	0.28
MS.416         	16.352         	0.288
MS.417         	16.32          	0.286
MS.418         	16.288         	0.28
MS.419         	16.255         	0.282
MS.420         	16.222         	0.288
MS.421         	16.19          	0.31
MS.422         	16.157         	0.276
MS.423         	16.125         	0.27
MS.424         	16.092         	0.262
MS.425         	16.06          	0.28
MS.426         	16.028         	0.27
MS.427         	15.995         	0.276
MS.428         	15.965         	0.282
MS.429         	15.932         	0.264
MS.430         	15.9           	0.248
MS.431         	15.867         	0.256
MS.432         	15.837         	0.248
MS.433         	15.805         	0.226
MS.434         	15.773         	0.252
MS.435         	15.742         	0.258
MS.436         	15.71          	0.232
MS.437         	15.68          	0.248
MS.438         	15.648         	0.25
MS.439         	15.617         	0.234
MS.440         	15.585         	0.216
MS.441         	15.555         	0.236
MS.442         	15.523         	0.205
MS.443         	15.492         	0.222
MS.444         	15.46          	0.209
MS.445         	15.43          	0.216
MS.446         	15.4           	0.191
MS.447         	15.37          	0.189
MS.448         	15.337         	0.171
MS.449         	15.307         	0.187
MS.450         	15.277         	0.183
MS.451         	15.247         	0.185
MS.452         	15.215         	0.165
MS.453         	15.185         	0.181
MS.454         	15.155         	0.167
MS.455         	15.125         	0.171
MS.456         	15.095         	0.161
MS.457         	15.065         	0.159
MS.458         	15.035         	0.203
MS.459         	15.005         	0.167
MS.460         	14.975         	0.159
MS.461         	14.945         	0.163
MS.462         	14.915         	0.175
MS.463         	14.885         	0.159
MS.464         	14.855         	0.155
MS.465         	14.825         	0.159
MS.466         	14.795         	0.161
MS.467         	14.765         	0.159
MS.468         	14.737         	0.161
MS.469         	14.707         	0.149
MS.470         	14.677         	0.161
MS.471         	14.648         	0.151
MS.472         	14.62          	0.151
MS.473         	14.59          	0.159
MS.474         	14.56          	0.147
MS.475         	14.532         	0.159
MS.476         	14.502         	0.151
MS.477         	14.475         	0.151
MS.478         	14.445         	0.149
MS.479         	14.415         	0.163
MS.480         	14.387         	0.159
MS.481         	14.358         	0.155
MS.482         	14.33          	0.151
MS.483         	14.3           	0.169
MS.484         	14.273         	0.169
MS.485         	14.245         	0.147
MS.486         	14.215         	0.155
MS.487         	14.188         	0.161
MS.488         	14.16          	0.169
MS.489         	14.13          	0.165
MS.490         	14.102         	0.169
MS.491         	14.075         	0.171
MS.492         	14.045         	0.167
MS.493         	14.017         	0.171
MS.494         	13.99          	0.169
MS.495         	13.962         	0.167
MS.496         	13.935         	0.169
MS.497         	13.905         	0.163
MS.498         	13.877         	0.169
MS.499         	13.85          	0.165
MS.500         	13.822         	0.165
MS.501         	13.795         	0.163
