File:              	C:\Qtrac\Data\Daniel M Sørensen\MScan multicentre study\Data from centres\Aarhus\Processed data\DMSC00902A.QZD
Name:              	DK.AAR.NC.7.1
Protocol:          	MSCAN-R2
Date:              	2/9/20
Start time:        	14:40:08
Age:               	65
Sex:               	m
Temperature:       	35,3
S/R sites:         	ADM
NC/disease:        	NC
Operator:          	DS
Comments:          	Rather much noise
M-SCAN DATA (7-2.9m)
Scanpts: 156, 162, 438, 459
Stim. (mA)     	Amp. (mV)
MS.1           	20.5           	2.045
MS.2           	20.5           	2.067
MS.3           	20.5           	2.09
MS.4           	20.5           	2.063
MS.5           	20.5           	2.026
MS.6           	20.5           	2.065
MS.7           	20.5           	2.066
MS.8           	20.5           	1.978
MS.9           	20.5           	2.09
MS.10          	20.5           	2.075
MS.11          	20.5           	2.107
MS.12          	20.5           	2.112
MS.13          	20.5           	2.076
MS.14          	20.5           	2.067
MS.15          	20.5           	2.065
MS.16          	20.5           	2.042
MS.17          	20.5           	2.001
MS.18          	20.5           	2.051
MS.19          	20.5           	2.088
MS.20          	20.5           	2.081
MS.21          	20.5           	2.075
MS.22          	20.5           	2.063
MS.23          	20.5           	2.077
MS.24          	20.417         	2.063
MS.25          	20.377         	2.065
MS.26          	20.337         	2.06
MS.27          	20.295         	2.061
MS.28          	20.255         	2.049
MS.29          	20.215         	2.037
MS.30          	20.175         	2.062
MS.31          	20.135         	2.051
MS.32          	20.095         	2.072
MS.33          	20.055         	2.049
MS.34          	20.015         	2.032
MS.35          	19.975         	2.045
MS.36          	19.935         	2.064
MS.37          	19.895         	2.089
MS.38          	19.855         	2.082
MS.39          	19.815         	2.066
MS.40          	19.775         	2.063
MS.41          	19.735         	2.067
MS.42          	19.695         	2.061
MS.43          	19.657         	2.063
MS.44          	19.618         	2.057
MS.45          	19.577         	2.058
MS.46          	19.54          	2.057
MS.47          	19.5           	2.051
MS.48          	19.46          	2.063
MS.49          	19.422         	2.054
MS.50          	19.382         	2.063
MS.51          	19.345         	2.069
MS.52          	19.305         	2.072
MS.53          	19.267         	2.063
MS.54          	19.23          	2.062
MS.55          	19.19          	2.06
MS.56          	19.153         	2.055
MS.57          	19.115         	2.06
MS.58          	19.075         	2.063
MS.59          	19.038         	2.067
MS.60          	19             	2.064
MS.61          	18.962         	2.066
MS.62          	18.925         	2.063
MS.63          	18.885         	2.044
MS.64          	18.847         	2.051
MS.65          	18.81          	2.065
MS.66          	18.772         	2.067
MS.67          	18.735         	2.058
MS.68          	18.698         	2.019
MS.69          	18.66          	2.054
MS.70          	18.622         	2.082
MS.71          	18.585         	2.091
MS.72          	18.55          	2.074
MS.73          	18.512         	2.071
MS.74          	18.475         	2.067
MS.75          	18.438         	2.057
MS.76          	18.403         	2.057
MS.77          	18.365         	2.053
MS.78          	18.327         	2.052
MS.79          	18.29          	2.053
MS.80          	18.255         	2.057
MS.81          	18.217         	2.054
MS.82          	18.182         	2.052
MS.83          	18.145         	2.059
MS.84          	18.11          	2.056
MS.85          	18.073         	2.047
MS.86          	18.038         	2.052
MS.87          	18             	2.051
MS.88          	17.965         	2.054
MS.89          	17.93          	2.051
MS.90          	17.892         	2.06
MS.91          	17.858         	2.024
MS.92          	17.823         	2.051
MS.93          	17.785         	2.061
MS.94          	17.75          	2.067
MS.95          	17.715         	2.064
MS.96          	17.68          	2.008
MS.97          	17.645         	2.048
MS.98          	17.61          	2.069
MS.99          	17.575         	2.08
MS.100         	17.54          	2.073
MS.101         	17.505         	2.056
MS.102         	17.47          	2.053
MS.103         	17.435         	2.055
MS.104         	17.4           	2.063
MS.105         	17.365         	2.048
MS.106         	17.33          	2.057
MS.107         	17.295         	2.043
MS.108         	17.26          	2.015
MS.109         	17.225         	2.045
MS.110         	17.192         	2.072
MS.111         	17.157         	2.083
MS.112         	17.122         	2.076
MS.113         	17.09          	2.06
MS.114         	17.055         	2.051
MS.115         	17.02          	2.055
MS.116         	16.987         	2.056
MS.117         	16.952         	2.053
MS.118         	16.917         	2.055
MS.119         	16.885         	2.052
MS.120         	16.85          	2.054
MS.121         	16.817         	2.053
MS.122         	16.785         	2.045
MS.123         	16.75          	2.044
MS.124         	16.717         	2.053
MS.125         	16.682         	2.065
MS.126         	16.65          	2.054
MS.127         	16.618         	2.057
MS.128         	16.583         	2.051
MS.129         	16.55          	2.057
MS.130         	16.517         	2.055
MS.131         	16.485         	2.055
MS.132         	16.452         	2.055
MS.133         	16.417         	2.051
MS.134         	16.385         	2.051
MS.135         	16.352         	2.05
MS.136         	16.32          	2.056
MS.137         	16.288         	2.05
MS.138         	16.255         	2.052
MS.139         	16.222         	2.059
MS.140         	16.19          	2.05
MS.141         	16.157         	2.048
MS.142         	16.125         	2.051
MS.143         	16.092         	2.055
MS.144         	16.062         	2.049
MS.145         	16.03          	2.055
MS.146         	15.997         	2.057
MS.147         	15.965         	2.062
MS.148         	15.932         	2.052
MS.149         	15.902         	2.052
MS.150         	15.87          	2.048
MS.151         	15.837         	2.053
MS.152         	15.807         	2.053
MS.153         	15.775         	2.052
MS.154         	15.742         	2.051
MS.155         	15.712         	2.049
MS.156         	15.68          	2.049
MS.157         	15.65          	2.049
MS.158         	15.617         	2.052
MS.159         	15.587         	2.051
MS.160         	15.555         	2.05
MS.161         	15.525         	2.053
MS.162         	15.492         	2.048
MS.163         	15.462         	2.05
MS.164         	15.432         	2.045
MS.165         	15.4           	2.049
MS.166         	15.37          	2.05
MS.167         	15.34          	2.047
MS.168         	15.307         	2.048
MS.169         	15.277         	2.047
MS.170         	15.247         	2.045
MS.171         	15.217         	2.047
MS.172         	15.188         	2.046
MS.173         	15.157         	1.988
MS.174         	15.125         	2.034
MS.175         	15.095         	2.05
MS.176         	15.065         	2.036
MS.177         	15.035         	1.836
MS.178         	15.005         	1.736
MS.179         	14.975         	1.922
MS.180         	14.945         	1.714
MS.181         	14.915         	1.832
MS.182         	14.885         	1.759
MS.183         	14.858         	1.902
MS.184         	14.827         	1.547
MS.185         	14.797         	1.658
MS.186         	14.767         	1.532
MS.187         	14.737         	1.419
MS.188         	14.707         	1.266
MS.189         	14.68          	1.353
MS.190         	14.65          	1.228
MS.191         	14.62          	1.32
MS.192         	14.59          	1.265
MS.193         	14.562         	1.249
MS.194         	14.532         	1.294
MS.195         	14.505         	1.167
MS.196         	14.475         	1.105
MS.197         	14.445         	1.138
MS.198         	14.417         	1.17
MS.199         	14.387         	1.117
MS.200         	14.36          	1.081
MS.201         	14.33          	1.17
MS.202         	14.302         	1.047
MS.203         	14.273         	0.973
MS.204         	14.245         	0.931
MS.205         	14.217         	1.019
MS.206         	14.188         	1.052
MS.207         	14.16          	0.959
MS.208         	14.132         	0.929
MS.209         	14.102         	0.913
MS.210         	14.075         	0.841
MS.211         	14.047         	0.901
MS.212         	14.02          	0.674
MS.213         	13.99          	0.649
MS.214         	13.962         	0.708
MS.215         	13.935         	0.714
MS.216         	13.907         	0.76
MS.217         	13.88          	0.877
MS.218         	13.852         	0.654
MS.219         	13.825         	0.662
MS.220         	13.797         	0.599
MS.221         	13.77          	0.614
MS.222         	13.742         	0.608
MS.223         	13.715         	0.61
MS.224         	13.688         	0.58
MS.225         	13.66          	0.646
MS.226         	13.632         	0.637
MS.227         	13.605         	0.519
MS.228         	13.577         	0.567
MS.229         	13.55          	0.552
MS.230         	13.523         	0.505
MS.231         	13.497         	0.462
MS.232         	13.47          	0.557
MS.233         	13.443         	0.403
MS.234         	13.415         	0.438
MS.235         	13.39          	0.345
MS.236         	13.362         	0.366
MS.237         	13.335         	0.424
MS.238         	13.307         	0.385
MS.239         	13.282         	0.381
MS.240         	13.255         	0.412
MS.241         	13.23          	0.371
MS.242         	13.202         	0.4
MS.243         	13.177         	0.401
MS.244         	13.15          	0.358
MS.245         	13.122         	0.363
MS.246         	13.097         	0.349
MS.247         	13.072         	0.383
MS.248         	13.045         	0.338
MS.249         	13.02          	0.375
MS.250         	12.992         	0.347
MS.251         	12.967         	0.298
MS.252         	12.943         	0.349
MS.253         	12.915         	0.281
MS.254         	12.89          	0.28
MS.255         	12.865         	0.304
MS.256         	12.837         	0.277
MS.257         	12.812         	0.334
MS.258         	12.787         	0.234
MS.259         	12.762         	0.26
MS.260         	12.735         	0.262
MS.261         	12.71          	0.259
MS.262         	12.685         	0.256
MS.263         	12.66          	0.273
MS.264         	12.635         	0.227
MS.265         	12.61          	0.224
MS.266         	12.585         	0.314
MS.267         	12.56          	0.27
MS.268         	12.532         	0.198
MS.269         	12.507         	0.236
MS.270         	12.483         	0.203
MS.271         	12.457         	0.204
MS.272         	12.435         	0.239
MS.273         	12.41          	0.219
MS.274         	12.385         	0.177
MS.275         	12.36          	0.19
MS.276         	12.335         	0.227
MS.277         	12.31          	0.227
MS.278         	12.285         	0.246
MS.279         	12.26          	0.242
MS.280         	12.238         	0.197
MS.281         	12.212         	0.235
MS.282         	12.188         	0.244
MS.283         	12.162         	0.176
MS.284         	12.14          	0.19
MS.285         	12.115         	0.24
MS.286         	12.09          	0.19
MS.287         	12.068         	0.188
MS.288         	12.042         	0.184
MS.289         	12.017         	0.203
MS.290         	11.995         	0.177
MS.291         	11.97          	0.161
MS.292         	11.947         	0.197
MS.293         	11.922         	0.18
MS.294         	11.898         	0.194
MS.295         	11.875         	0.167
MS.296         	11.85          	0.171
MS.297         	11.827         	0.158
MS.298         	11.805         	0.2
MS.299         	11.78          	0.168
MS.300         	11.757         	0.165
MS.301         	11.733         	0.206
MS.302         	11.71          	0.16
MS.303         	11.688         	0.192
MS.304         	11.662         	0.184
MS.305         	11.64          	0.166
MS.306         	11.617         	0.163
MS.307         	11.592         	0.154
MS.308         	11.57          	0.152
MS.309         	11.547         	0.161
MS.310         	11.525         	0.171
MS.311         	11.5           	0.061
MS.312         	11.477         	0.156
MS.313         	11.455         	0.154
MS.314         	11.432         	0.159
MS.315         	11.41          	0.071
MS.316         	11.387         	0.153
MS.317         	11.363         	0.07
MS.318         	11.34          	0.049
MS.319         	11.318         	0.054
MS.320         	11.295         	0.056
MS.321         	11.273         	0.058
MS.322         	11.25          	0.07
MS.323         	11.227         	0.053
MS.324         	11.205         	0.057
MS.325         	11.182         	0.055
MS.326         	11.16          	0.051
MS.327         	11.137         	0.067
MS.328         	11.117         	0.054
MS.329         	11.095         	0.068
MS.330         	11.073         	0.044
MS.331         	11.05          	0.048
MS.332         	11.028         	0.051
MS.333         	11.005         	0.041
MS.334         	10.985         	0.044
MS.335         	10.962         	0.035
MS.336         	10.94          	0.046
MS.337         	10.917         	0.051
MS.338         	10.898         	0.034
MS.339         	10.875         	0.05
MS.340         	10.852         	0.046
MS.341         	10.83          	0.042
MS.342         	10.81          	0.026
MS.343         	10.787         	0.039
MS.344         	10.767         	0.032
MS.345         	10.745         	0.047
MS.346         	10.722         	0.044
MS.347         	10.702         	0.051
MS.348         	10.68          	0.027
MS.349         	10.66          	0.035
MS.350         	10.637         	0.032
MS.351         	10.617         	0.024
MS.352         	10.595         	0.037
MS.353         	10.575         	0.029
MS.354         	10.552         	0.029
MS.355         	10.532         	0.031
MS.356         	10.51          	0.03
MS.357         	10.49          	0.029
MS.358         	10.47          	0.031
MS.359         	10.448         	0.031
MS.360         	10.427         	0.032
MS.361         	10.407         	0.031
MS.362         	10.385         	0.03
MS.363         	10.365         	0.031
MS.364         	10.345         	0.027
MS.365         	10.323         	0.031
MS.366         	10.302         	0.026
MS.367         	10.282         	0.028
MS.368         	10.262         	0.032
MS.369         	10.24          	0.034
MS.370         	10.22          	0.033
MS.371         	10.2           	0.034
MS.372         	10.18          	0.034
MS.373         	10.16          	0.034
MS.374         	10.14          	0.035
MS.375         	10.12          	0.027
MS.376         	10.1           	0.027
MS.377         	10.077         	0.028
MS.378         	10.057         	0.027
MS.379         	10.037         	0.034
MS.380         	10.017         	0.03
MS.381         	9.997          	0.025
MS.382         	9.977          	0.03
MS.383         	9.957          	0.031
MS.384         	9.938          	0.031
MS.385         	9.917          	0.033
MS.386         	9.9            	0.03
MS.387         	9.88           	0.031
MS.388         	9.86           	0.026
MS.389         	9.84           	0.032
MS.390         	9.82           	0.028
MS.391         	9.8            	0.031
MS.392         	9.78           	0.031
MS.393         	9.762          	0.027
MS.394         	9.742          	0.035
MS.395         	9.722          	0.034
MS.396         	9.702          	0.036
MS.397         	9.682          	0.032
MS.398         	9.665          	0.027
MS.399         	9.645          	0.034
MS.400         	9.625          	0.031
MS.401         	9.608          	0.026
MS.402         	9.587          	0.031
MS.403         	9.568          	0.029
MS.404         	9.55           	0.034
MS.405         	9.53           	0.028
MS.406         	9.51           	0.028
MS.407         	9.492          	0.029
MS.408         	9.472          	0.031
MS.409         	9.455          	0.031
MS.410         	9.435          	0.034
MS.411         	9.415          	0.029
MS.412         	9.398          	0.033
MS.413         	9.377          	0.038
MS.414         	9.36           	0.034
MS.415         	9.34           	0.031
MS.416         	9.323          	0.034
MS.417         	9.305          	0.033
MS.418         	9.285          	0.035
MS.419         	9.267          	0.028
MS.420         	9.247          	0.03
MS.421         	9.23           	0.031
MS.422         	9.21           	0.034
MS.423         	9.193          	0.032
MS.424         	9.175          	0.032
MS.425         	9.155          	0.033
MS.426         	9.137          	0.028
MS.427         	9.12           	0.036
MS.428         	9.102          	0.035
MS.429         	9.082          	0.034
MS.430         	9.065          	0.031
MS.431         	9.047          	0.031
MS.432         	9.03           	0.031
MS.433         	9.01           	0.035
MS.434         	8.992          	0.032
MS.435         	8.975          	0.035
MS.436         	8.957          	0.032
MS.437         	8.94           	0.032
MS.438         	8.92           	0.029
MS.439         	8.903          	0.035
MS.440         	8.885          	0.035
MS.441         	8.867          	0.033
MS.442         	8.85           	0.034
MS.443         	8.832          	0.034
MS.444         	8.815          	0.032
MS.445         	8.797          	0.033
MS.446         	8.78           	0.034
MS.447         	8.762          	0.035
MS.448         	8.745          	0.032
MS.449         	8.727          	0.033
MS.450         	8.71           	0.033
MS.451         	8.693          	0.035
MS.452         	8.675          	0.035
MS.453         	8.658          	0.034
MS.454         	8.64           	0.032
MS.455         	8.622          	0.035
MS.456         	8.605          	0.034
MS.457         	8.587          	0.039
MS.458         	8.573          	0.029
MS.459         	8.555          	0.033
DERIVED EXCITABILITY VARIABLES
Program = QTracP 9/10/2021
Threshold method = 6 (optimised for CAP, using data for present condition only)
SR method = 1 (using actual data values)
6.                 	0.000               	Peak response\(µV)
9.                 	35                  	Temperature ( C)
17.                	65                  	Age (years)
18.                	1                   	Sex (M=1, F=2)

EXTRA VARIABLES

MScPeak(mV) = 2.03
MScS5(mA) = 11.44
MScS50(mA) = 14.23
MScS95(mA) = 15.05
MScNSteps = 5
MScSteps(%) = 21.9
MScStepMax(%) = 5.6
MScD50 = 18
MScSlope = 11.16
MScDuration(min) = 4.1
MSFTraces = 304
MSFPeakAmp(mV) = 2.02
MSFNUnits = 58
MSFMeanUnitAmp(uV) = 34.8
MSFHuntTime(m) = 1
MSFError(%) = 5.4
MSFNLarge = 15.33
MSFMedianAmp(%) = 1.4
MSFMedianAmp(mV) = 0.0282
MSFHalfAmpAmp(%) = 1.89
MSFHalfAmpAmp(mV) = 0.0381
MSFLargestAmp(%) = 8.83
MSFLargestAmp(mV) = 0.178
MSFMeanRS(%) = 2
MSFSizeLimit(uV) = 7
MSFLimitType = 3
MSFSmallestAmp(uV) = 7.89
MSFOpts = 10106121

EXTRA WAVEFORMS


!MScan Model
!58
	1	10.94	0.5	2
	2	11.05	0.43	2
	3	11.29	0.79	2
	4	11.33	0.94	2
	5	11.42	1.46	2
	6	11.55	1.7	2
	7	11.99	1.7	2
	8	12.11	1.03	2
	9	12.46	1.29	2
	10	12.73	1.78	2
	11	12.84	1	2
	12	12.9	0.87	2
	13	12.95	0.96	2
	14	13.01	0.83	2
	15	13.07	0.73	2
	16	13.28	2.08	2
	17	13.36	1	2
	18	13.39	0.39	2
	19	13.42	0.53	2
	20	13.45	1.1	2
	21	13.48	1.31	2
	22	13.54	1.89	2
	23	13.59	1.46	2
	24	13.67	2.09	2
	25	13.77	3.13	2
	26	13.91	2.64	2
	27	13.98	3.47	2
	28	14.03	2.57	2
	29	14.07	1.61	2
	30	14.14	2.03	2
	31	14.18	2.55	2
	32	14.24	3.09	2
