File:              	C:\Qtrac\Data\Daniel M Sørensen\MScan multicentre study\Data from centres\Ankara\Processed data\EBC00825C.QZD
Name:              	TR.ANK.NC.4.1
Protocol:          	MSCAN-R2
Date:              	25/8/20
Start time:        	15:27:31
Age:               	38
Sex:               	m
Temperature:
S/R sites:         	TA
NC/disease:        	NC
Operator:          	nt
Comments:
M-SCAN DATA (5.6-2.5m)
Scanpts: 6, 10, 346, 351
Stim. (mA)     	Amp. (mV)
MS.1           	27             	4.507
MS.2           	27             	4.53
MS.3           	27             	4.48
MS.4           	27             	4.431
MS.5           	27             	4.452
MS.6           	27             	4.441
MS.7           	27             	4.462
MS.8           	27             	4.438
MS.9           	27             	4.459
MS.10          	27             	4.459
MS.11          	27             	4.435
MS.12          	27             	4.417
MS.13          	27             	4.464
MS.14          	27             	4.502
MS.15          	27             	4.451
MS.16          	27             	4.448
MS.17          	27             	4.445
MS.18          	27             	4.462
MS.19          	27             	4.443
MS.20          	27             	4.426
MS.21          	27             	4.48
MS.22          	27             	4.457
MS.23          	27             	4.459
MS.24          	26.892         	4.392
MS.25          	26.837         	4.419
MS.26          	26.785         	4.41
MS.27          	26.73          	4.397
MS.28          	26.677         	4.407
MS.29          	26.625         	4.414
MS.30          	26.573         	4.408
MS.31          	26.517         	4.412
MS.32          	26.465         	4.392
MS.33          	26.412         	4.387
MS.34          	26.36          	4.395
MS.35          	26.307         	4.385
MS.36          	26.255         	4.424
MS.37          	26.202         	4.397
MS.38          	26.15          	4.39
MS.39          	26.097         	4.341
MS.40          	26.045         	4.384
MS.41          	25.993         	4.344
MS.42          	25.94          	4.393
MS.43          	25.89          	4.342
MS.44          	25.837         	4.327
MS.45          	25.785         	4.218
MS.46          	25.735         	4.363
MS.47          	25.682         	4.395
MS.48          	25.632         	4.305
MS.49          	25.58          	4.404
MS.50          	25.53          	4.362
MS.51          	25.477         	4.321
MS.52          	25.427         	4.341
MS.53          	25.377         	4.277
MS.54          	25.325         	4.249
MS.55          	25.275         	4.235
MS.56          	25.225         	4.252
MS.57          	25.175         	4.279
MS.58          	25.125         	4.183
MS.59          	25.075         	4.155
MS.60          	25.025         	4.166
MS.61          	24.975         	4.115
MS.62          	24.925         	4.191
MS.63          	24.875         	4.148
MS.64          	24.825         	4.113
MS.65          	24.775         	4.103
MS.66          	24.725         	4.104
MS.67          	24.675         	3.978
MS.68          	24.627         	3.993
MS.69          	24.577         	3.937
MS.70          	24.528         	3.978
MS.71          	24.48          	3.961
MS.72          	24.43          	3.888
MS.73          	24.382         	3.915
MS.74          	24.332         	3.881
MS.75          	24.285         	3.898
MS.76          	24.235         	3.864
MS.77          	24.188         	3.859
MS.78          	24.14          	3.91
MS.79          	24.09          	3.931
MS.80          	24.042         	3.894
MS.81          	23.995         	3.827
MS.82          	23.948         	3.817
MS.83          	23.9           	3.8
MS.84          	23.85          	3.872
MS.85          	23.802         	3.744
MS.86          	23.755         	3.771
MS.87          	23.707         	3.826
MS.88          	23.66          	3.837
MS.89          	23.615         	3.759
MS.90          	23.567         	3.781
MS.91          	23.52          	3.784
MS.92          	23.472         	3.767
MS.93          	23.425         	3.785
MS.94          	23.38          	3.757
MS.95          	23.332         	3.757
MS.96          	23.285         	3.768
MS.97          	23.24          	3.778
MS.98          	23.192         	3.633
MS.99          	23.145         	3.706
MS.100         	23.1           	3.661
MS.101         	23.055         	3.625
MS.102         	23.007         	3.606
MS.103         	22.962         	3.562
MS.104         	22.915         	3.577
MS.105         	22.87          	3.556
MS.106         	22.825         	3.452
MS.107         	22.78          	3.406
MS.108         	22.733         	3.474
MS.109         	22.688         	3.523
MS.110         	22.642         	3.512
MS.111         	22.597         	3.274
MS.112         	22.552         	3.439
MS.113         	22.507         	3.345
MS.114         	22.462         	3.4
MS.115         	22.417         	3.458
MS.116         	22.372         	3.467
MS.117         	22.327         	3.284
MS.118         	22.282         	3.135
MS.119         	22.237         	3.169
MS.120         	22.195         	3.052
MS.121         	22.15          	3.099
MS.122         	22.105         	3.026
MS.123         	22.062         	3.038
MS.124         	22.017         	2.993
MS.125         	21.972         	3.042
MS.126         	21.93          	2.935
MS.127         	21.885         	2.916
MS.128         	21.842         	2.972
MS.129         	21.797         	3.066
MS.130         	21.755         	2.972
MS.131         	21.712         	2.858
MS.132         	21.667         	2.971
MS.133         	21.625         	2.655
MS.134         	21.583         	3.041
MS.135         	21.538         	3.09
MS.136         	21.495         	3.257
MS.137         	21.452         	3.126
MS.138         	21.41          	2.925
MS.139         	21.368         	2.786
MS.140         	21.325         	2.963
MS.141         	21.282         	2.754
MS.142         	21.24          	2.803
MS.143         	21.198         	2.733
MS.144         	21.155         	2.678
MS.145         	21.112         	2.716
MS.146         	21.07          	2.573
MS.147         	21.028         	2.473
MS.148         	20.985         	2.52
MS.149         	20.942         	2.418
MS.150         	20.903         	2.357
MS.151         	20.86          	2.194
MS.152         	20.817         	2.051
MS.153         	20.778         	2.526
MS.154         	20.735         	2.78
MS.155         	20.695         	2.715
MS.156         	20.653         	2.384
MS.157         	20.61          	2.358
MS.158         	20.57          	2.323
MS.159         	20.53          	2.278
MS.160         	20.487         	2.385
MS.161         	20.448         	2.795
MS.162         	20.405         	2.542
MS.163         	20.365         	2.372
MS.164         	20.325         	2.422
MS.165         	20.285         	2.28
MS.166         	20.243         	2.291
MS.167         	20.202         	2.136
MS.168         	20.163         	2.258
MS.169         	20.122         	2.042
MS.170         	20.083         	1.953
MS.171         	20.042         	1.94
MS.172         	20.002         	1.987
MS.173         	19.962         	1.987
MS.174         	19.922         	2.103
MS.175         	19.882         	1.831
MS.176         	19.842         	1.757
MS.177         	19.802         	1.753
MS.178         	19.762         	1.825
MS.179         	19.725         	1.649
MS.180         	19.685         	1.689
MS.181         	19.645         	1.708
MS.182         	19.605         	1.624
MS.183         	19.567         	1.527
MS.184         	19.528         	1.548
MS.185         	19.487         	1.46
MS.186         	19.45          	1.239
MS.187         	19.41          	1.311
MS.188         	19.372         	1.172
MS.189         	19.333         	1.219
MS.190         	19.295         	1.183
MS.191         	19.255         	1.156
MS.192         	19.217         	1.102
MS.193         	19.18          	1.094
MS.194         	19.14          	1.084
MS.195         	19.102         	1.056
MS.196         	19.065         	1.1
MS.197         	19.028         	1.15
MS.198         	18.987         	1.108
MS.199         	18.95          	1.088
MS.200         	18.913         	1.003
MS.201         	18.875         	0.959
MS.202         	18.837         	1
MS.203         	18.8           	1.039
MS.204         	18.762         	0.875
MS.205         	18.725         	0.966
MS.206         	18.688         	0.814
MS.207         	18.65          	0.841
MS.208         	18.612         	0.916
MS.209         	18.575         	0.857
MS.210         	18.538         	0.758
MS.211         	18.5           	0.883
MS.212         	18.465         	0.75
MS.213         	18.427         	0.698
MS.214         	18.39          	0.684
MS.215         	18.352         	0.698
MS.216         	18.317         	0.659
MS.217         	18.28          	0.612
MS.218         	18.245         	0.531
MS.219         	18.208         	0.625
MS.220         	18.17          	0.587
MS.221         	18.135         	0.554
MS.222         	18.097         	0.52
MS.223         	18.062         	0.553
MS.224         	18.028         	0.634
MS.225         	17.99          	0.54
MS.226         	17.955         	0.515
MS.227         	17.917         	0.502
MS.228         	17.882         	0.538
MS.229         	17.847         	0.566
MS.230         	17.812         	0.524
MS.231         	17.775         	0.503
MS.232         	17.74          	0.487
MS.233         	17.705         	0.437
MS.234         	17.67          	0.481
MS.235         	17.635         	0.42
MS.236         	17.6           	0.447
MS.237         	17.562         	0.428
MS.238         	17.528         	0.4
MS.239         	17.493         	0.377
MS.240         	17.458         	0.361
MS.241         	17.422         	0.338
MS.242         	17.39          	0.297
MS.243         	17.355         	0.255
MS.244         	17.32          	0.272
MS.245         	17.285         	0.286
MS.246         	17.25          	0.289
MS.247         	17.215         	0.275
MS.248         	17.182         	0.288
MS.249         	17.147         	0.255
MS.250         	17.112         	0.283
MS.251         	17.077         	0.292
MS.252         	17.045         	0.267
MS.253         	17.01          	0.277
MS.254         	16.977         	0.236
MS.255         	16.942         	0.198
MS.256         	16.91          	0.217
MS.257         	16.875         	0.22
MS.258         	16.842         	0.197
MS.259         	16.807         	0.219
MS.260         	16.775         	0.197
MS.261         	16.74          	0.149
MS.262         	16.708         	0.204
MS.263         	16.672         	0.182
MS.264         	16.64          	0.192
MS.265         	16.608         	0.145
MS.266         	16.575         	0.157
MS.267         	16.54          	0.15
MS.268         	16.507         	0.151
MS.269         	16.475         	0.099
MS.270         	16.442         	0.12
MS.271         	16.41          	0.109
MS.272         	16.378         	0.068
MS.273         	16.342         	0.098
MS.274         	16.31          	0.105
MS.275         	16.278         	0.11
MS.276         	16.245         	0.092
MS.277         	16.212         	0.082
MS.278         	16.18          	0.106
MS.279         	16.147         	0.051
MS.280         	16.118         	0.082
MS.281         	16.085         	0.078
MS.282         	16.052         	0.074
MS.283         	16.02          	0.087
MS.284         	15.987         	0.06
MS.285         	15.955         	0.049
MS.286         	15.925         	0.067
MS.287         	15.892         	0.076
MS.288         	15.86          	0.04
MS.289         	15.83          	0.04
MS.290         	15.797         	0.045
MS.291         	15.765         	0.173
MS.292         	15.735         	0.052
MS.293         	15.702         	0.044
MS.294         	15.672         	0.039
MS.295         	15.64          	0.044
MS.296         	15.61          	0.039
MS.297         	15.577         	0.04
MS.298         	15.547         	0.044
MS.299         	15.515         	0.049
MS.300         	15.485         	0.045
MS.301         	15.452         	0.045
MS.302         	15.422         	0.04
MS.303         	15.392         	0.042
MS.304         	15.36          	0.046
MS.305         	15.33          	0.044
MS.306         	15.3           	0.038
MS.307         	15.27          	0.04
MS.308         	15.237         	0.04
MS.309         	15.207         	0.045
MS.310         	15.177         	0.048
MS.311         	15.148         	0.061
MS.312         	15.117         	0.043
MS.313         	15.087         	0.05
MS.314         	15.057         	0.034
MS.315         	15.027         	0.037
MS.316         	14.997         	0.039
MS.317         	14.967         	0.046
MS.318         	14.938         	0.04
MS.319         	14.907         	0.043
MS.320         	14.877         	0.037
MS.321         	14.847         	0.042
MS.322         	14.818         	0.04
MS.323         	14.787         	0.05
MS.324         	14.757         	0.039
MS.325         	14.73          	0.037
MS.326         	14.7           	0.043
MS.327         	14.67          	0.046
MS.328         	14.64          	0.037
MS.329         	14.612         	0.033
MS.330         	14.582         	0.033
MS.331         	14.552         	0.035
MS.332         	14.525         	0.045
MS.333         	14.495         	0.04
MS.334         	14.467         	0.035
MS.335         	14.438         	0.033
MS.336         	14.407         	0.037
MS.337         	14.38          	0.042
MS.338         	14.35          	0.032
MS.339         	14.322         	0.031
MS.340         	14.295         	0.033
MS.341         	14.265         	0.039
MS.342         	14.237         	0.035
MS.343         	14.207         	0.034
MS.344         	14.18          	0.032
MS.345         	14.153         	0.028
MS.346         	14.122         	0.032
MS.347         	14.095         	0.029
MS.348         	14.068         	0.027
MS.349         	14.04          	0.039
MS.350         	14.01          	0.035
MS.351         	13.983         	0.033
MS.352         	13.955         	0.028
MS.353         	13.927         	0.031
MS.354         	13.9           	0.034
MS.355         	13.872         	0.034
MS.356         	13.842         	0.028
MS.357         	13.815         	0.032
DERIVED EXCITABILITY VARIABLES
Program = QTracP 3/4/2020
Threshold method = 6 (optimised for CAP, using data for present condition only)
SR method = 1 (using actual data values)
6.                 	0.000               	Peak response\(mV)
17.                	38                  	Age (years)
18.                	1                   	Sex (M=1, F=2)

EXTRA VARIABLES

MScPeak(mV) = 4.43
MScS5(mA) = 16.96
MScS50(mA) = 20.44
MScS95(mA) = 25.14
MScNSteps = 2
MScSteps(%) = 4.9
MScStepMax(%) = 2.5
MScD50 = 42
MScSlope = 5.98
MSFPeakAmp(mV) = 4.42
MSFNUnits = 151
MSFMeanUnitAmp(uV) = 29.3
MSFHuntTime(m) = 2.03
MSFError(%) = 3.59
MSFNLarge = 36.17
MSFMedianAmp(%) = 0.471
MSFMedianAmp(mV) = 0.0208
MSFHalfAmpAmp(%) = 0.781
MSFHalfAmpAmp(mV) = 0.0345
MSFLargestAmp(%) = 4.49
MSFLargestAmp(mV) = 0.198
MSFMeanRS(%) = 2
MSFOpts = 10106121
MScDuration(min) = 3.1
MSFTraces = 346
MSFSizeLimit(uV) = 11
MSFLimitType = 1
MSFSmallestAmp(uV) = 11.1

EXTRA WAVEFORMS


!MScan Model
!151
	1	15.64	0.44	2
	2	16.23	0.86	2
	3	16.37	0.39	2
	4	16.44	0.38	2
	5	16.52	0.4	2
	6	16.6	0.37	2
	7	16.7	0.48	2
	8	16.75	0.28	2
	9	16.8	0.26	2
	10	16.85	0.25	2
	11	16.94	0.43	2
	12	17	0.32	2
	13	17.24	0.83	2
	14	17.27	0.27	2
	15	17.31	0.26	2
	16	17.35	0.3	2
	17	17.42	0.5	2
	18	17.47	0.4	2
	19	17.51	0.41	2
	20	17.55	0.47	2
	21	17.57	0.28	2
	22	17.6	0.28	2
	23	17.62	0.3	2
	24	17.67	0.47	2
	25	17.77	0.78	2
	26	17.86	0.58	2
	27	18.12	1.3	2
	28	18.17	0.57	2
	29	18.23	0.5	2
	30	18.29	0.54	2
	31	18.31	0.33	2
	32	18.34	0.34	2
	33	18.36	0.37	2
	34	18.39	0.39	2
	35	18.43	0.59	2
	36	18.46	0.6	2
	37	18.5	0.55	2
	38	18.54	0.51	2
	39	18.58	0.55	2
	40	18.62	0.55	2
	41	18.65	0.54	2
	42	18.69	0.45	2
	43	18.73	0.47	2
	44	18.77	0.67	2
	45	18.88	1.45	2
	46	19	0.94	2
	47	19.1	1.21	2
	48	19.17	0.58	2
	49	19.2	0.29	2
	50	19.23	0.42	2
	51	19.25	0.27	2
	52	19.27	0.26	2
	53	19.29	0.25	2
	54	19.3	0.26	2
	55	19.32	0.59	2
	56	19.34	0.33	2.4
	57	19.35	0.42	2
	58	19.37	0.42	2
	59	19.38	0.36	2
	60	19.4	0.34	2
	61	19.41	0.34	2
	62	19.42	0.31	2
	63	19.44	0.31	2
	64	19.45	0.31	2
	65	19.47	0.33	2
	66	19.48	0.33	2
	67	19.49	0.36	2
	68	19.51	0.41	2
	69	19.52	0.41	2
	70	19.54	0.57	2
	71	19.57	0.82	2
	72	19.59	0.82	2
	73	19.62	0.85	2
	74	19.65	0.88	2
	75	19.67	0.88	2
	76	19.7	0.74	2
	77	19.73	0.65	2
	78	19.76	0.65	2
	79	19.8	0.99	2
	80	19.84	0.78	2
	81	19.89	0.78	2
	82	19.93	0.95	2
	83	19.97	0.87	2
	84	20.01	0.98	2
	85	20.06	1.23	2
	86	20.1	1.16	2
	87	20.14	1.04	2
	88	20.24	3.72	2
	89	20.99	4.49	2
	90	21.02	1.73	2
	91	21.05	0.44	2
	92	21.08	0.47	2
	93	21.11	0.47	2
	94	21.14	0.8	2
	95	21.33	4.47	2
	96	21.9	2.84	2
	97	21.98	0.93	2
	98	22.04	0.54	2
	99	22.07	0.34	2
	100	22.11	0.38	2
	101	22.15	0.68	2
	102	22.18	0.68	2
	103	22.22	0.7	2
	104	22.25	0.72	2
	105	22.3	1.09	2
	106	22.42	1.38	2
	107	22.57	2.07	2
	108	22.74	1.74	2
	109	22.79	0.4	2
	110	22.83	0.6	2
	111	22.88	0.57	2
	112	22.92	0.42	2
	113	22.97	0.48	2
	114	23.01	0.49	2
	115	23.06	0.5	2
	116	23.08	0.39	2
	117	23.15	0.57	2
	118	23.27	0.99	2
	119	23.45	1.04	2
	120	23.75	0.83	2
	121	23.94	0.86	2
	122	24.15	0.9	2
	123	24.25	0.37	2
	124	24.35	0.62	2
	125	24.43	0.46	2
	126	24.49	0.43	2
	127	24.57	0.53	2
	128	24.6	0.27	2
	129	24.63	0.29	2
	130	24.66	0.35	2
	131	24.69	0.35	2
	132	24.72	0.35	2
	133	24.76	0.26	2
	134	24.79	0.26	2
	135	24.82	0.26	2
	136	24.86	0.32	2
	137	24.89	0.32	2
	138	24.92	0.32	2
	139	24.96	0.4	2
	140	25.01	0.37	2
	141	25.05	0.35	2
	142	25.09	0.33	2
	143	25.13	0.32	2
	144	25.2	0.44	2
	145	25.26	0.42	2
	146	25.32	0.41	2
	147	25.38	0.43	2
	148	25.69	1.08	2
	149	26.09	0.85	2
	150	26.44	0.7	2
	151	26.8	0.5	2

