File:              	C:\Qtrac\Data\Daniel M Sørensen\MScan multicentre study\Data from centres\Ankara\Processed data\EBC00825A.QZD
Name:              	TR.ANK.NC.4.1
Protocol:          	MSCAN-R2
Date:              	25/8/20
Start time:        	14:50:20
Age:               	38
Sex:               	m
Temperature:
S/R sites:         	APB
NC/disease:        	NC
Operator:          	nt
Comments:
M-SCAN DATA (6.3-1.3m)
Scanpts: 76, 80, 536, 544
Stim. (mA)     	Amp. (mV)
MS.1           	19.5           	9.469
MS.2           	19.5           	9.462
MS.3           	19.5           	9.464
MS.4           	19.5           	9.453
MS.5           	19.5           	9.468
MS.6           	19.5           	9.457
MS.7           	19.5           	9.467
MS.8           	19.5           	9.441
MS.9           	19.5           	9.448
MS.10          	19.5           	9.437
MS.11          	19.5           	9.438
MS.12          	19.5           	9.459
MS.13          	19.5           	9.474
MS.14          	19.5           	9.474
MS.15          	19.5           	9.482
MS.16          	19.5           	9.496
MS.17          	19.5           	9.481
MS.18          	19.5           	9.484
MS.19          	19.5           	9.482
MS.20          	19.5           	9.498
MS.21          	19.5           	9.482
MS.22          	19.5           	9.478
MS.23          	19.5           	9.46
MS.24          	19.422         	9.476
MS.25          	19.382         	9.467
MS.26          	19.345         	9.474
MS.27          	19.305         	9.452
MS.28          	19.267         	9.453
MS.29          	19.23          	9.487
MS.30          	19.19          	9.5
MS.31          	19.153         	9.487
MS.32          	19.115         	9.498
MS.33          	19.075         	9.489
MS.34          	19.038         	9.495
MS.35          	19             	9.502
MS.36          	18.962         	9.512
MS.37          	18.922         	9.5
MS.38          	18.885         	9.523
MS.39          	18.847         	9.532
MS.40          	18.81          	9.507
MS.41          	18.772         	9.532
MS.42          	18.735         	9.543
MS.43          	18.698         	9.529
MS.44          	18.66          	9.561
MS.45          	18.622         	9.58
MS.46          	18.585         	9.564
MS.47          	18.55          	9.58
MS.48          	18.512         	9.58
MS.49          	18.475         	9.554
MS.50          	18.438         	9.541
MS.51          	18.4           	9.548
MS.52          	18.365         	9.561
MS.53          	18.327         	9.551
MS.54          	18.29          	9.55
MS.55          	18.255         	9.535
MS.56          	18.217         	9.537
MS.57          	18.182         	9.556
MS.58          	18.145         	9.509
MS.59          	18.11          	9.506
MS.60          	18.073         	9.526
MS.61          	18.038         	9.523
MS.62          	18             	9.539
MS.63          	17.965         	9.541
MS.64          	17.93          	9.517
MS.65          	17.892         	9.532
MS.66          	17.858         	9.532
MS.67          	17.823         	9.561
MS.68          	17.785         	9.558
MS.69          	17.75          	9.572
MS.70          	17.715         	9.565
MS.71          	17.68          	9.553
MS.72          	17.645         	9.553
MS.73          	17.61          	9.553
MS.74          	17.575         	9.556
MS.75          	17.538         	9.586
MS.76          	17.503         	9.585
MS.77          	17.467         	9.592
MS.78          	17.435         	9.585
MS.79          	17.4           	9.583
MS.80          	17.365         	9.589
MS.81          	17.33          	9.558
MS.82          	17.295         	9.57
MS.83          	17.26          	9.586
MS.84          	17.225         	9.579
MS.85          	17.192         	9.58
MS.86          	17.157         	9.559
MS.87          	17.122         	9.57
MS.88          	17.087         	9.54
MS.89          	17.055         	9.552
MS.90          	17.02          	9.545
MS.91          	16.987         	9.556
MS.92          	16.952         	9.563
MS.93          	16.917         	9.584
MS.94          	16.885         	9.604
MS.95          	16.85          	9.536
MS.96          	16.817         	9.618
MS.97          	16.782         	9.537
MS.98          	16.75          	9.514
MS.99          	16.717         	9.609
MS.100         	16.682         	9.496
MS.101         	16.65          	9.602
MS.102         	16.618         	9.606
MS.103         	16.583         	9.617
MS.104         	16.55          	9.623
MS.105         	16.517         	9.556
MS.106         	16.485         	9.55
MS.107         	16.452         	9.655
MS.108         	16.417         	9.564
MS.109         	16.385         	9.666
MS.110         	16.352         	9.546
MS.111         	16.32          	9.202
MS.112         	16.288         	9.594
MS.113         	16.255         	9.551
MS.114         	16.222         	9.503
MS.115         	16.19          	9.446
MS.116         	16.157         	9.114
MS.117         	16.125         	9.432
MS.118         	16.092         	9.489
MS.119         	16.062         	8.842
MS.120         	16.03          	9.498
MS.121         	15.997         	9.169
MS.122         	15.965         	9.071
MS.123         	15.932         	9.241
MS.124         	15.902         	9.501
MS.125         	15.87          	8.99
MS.126         	15.837         	8.972
MS.127         	15.807         	8.801
MS.128         	15.775         	9.447
MS.129         	15.742         	8.932
MS.130         	15.712         	8.857
MS.131         	15.68          	8.818
MS.132         	15.65          	8.475
MS.133         	15.617         	8.845
MS.134         	15.587         	8.613
MS.135         	15.555         	8.787
MS.136         	15.525         	8.353
MS.137         	15.492         	8.875
MS.138         	15.462         	8.232
MS.139         	15.432         	7.982
MS.140         	15.4           	9.012
MS.141         	15.37          	8.163
MS.142         	15.34          	8.933
MS.143         	15.307         	8.351
MS.144         	15.277         	8.304
MS.145         	15.247         	8.571
MS.146         	15.217         	8.302
MS.147         	15.188         	8.407
MS.148         	15.155         	7.865
MS.149         	15.125         	7.67
MS.150         	15.095         	7.729
MS.151         	15.065         	7.71
MS.152         	15.035         	8.328
MS.153         	15.005         	7.689
MS.154         	14.975         	7.083
MS.155         	14.945         	7.526
MS.156         	14.915         	7.273
MS.157         	14.885         	6.902
MS.158         	14.855         	7.023
MS.159         	14.827         	7.306
MS.160         	14.797         	6.406
MS.161         	14.767         	6.772
MS.162         	14.737         	6.908
MS.163         	14.707         	6.619
MS.164         	14.68          	7.158
MS.165         	14.65          	6.674
MS.166         	14.62          	6.504
MS.167         	14.59          	6.835
MS.168         	14.562         	5.942
MS.169         	14.532         	6.581
MS.170         	14.505         	6.285
MS.171         	14.475         	5.809
MS.172         	14.445         	5.348
MS.173         	14.417         	5.977
MS.174         	14.387         	5.02
MS.175         	14.36          	5.935
MS.176         	14.33          	5.781
MS.177         	14.302         	5.016
MS.178         	14.273         	4.182
MS.179         	14.245         	4.893
MS.180         	14.217         	4.282
MS.181         	14.188         	4.969
MS.182         	14.16          	4.652
MS.183         	14.132         	4.457
MS.184         	14.102         	4.044
MS.185         	14.075         	4.161
MS.186         	14.047         	4.211
MS.187         	14.02          	4.37
MS.188         	13.99          	4.08
MS.189         	13.962         	3.87
MS.190         	13.935         	3.612
MS.191         	13.907         	3.818
MS.192         	13.88          	3.656
MS.193         	13.852         	3.591
MS.194         	13.825         	3.309
MS.195         	13.797         	3.48
MS.196         	13.77          	3.331
MS.197         	13.742         	3.429
MS.198         	13.715         	3.501
MS.199         	13.688         	3.484
MS.200         	13.66          	3.507
MS.201         	13.632         	3.416
MS.202         	13.605         	3.224
MS.203         	13.577         	3.156
MS.204         	13.55          	3.022
MS.205         	13.523         	2.86
MS.206         	13.495         	2.876
MS.207         	13.47          	3.043
MS.208         	13.443         	2.74
MS.209         	13.415         	2.894
MS.210         	13.387         	2.827
MS.211         	13.362         	3.014
MS.212         	13.335         	2.787
MS.213         	13.307         	2.782
MS.214         	13.282         	2.728
MS.215         	13.255         	2.8
MS.216         	13.23          	2.681
MS.217         	13.202         	2.614
MS.218         	13.175         	2.288
MS.219         	13.15          	2.473
MS.220         	13.122         	2.44
MS.221         	13.097         	2.397
MS.222         	13.07          	2.38
MS.223         	13.045         	1.935
MS.224         	13.02          	2.482
MS.225         	12.992         	1.925
MS.226         	12.967         	2.256
MS.227         	12.94          	2.291
MS.228         	12.915         	1.958
MS.229         	12.89          	2.059
MS.230         	12.862         	2.119
MS.231         	12.837         	1.709
MS.232         	12.812         	1.952
MS.233         	12.787         	1.593
MS.234         	12.76          	1.769
MS.235         	12.735         	1.818
MS.236         	12.71          	1.809
MS.237         	12.685         	1.882
MS.238         	12.66          	1.477
MS.239         	12.635         	1.541
MS.240         	12.61          	1.442
MS.241         	12.585         	1.672
MS.242         	12.557         	1.423
MS.243         	12.532         	1.353
MS.244         	12.507         	1.158
MS.245         	12.483         	1.188
MS.246         	12.457         	1.14
MS.247         	12.432         	1.205
MS.248         	12.41          	0.977
MS.249         	12.385         	1.085
MS.250         	12.36          	1.093
MS.251         	12.335         	1.04
MS.252         	12.31          	1.021
MS.253         	12.285         	1.003
MS.254         	12.26          	0.844
MS.255         	12.238         	1.061
MS.256         	12.212         	0.874
MS.257         	12.188         	0.876
MS.258         	12.162         	0.73
MS.259         	12.14          	0.812
MS.260         	12.115         	0.847
MS.261         	12.09          	0.719
MS.262         	12.065         	0.673
MS.263         	12.042         	0.739
MS.264         	12.017         	0.774
MS.265         	11.995         	0.665
MS.266         	11.97          	0.691
MS.267         	11.945         	0.656
MS.268         	11.922         	0.659
MS.269         	11.898         	0.78
MS.270         	11.875         	0.588
MS.271         	11.85          	0.702
MS.272         	11.827         	0.571
MS.273         	11.802         	0.676
MS.274         	11.78          	0.51
MS.275         	11.757         	0.532
MS.276         	11.733         	0.592
MS.277         	11.71          	0.664
MS.278         	11.685         	0.505
MS.279         	11.662         	0.475
MS.280         	11.64          	0.533
MS.281         	11.617         	0.527
MS.282         	11.592         	0.426
MS.283         	11.57          	0.465
MS.284         	11.547         	0.42
MS.285         	11.525         	0.38
MS.286         	11.5           	0.4
MS.287         	11.477         	0.391
MS.288         	11.455         	0.444
MS.289         	11.432         	0.358
MS.290         	11.41          	0.37
MS.291         	11.387         	0.438
MS.292         	11.363         	0.439
MS.293         	11.34          	0.433
MS.294         	11.318         	0.421
MS.295         	11.295         	0.38
MS.296         	11.273         	0.354
MS.297         	11.25          	0.386
MS.298         	11.227         	0.41
MS.299         	11.205         	0.404
MS.300         	11.182         	0.383
MS.301         	11.16          	0.353
MS.302         	11.137         	0.354
MS.303         	11.117         	0.385
MS.304         	11.095         	0.361
MS.305         	11.073         	0.355
MS.306         	11.05          	0.355
MS.307         	11.028         	0.36
MS.308         	11.005         	0.36
MS.309         	10.983         	0.389
MS.310         	10.962         	0.354
MS.311         	10.94          	0.359
MS.312         	10.917         	0.358
MS.313         	10.895         	0.377
MS.314         	10.875         	0.358
MS.315         	10.852         	0.359
MS.316         	10.83          	0.369
MS.317         	10.81          	0.359
MS.318         	10.787         	0.359
MS.319         	10.765         	0.359
MS.320         	10.745         	0.364
MS.321         	10.722         	0.364
MS.322         	10.702         	0.364
MS.323         	10.68          	0.358
MS.324         	10.66          	0.364
MS.325         	10.637         	0.363
MS.326         	10.617         	0.352
MS.327         	10.595         	0.364
MS.328         	10.575         	0.355
MS.329         	10.552         	0.363
MS.330         	10.532         	0.363
MS.331         	10.51          	0.364
MS.332         	10.49          	0.361
MS.333         	10.47          	0.361
MS.334         	10.448         	0.359
MS.335         	10.427         	0.358
MS.336         	10.407         	0.354
MS.337         	10.385         	0.359
MS.338         	10.365         	0.361
MS.339         	10.345         	0.359
MS.340         	10.323         	0.359
MS.341         	10.302         	0.361
MS.342         	10.282         	0.359
MS.343         	10.262         	0.363
MS.344         	10.24          	0.358
MS.345         	10.22          	0.363
MS.346         	10.2           	0.359
MS.347         	10.18          	0.359
MS.348         	10.16          	0.36
MS.349         	10.14          	0.36
MS.350         	10.12          	0.359
MS.351         	10.097         	0.36
MS.352         	10.077         	0.36
MS.353         	10.057         	0.359
MS.354         	10.037         	0.364
MS.355         	10.017         	0.361
MS.356         	9.997          	0.363
MS.357         	9.977          	0.36
MS.358         	9.957          	0.359
MS.359         	9.938          	0.36
MS.360         	9.917          	0.361
MS.361         	9.9            	0.36
MS.362         	9.88           	0.356
MS.363         	9.86           	0.36
MS.364         	9.84           	0.361
MS.365         	9.82           	0.354
MS.366         	9.8            	0.359
MS.367         	9.78           	0.361
MS.368         	9.76           	0.364
MS.369         	9.742          	0.36
MS.370         	9.722          	0.356
MS.371         	9.702          	0.359
MS.372         	9.682          	0.36
MS.373         	9.665          	0.355
MS.374         	9.645          	0.359
MS.375         	9.625          	0.359
MS.376         	9.605          	0.359
MS.377         	9.587          	0.359
MS.378         	9.568          	0.358
MS.379         	9.55           	0.36
MS.380         	9.53           	0.359
MS.381         	9.51           	0.36
MS.382         	9.492          	0.359
MS.383         	9.472          	0.359
MS.384         	9.452          	0.36
MS.385         	9.435          	0.363
MS.386         	9.415          	0.363
MS.387         	9.398          	0.366
MS.388         	9.377          	0.364
MS.389         	9.36           	0.363
MS.390         	9.34           	0.359
MS.391         	9.323          	0.36
MS.392         	9.302          	0.36
MS.393         	9.285          	0.363
MS.394         	9.267          	0.366
MS.395         	9.247          	0.36
MS.396         	9.23           	0.363
MS.397         	9.21           	0.359
MS.398         	9.193          	0.364
MS.399         	9.175          	0.361
MS.400         	9.155          	0.366
MS.401         	9.137          	0.364
MS.402         	9.12           	0.361
MS.403         	9.1            	0.36
MS.404         	9.082          	0.363
MS.405         	9.065          	0.365
MS.406         	9.047          	0.361
MS.407         	9.028          	0.371
MS.408         	9.01           	0.363
MS.409         	8.992          	0.365
MS.410         	8.975          	0.363
MS.411         	8.957          	0.366
MS.412         	8.94           	0.367
MS.413         	8.92           	0.367
MS.414         	8.903          	0.363
MS.415         	8.885          	0.367
MS.416         	8.867          	0.367
MS.417         	8.85           	0.365
MS.418         	8.832          	0.369
MS.419         	8.815          	0.365
MS.420         	8.797          	0.37
MS.421         	8.78           	0.371
MS.422         	8.762          	0.37
MS.423         	8.745          	0.372
MS.424         	8.727          	0.372
MS.425         	8.71           	0.369
MS.426         	8.693          	0.37
MS.427         	8.675          	0.376
MS.428         	8.658          	0.369
MS.429         	8.64           	0.372
MS.430         	8.622          	0.378
MS.431         	8.605          	0.369
MS.432         	8.587          	0.38
MS.433         	8.57           	0.371
MS.434         	8.555          	0.371
MS.435         	8.537          	0.374
MS.436         	8.52           	0.389
MS.437         	8.502          	0.38
MS.438         	8.485          	0.386
MS.439         	8.47           	0.385
MS.440         	8.452          	0.382
MS.441         	8.435          	0.391
MS.442         	8.417          	0.394
MS.443         	8.403          	0.389
MS.444         	8.385          	0.316
MS.445         	8.367          	0.392
MS.446         	8.35           	0.387
MS.447         	8.335          	0.383
MS.448         	8.318          	0.388
MS.449         	8.302          	0.302
MS.450         	8.285          	0.391
MS.451         	8.267          	0.321
MS.452         	8.252          	0.388
MS.453         	8.235          	0.32
MS.454         	8.217          	0.311
MS.455         	8.202          	0.32
MS.456         	8.185          	0.321
MS.457         	8.17           	0.321
MS.458         	8.153          	0.322
MS.459         	8.137          	0.323
MS.460         	8.12           	0.326
MS.461         	8.105          	0.316
MS.462         	8.087          	0.32
MS.463         	8.073          	0.327
MS.464         	8.055          	0.328
MS.465         	8.04           	0.325
MS.466         	8.025          	0.32
MS.467         	8.007          	0.325
MS.468         	7.992          	0.328
MS.469         	7.975          	0.33
MS.470         	7.96           	0.326
MS.471         	7.945          	0.327
MS.472         	7.927          	0.33
MS.473         	7.912          	0.33
MS.474         	7.898          	0.323
MS.475         	7.88           	0.333
MS.476         	7.865          	0.323
MS.477         	7.85           	0.332
MS.478         	7.832          	0.334
MS.479         	7.817          	0.327
MS.480         	7.802          	0.332
MS.481         	7.787          	0.334
MS.482         	7.77           	0.328
MS.483         	7.755          	0.334
MS.484         	7.74           	0.332
MS.485         	7.725          	0.333
MS.486         	7.71           	0.333
MS.487         	7.695          	0.327
MS.488         	7.677          	0.337
MS.489         	7.662          	0.336
MS.490         	7.648          	0.339
MS.491         	7.632          	0.336
MS.492         	7.617          	0.338
MS.493         	7.602          	0.337
MS.494         	7.587          	0.337
MS.495         	7.572          	0.237
MS.496         	7.557          	0.234
MS.497         	7.543          	0.107
MS.498         	7.527          	0.331
MS.499         	7.512          	0.24
MS.500         	7.497          	0.243
MS.501         	7.482          	0.297
MS.502         	7.467          	0.337
