File:              	C:\Qtrac\Data\Daniel M Sørensen\MScan multicentre study\Data from centres\Ankara\Processed data\HBC10114C.QZD
Name:              	TR.ANK.NC.7.1
Protocol:          	MSCAN-R2
Date:              	14/1/21
Start time:        	19:20:56
Age:               	35
Sex:               	M
Temperature:
S/R sites:         	TA
NC/disease:        	NC
Operator:          	HA
Comments:
M-SCAN DATA (5.2-0.8m)
Scanpts: 25, 30, 448, 455
Stim. (mA)     	Amp. (mV)
MS.1           	22             	6.812
MS.2           	22             	6.788
MS.3           	22             	6.77
MS.4           	22             	6.753
MS.5           	22             	6.707
MS.6           	22             	6.655
MS.7           	22             	6.703
MS.8           	22             	6.635
MS.9           	22             	6.699
MS.10          	22             	6.762
MS.11          	22             	6.764
MS.12          	22             	6.709
MS.13          	22             	6.713
MS.14          	22             	6.755
MS.15          	22             	6.667
MS.16          	22             	6.683
MS.17          	22             	6.697
MS.18          	22             	6.679
MS.19          	22             	6.689
MS.20          	22             	6.772
MS.21          	22             	6.693
MS.22          	22             	6.707
MS.23          	22             	6.717
MS.24          	21.955         	6.695
MS.25          	21.913         	6.729
MS.26          	21.868         	6.723
MS.27          	21.825         	6.707
MS.28          	21.78          	6.737
MS.29          	21.737         	6.737
MS.30          	21.695         	6.695
MS.31          	21.65          	6.689
MS.32          	21.608         	6.659
MS.33          	21.565         	6.695
MS.34          	21.522         	6.735
MS.35          	21.477         	6.683
MS.36          	21.435         	6.651
MS.37          	21.392         	6.699
MS.38          	21.35          	6.665
MS.39          	21.307         	6.679
MS.40          	21.265         	6.711
MS.41          	21.222         	6.681
MS.42          	21.18          	6.643
MS.43          	21.137         	6.677
MS.44          	21.095         	6.673
MS.45          	21.052         	6.649
MS.46          	21.01          	6.673
MS.47          	20.97          	6.653
MS.48          	20.927         	6.687
MS.49          	20.885         	6.631
MS.50          	20.842         	6.673
MS.51          	20.802         	6.681
MS.52          	20.76          	6.701
MS.53          	20.72          	6.598
MS.54          	20.677         	6.641
MS.55          	20.635         	6.659
MS.56          	20.595         	6.651
MS.57          	20.552         	6.621
MS.58          	20.512         	6.612
MS.59          	20.472         	6.651
MS.60          	20.43          	6.48
MS.61          	20.39          	6.594
MS.62          	20.35          	6.58
MS.63          	20.307         	6.558
MS.64          	20.267         	6.534
MS.65          	20.227         	6.486
MS.66          	20.188         	6.494
MS.67          	20.147         	6.528
MS.68          	20.108         	6.478
MS.69          	20.067         	6.633
MS.70          	20.025         	6.504
MS.71          	19.985         	6.389
MS.72          	19.948         	6.514
MS.73          	19.907         	6.482
MS.74          	19.868         	6.564
MS.75          	19.827         	6.419
MS.76          	19.788         	6.449
MS.77          	19.747         	6.367
MS.78          	19.708         	6.361
MS.79          	19.67          	6.337
MS.80          	19.63          	6.324
MS.81          	19.59          	6.353
MS.82          	19.552         	6.401
MS.83          	19.512         	6.276
MS.84          	19.472         	6.268
MS.85          	19.435         	6.343
MS.86          	19.395         	6.294
MS.87          	19.358         	6.331
MS.88          	19.317         	6.27
MS.89          	19.28          	6.214
MS.90          	19.24          	6.262
MS.91          	19.202         	6.27
MS.92          	19.165         	6.19
MS.93          	19.125         	6.173
MS.94          	19.087         	6.173
MS.95          	19.05          	6.087
MS.96          	19.012         	6.079
MS.97          	18.972         	6.038
MS.98          	18.935         	6.014
MS.99          	18.897         	6.101
MS.100         	18.86          	6.147
MS.101         	18.823         	6.053
MS.102         	18.785         	5.972
MS.103         	18.747         	5.958
MS.104         	18.71          	5.914
MS.105         	18.672         	5.873
MS.106         	18.635         	6.018
MS.107         	18.597         	5.873
MS.108         	18.56          	5.924
MS.109         	18.522         	5.865
MS.110         	18.487         	5.916
MS.111         	18.45          	5.95
MS.112         	18.413         	5.891
MS.113         	18.375         	5.813
MS.114         	18.34          	5.825
MS.115         	18.302         	5.742
MS.116         	18.265         	5.628
MS.117         	18.23          	5.867
MS.118         	18.192         	5.688
MS.119         	18.157         	5.676
MS.120         	18.12          	5.589
MS.121         	18.085         	5.634
MS.122         	18.047         	5.579
MS.123         	18.012         	5.535
MS.124         	17.975         	5.446
MS.125         	17.94          	5.686
MS.126         	17.905         	5.43
MS.127         	17.868         	5.513
MS.128         	17.833         	5.442
MS.129         	17.797         	5.549
MS.130         	17.762         	5.295
MS.131         	17.725         	5.372
MS.132         	17.69          	5.34
MS.133         	17.655         	5.203
MS.134         	17.62          	5.442
MS.135         	17.585         	5.384
MS.136         	17.55          	5.237
MS.137         	17.515         	5.231
MS.138         	17.48          	5.162
MS.139         	17.445         	5.213
MS.140         	17.41          	5.428
MS.141         	17.375         	5.066
MS.142         	17.34          	4.967
MS.143         	17.305         	5.108
MS.144         	17.27          	5.054
MS.145         	17.237         	5.11
MS.146         	17.202         	4.959
MS.147         	17.167         	4.906
MS.148         	17.132         	4.981
MS.149         	17.1           	4.902
MS.150         	17.065         	5.011
MS.151         	17.03          	4.884
MS.152         	16.997         	4.852
MS.153         	16.962         	4.782
MS.154         	16.93          	4.886
MS.155         	16.895         	4.991
MS.156         	16.862         	4.637
MS.157         	16.827         	4.709
MS.158         	16.795         	4.657
MS.159         	16.76          	4.622
MS.160         	16.727         	4.695
MS.161         	16.695         	4.572
MS.162         	16.66          	4.681
MS.163         	16.628         	4.635
MS.164         	16.595         	4.643
MS.165         	16.56          	4.453
MS.166         	16.528         	4.518
MS.167         	16.495         	4.514
MS.168         	16.462         	4.592
MS.169         	16.43          	4.224
MS.170         	16.395         	4.455
MS.171         	16.362         	4.421
MS.172         	16.33          	4.125
MS.173         	16.297         	4.459
MS.174         	16.265         	4.302
MS.175         	16.233         	4.246
MS.176         	16.2           	4.085
MS.177         	16.167         	4.123
MS.178         	16.135         	3.833
MS.179         	16.102         	4.21
MS.180         	16.073         	4.101
MS.181         	16.04          	3.986
MS.182         	16.007         	3.724
MS.183         	15.975         	3.881
MS.184         	15.943         	3.825
MS.185         	15.912         	3.648
MS.186         	15.88          	3.766
MS.187         	15.847         	3.952
MS.188         	15.818         	3.813
MS.189         	15.785         	3.795
MS.190         	15.752         	3.793
MS.191         	15.722         	3.599
MS.192         	15.69          	3.583
MS.193         	15.66          	3.825
MS.194         	15.627         	3.611
MS.195         	15.597         	3.619
MS.196         	15.565         	3.464
MS.197         	15.535         	3.43
MS.198         	15.502         	3.501
MS.199         	15.472         	3.489
MS.200         	15.44          	3.366
MS.201         	15.41          	3.42
MS.202         	15.38          	3.44
MS.203         	15.35          	3.196
MS.204         	15.318         	3.414
MS.205         	15.287         	3.352
MS.206         	15.257         	3.144
MS.207         	15.227         	3.372
MS.208         	15.195         	3.251
MS.209         	15.165         	3.261
MS.210         	15.135         	3.186
MS.211         	15.105         	3.192
MS.212         	15.075         	2.975
MS.213         	15.045         	3.118
MS.214         	15.015         	3.074
MS.215         	14.985         	2.941
MS.216         	14.955         	2.917
MS.217         	14.925         	2.763
MS.218         	14.895         	2.937
MS.219         	14.865         	2.854
MS.220         	14.835         	2.935
MS.221         	14.805         	2.876
MS.222         	14.777         	2.864
MS.223         	14.747         	2.832
MS.224         	14.717         	2.701
MS.225         	14.688         	2.852
MS.226         	14.66          	2.884
MS.227         	14.63          	2.88
MS.228         	14.6           	2.709
MS.229         	14.57          	2.673
MS.230         	14.542         	2.483
MS.231         	14.512         	2.657
MS.232         	14.485         	2.63
MS.233         	14.455         	2.614
MS.234         	14.425         	2.506
MS.235         	14.398         	2.381
MS.236         	14.367         	2.485
MS.237         	14.34          	2.481
MS.238         	14.31          	2.258
MS.239         	14.282         	2.282
MS.240         	14.255         	2.226
MS.241         	14.225         	2.089
MS.242         	14.197         	2.143
MS.243         	14.17          	2.238
MS.244         	14.14          	2.276
MS.245         	14.112         	2.236
MS.246         	14.085         	2.077
MS.247         	14.055         	2.131
MS.248         	14.028         	2.173
MS.249         	14             	1.869
MS.250         	13.972         	1.956
MS.251         	13.945         	1.998
MS.252         	13.915         	1.926
MS.253         	13.887         	1.867
MS.254         	13.86          	2
MS.255         	13.832         	1.938
MS.256         	13.805         	1.956
MS.257         	13.778         	1.696
MS.258         	13.75          	1.746
MS.259         	13.722         	1.692
MS.260         	13.695         	1.718
MS.261         	13.667         	1.742
MS.262         	13.64          	1.787
MS.263         	13.612         	1.656
MS.264         	13.585         	1.67
MS.265         	13.56          	1.613
MS.266         	13.532         	1.567
MS.267         	13.505         	1.422
MS.268         	13.477         	1.414
MS.269         	13.45          	1.501
MS.270         	13.425         	1.523
MS.271         	13.398         	1.386
MS.272         	13.37          	1.448
MS.273         	13.342         	1.311
MS.274         	13.318         	1.428
MS.275         	13.29          	1.221
MS.276         	13.265         	1.198
MS.277         	13.237         	1.146
MS.278         	13.21          	1.245
MS.279         	13.185         	1.13
MS.280         	13.157         	1.09
MS.281         	13.132         	1.18
MS.282         	13.105         	1.168
MS.283         	13.08          	1.152
MS.284         	13.052         	1.053
MS.285         	13.028         	0.993
MS.286         	13             	0.933
MS.287         	12.975         	0.935
MS.288         	12.95          	0.987
MS.289         	12.922         	0.894
MS.290         	12.898         	0.882
MS.291         	12.872         	0.876
MS.292         	12.845         	0.832
MS.293         	12.82          	0.846
MS.294         	12.795         	0.804
MS.295         	12.77          	0.739
MS.296         	12.745         	0.832
MS.297         	12.717         	0.659
MS.298         	12.693         	0.683
MS.299         	12.667         	0.828
MS.300         	12.642         	0.765
MS.301         	12.617         	0.769
MS.302         	12.592         	0.653
MS.303         	12.568         	0.663
MS.304         	12.542         	0.612
MS.305         	12.517         	0.574
MS.306         	12.492         	0.622
MS.307         	12.467         	0.566
MS.308         	12.443         	0.556
MS.309         	12.417         	0.554
MS.310         	12.392         	0.538
MS.311         	12.367         	0.564
MS.312         	12.342         	0.489
MS.313         	12.318         	0.489
MS.314         	12.292         	0.483
MS.315         	12.267         	0.453
MS.316         	12.245         	0.522
MS.317         	12.22          	0.389
MS.318         	12.195         	0.479
MS.319         	12.17          	0.371
MS.320         	12.148         	0.369
MS.321         	12.122         	0.467
MS.322         	12.097         	0.417
MS.323         	12.075         	0.433
MS.324         	12.05          	0.433
MS.325         	12.025         	0.385
MS.326         	12.002         	0.35
MS.327         	11.977         	0.375
MS.328         	11.952         	0.397
MS.329         	11.93          	0.336
MS.330         	11.905         	0.338
MS.331         	11.882         	0.379
MS.332         	11.858         	0.34
MS.333         	11.835         	0.34
MS.334         	11.81          	0.334
MS.335         	11.787         	0.314
MS.336         	11.765         	0.32
MS.337         	11.74          	0.324
MS.338         	11.717         	0.3
MS.339         	11.693         	0.294
MS.340         	11.67          	0.224
MS.341         	11.648         	0.34
MS.342         	11.622         	0.296
MS.343         	11.6           	0.322
MS.344         	11.577         	0.286
MS.345         	11.555         	0.298
MS.346         	11.53          	0.282
MS.347         	11.507         	0.324
MS.348         	11.485         	0.266
MS.349         	11.462         	0.28
MS.350         	11.44          	0.306
MS.351         	11.417         	0.272
MS.352         	11.392         	0.26
MS.353         	11.37          	0.242
MS.354         	11.347         	0.3
MS.355         	11.325         	0.266
MS.356         	11.302         	0.25
MS.357         	11.28          	0.246
MS.358         	11.257         	0.298
MS.359         	11.235         	0.254
MS.360         	11.212         	0.258
MS.361         	11.19          	0.238
MS.362         	11.167         	0.161
MS.363         	11.145         	0.254
MS.364         	11.122         	0.24
MS.365         	11.1           	0.185
MS.366         	11.08          	0.183
MS.367         	11.057         	0.222
MS.368         	11.035         	0.189
MS.369         	11.012         	0.216
MS.370         	10.99          	0.183
MS.371         	10.967         	0.169
MS.372         	10.948         	0.165
MS.373         	10.925         	0.143
MS.374         	10.903         	0.185
MS.375         	10.882         	0.189
MS.376         	10.86          	0.145
MS.377         	10.837         	0.135
MS.378         	10.815         	0.141
MS.379         	10.795         	0.109
MS.380         	10.773         	0.149
MS.381         	10.752         	0.163
MS.382         	10.73          	0.169
MS.383         	10.707         	0.137
MS.384         	10.688         	0.133
MS.385         	10.665         	0.115
MS.386         	10.645         	0.159
MS.387         	10.622         	0.125
MS.388         	10.602         	0.143
MS.389         	10.58          	0.171
MS.390         	10.56          	0.125
MS.391         	10.537         	0.129
MS.392         	10.517         	0.123
MS.393         	10.497         	0.101
MS.394         	10.475         	0.095
MS.395         	10.455         	0.131
MS.396         	10.432         	0.119
MS.397         	10.412         	0.121
MS.398         	10.392         	0.125
MS.399         	10.372         	0.119
MS.400         	10.35          	0.119
MS.401         	10.33          	0.083
MS.402         	10.31          	0.103
MS.403         	10.287         	0.113
MS.404         	10.267         	0.089
MS.405         	10.247         	0.083
MS.406         	10.227         	0.117
MS.407         	10.207         	0.081
MS.408         	10.188         	0.081
MS.409         	10.165         	0.079
MS.410         	10.145         	0.081
MS.411         	10.125         	0.075
MS.412         	10.105         	0.081
MS.413         	10.085         	0.083
MS.414         	10.065         	0.089
MS.415         	10.045         	0.081
MS.416         	10.025         	0.081
MS.417         	10.005         	0.073
MS.418         	9.985          	0.091
MS.419         	9.965          	0.077
MS.420         	9.945          	0.068
MS.421         	9.925          	0.077
MS.422         	9.905          	0.075
MS.423         	9.885          	0.085
MS.424         	9.865          	0.087
MS.425         	9.845          	0.085
MS.426         	9.825          	0.079
MS.427         	9.807          	0.085
MS.428         	9.787          	0.079
MS.429         	9.767          	0.064
MS.430         	9.747          	0.07
MS.431         	9.727          	0.091
MS.432         	9.71           	0.073
MS.433         	9.69           	0.073
MS.434         	9.67           	0.077
MS.435         	9.65           	0.064
MS.436         	9.632          	0.083
MS.437         	9.613          	0.073
MS.438         	9.592          	0.064
MS.439         	9.575          	0.075
MS.440         	9.555          	0.081
MS.441         	9.535          	0.075
MS.442         	9.517          	0.077
MS.443         	9.497          	0.079
MS.444         	9.477          	0.073
MS.445         	9.46           	0.073
MS.446         	9.44           	0.066
MS.447         	9.422          	0.07
MS.448         	9.403          	0.066
MS.449         	9.385          	0.07
MS.450         	9.365          	0.073
MS.451         	9.347          	0.07
MS.452         	9.327          	0.07
MS.453         	9.31           	0.079
MS.454         	9.29           	0.075
MS.455         	9.273          	0.064
MS.456         	9.255          	0.064
MS.457         	9.235          	0.073
MS.458         	9.217          	0.07
MS.459         	9.198          	0.07
MS.460         	9.18           	0.073
MS.461         	9.162          	0.075
MS.462         	9.142          	0.073
MS.463         	9.125          	0.077
MS.464         	9.108          	0.068
MS.465         	9.09           	0.075
MS.466         	9.07           	0.07
MS.467         	9.052          	0.073
MS.468         	9.035          	0.07
MS.469         	9.017          	0.073
MS.470         	8.997          	0.068
MS.471         	8.98           	0.073
MS.472         	8.962          	0.07
MS.473         	8.945          	0.07
MS.474         	8.927          	0.068
MS.475         	8.91           	0.07
MS.476         	8.89           	0.073
MS.477         	8.872          	0.077
MS.478         	8.855          	0.07
MS.479         	8.837          	0.07
DERIVED EXCITABILITY VARIABLES
Program = QTracP 3/4/2020
Threshold method = 6 (optimised for CAP, using data for present condition only)
SR method = 1 (using actual data values)
6.                 	0.000               	Peak response\(mV)
17.                	35                  	Age (years)
18.                	1                   	Sex (M=1, F=2)

EXTRA VARIABLES

MScPeak(mV) = 6.65
MScS5(mA) = 11.7
MScS50(mA) = 15.29
MScS95(mA) = 19.42
MScNSteps = 0
MScSteps(%) = 0.0
MScStepMax(%) = 0.0
MScD50 = 56
MScSlope = 4.35
MSFPeakAmp(mV) = 6.65
MSFNUnits = 150
MSFMeanUnitAmp(uV) = 44.3
MSFHuntTime(m) = 2.23
MSFError(%) = 1.91
MSFNLarge = 46.75
MSFMedianAmp(%) = 0.591
MSFMedianAmp(mV) = 0.0393
MSFHalfAmpAmp(%) = 0.756
MSFHalfAmpAmp(mV) = 0.0503
MSFLargestAmp(%) = 2.23
MSFLargestAmp(mV) = 0.149
MSFMeanRS(%) = 2
MSFOpts = 10106121
MScDuration(min) = 4.4
