File:              	C:\Qtrac\Data\Daniel M Sørensen\MScan multicentre study\Data from centres\Ankara\Processed data\HCAC10104B.QZD
Name:              	TR.ANK.NC.6.1
Protocol:          	MSCAN-R2
Date:              	4/1/21
Start time:        	12:52:56
Age:               	30
Sex:               	M
Temperature:
S/R sites:         	APB
NC/disease:        	NC
Operator:          	EB
Comments:
M-SCAN DATA (6.7-0.8m)
Scanpts: 17, 22, 613, 635
Stim. (mA)     	Amp. (mV)
MS.1           	27             	8.113
MS.2           	27             	8.173
MS.3           	27             	8.18
MS.4           	27             	8.165
MS.5           	27             	8.119
MS.6           	27             	8.177
MS.7           	27             	8.163
MS.8           	27             	8.143
MS.9           	27             	8.173
MS.10          	27             	8.182
MS.11          	27             	8.206
MS.12          	27             	8.218
MS.13          	27             	8.234
MS.14          	27             	8.22
MS.15          	27             	8.153
MS.16          	27             	8.24
MS.17          	27             	8.228
MS.18          	27             	8.23
MS.19          	27             	8.294
MS.20          	27             	8.246
MS.21          	27             	8.314
MS.22          	27             	8.325
MS.23          	27             	8.274
MS.24          	26.945         	8.232
MS.25          	26.892         	8.353
MS.26          	26.837         	8.073
MS.27          	26.785         	8.302
MS.28          	26.733         	8.23
MS.29          	26.677         	8.151
MS.30          	26.625         	7.94
MS.31          	26.573         	8.149
MS.32          	26.517         	8.063
MS.33          	26.465         	8.141
MS.34          	26.412         	7.918
MS.35          	26.36          	8.159
MS.36          	26.307         	8.103
MS.37          	26.255         	8.099
MS.38          	26.202         	7.861
MS.39          	26.15          	7.845
MS.40          	26.097         	7.898
MS.41          	26.045         	7.642
MS.42          	25.993         	8.008
MS.43          	25.942         	7.821
MS.44          	25.89          	7.771
MS.45          	25.837         	7.368
MS.46          	25.785         	7.485
MS.47          	25.735         	7.916
MS.48          	25.682         	7.698
MS.49          	25.632         	7.505
MS.50          	25.58          	7.682
MS.51          	25.53          	7.231
MS.52          	25.477         	7.225
MS.53          	25.427         	7.553
MS.54          	25.377         	7.668
MS.55          	25.325         	7.475
MS.56          	25.275         	7.319
MS.57          	25.225         	7.366
MS.58          	25.175         	7.074
MS.59          	25.125         	7.154
MS.60          	25.075         	7.078
MS.61          	25.025         	6.989
MS.62          	24.975         	7.003
MS.63          	24.925         	6.878
MS.64          	24.875         	6.989
MS.65          	24.825         	6.661
MS.66          	24.775         	6.85
MS.67          	24.725         	6.8
MS.68          	24.675         	6.862
MS.69          	24.627         	6.82
MS.70          	24.577         	6.753
MS.71          	24.528         	6.59
MS.72          	24.48          	6.882
MS.73          	24.43          	6.683
MS.74          	24.382         	6.766
MS.75          	24.332         	6.669
MS.76          	24.285         	6.484
MS.77          	24.235         	6.588
MS.78          	24.188         	6.641
MS.79          	24.14          	6.353
MS.80          	24.09          	6.405
MS.81          	24.042         	6.498
MS.82          	23.995         	6.608
MS.83          	23.948         	6.143
MS.84          	23.9           	6.286
MS.85          	23.852         	6.471
MS.86          	23.802         	5.791
MS.87          	23.755         	6.159
MS.88          	23.707         	6.3
MS.89          	23.66          	6.018
MS.90          	23.615         	6.129
MS.91          	23.567         	5.904
MS.92          	23.52          	5.948
MS.93          	23.472         	5.676
MS.94          	23.425         	5.557
MS.95          	23.38          	5.642
MS.96          	23.332         	5.662
MS.97          	23.285         	5.7
MS.98          	23.24          	5.219
MS.99          	23.192         	5.468
MS.100         	23.147         	5.281
MS.101         	23.1           	5.529
MS.102         	23.055         	5.442
MS.103         	23.007         	5.597
MS.104         	22.962         	5.184
MS.105         	22.915         	5.148
MS.106         	22.87          	4.973
MS.107         	22.825         	5.313
MS.108         	22.78          	4.999
MS.109         	22.733         	4.87
MS.110         	22.688         	4.848
MS.111         	22.642         	5.039
MS.112         	22.597         	4.884
MS.113         	22.552         	4.953
MS.114         	22.507         	4.564
MS.115         	22.462         	5.041
MS.116         	22.417         	4.276
MS.117         	22.372         	4.379
MS.118         	22.327         	4.451
MS.119         	22.282         	4.496
MS.120         	22.24          	4.028
MS.121         	22.195         	4.141
MS.122         	22.15          	4.165
MS.123         	22.105         	3.922
MS.124         	22.062         	4.165
MS.125         	22.017         	3.638
MS.126         	21.972         	4.131
MS.127         	21.93          	3.853
MS.128         	21.885         	3.871
MS.129         	21.842         	3.474
MS.130         	21.797         	3.424
MS.131         	21.755         	3.406
MS.132         	21.712         	3.511
MS.133         	21.667         	3.12
MS.134         	21.625         	3.321
MS.135         	21.583         	3.523
MS.136         	21.538         	2.917
MS.137         	21.495         	3.049
MS.138         	21.452         	3.281
MS.139         	21.41          	3.215
MS.140         	21.368         	3.297
MS.141         	21.325         	3.207
MS.142         	21.282         	2.81
MS.143         	21.24          	2.973
MS.144         	21.198         	2.759
MS.145         	21.155         	2.82
MS.146         	21.112         	2.713
MS.147         	21.07          	2.608
MS.148         	21.028         	2.574
MS.149         	20.985         	2.755
MS.150         	20.942         	2.643
MS.151         	20.903         	2.524
MS.152         	20.86          	2.598
MS.153         	20.817         	2.405
MS.154         	20.778         	2.558
MS.155         	20.735         	2.437
MS.156         	20.695         	2.53
MS.157         	20.653         	2.296
MS.158         	20.61          	2.449
MS.159         	20.57          	2.369
MS.160         	20.53          	2.222
MS.161         	20.487         	2.351
MS.162         	20.448         	2.232
MS.163         	20.405         	2.278
MS.164         	20.365         	2.107
MS.165         	20.325         	2.336
MS.166         	20.285         	2.083
MS.167         	20.243         	2.185
MS.168         	20.202         	1.998
MS.169         	20.163         	1.915
MS.170         	20.122         	1.932
MS.171         	20.083         	2.008
MS.172         	20.042         	2.018
MS.173         	20.002         	2.002
MS.174         	19.962         	1.984
MS.175         	19.922         	1.96
MS.176         	19.882         	1.964
MS.177         	19.842         	1.917
MS.178         	19.802         	1.827
MS.179         	19.762         	1.831
MS.180         	19.725         	1.72
MS.181         	19.685         	1.672
MS.182         	19.645         	1.903
MS.183         	19.605         	1.899
MS.184         	19.567         	1.803
MS.185         	19.528         	1.843
MS.186         	19.487         	1.561
MS.187         	19.45          	1.656
MS.188         	19.41          	1.557
MS.189         	19.372         	1.585
MS.190         	19.333         	1.567
MS.191         	19.295         	1.509
MS.192         	19.257         	1.619
MS.193         	19.217         	1.597
MS.194         	19.18          	1.559
MS.195         	19.14          	1.339
MS.196         	19.102         	1.509
MS.197         	19.065         	1.255
MS.198         	19.028         	1.313
MS.199         	18.987         	1.311
MS.200         	18.95          	1.297
MS.201         	18.913         	1.231
MS.202         	18.875         	1.221
MS.203         	18.837         	1.372
MS.204         	18.8           	1.287
MS.205         	18.762         	1.186
MS.206         	18.725         	1.192
MS.207         	18.688         	1.146
MS.208         	18.65          	1.176
MS.209         	18.612         	1.166
MS.210         	18.575         	1.063
MS.211         	18.538         	1.124
MS.212         	18.5           	1.072
MS.213         	18.465         	0.989
MS.214         	18.427         	1.094
MS.215         	18.39          	1.057
MS.216         	18.355         	1.049
MS.217         	18.317         	1.251
MS.218         	18.28          	1.1
MS.219         	18.245         	0.939
MS.220         	18.208         	0.85
MS.221         	18.17          	0.971
MS.222         	18.135         	0.88
MS.223         	18.097         	0.866
MS.224         	18.062         	0.898
MS.225         	18.028         	0.914
MS.226         	17.99          	0.908
MS.227         	17.955         	0.715
MS.228         	17.917         	0.769
MS.229         	17.882         	0.81
MS.230         	17.847         	0.832
MS.231         	17.812         	0.737
MS.232         	17.775         	0.721
MS.233         	17.74          	0.862
MS.234         	17.705         	0.649
MS.235         	17.67          	0.634
MS.236         	17.635         	0.864
MS.237         	17.6           	0.765
MS.238         	17.562         	0.695
MS.239         	17.528         	0.675
MS.240         	17.493         	0.675
MS.241         	17.458         	0.727
MS.242         	17.425         	0.687
MS.243         	17.39          	0.524
MS.244         	17.355         	0.558
MS.245         	17.32          	0.51
MS.246         	17.285         	0.641
MS.247         	17.25          	0.566
MS.248         	17.215         	0.502
MS.249         	17.182         	0.532
MS.250         	17.147         	0.497
MS.251         	17.112         	0.485
MS.252         	17.08          	0.506
MS.253         	17.045         	0.471
MS.254         	17.01          	0.479
MS.255         	16.977         	0.477
MS.256         	16.942         	0.475
MS.257         	16.91          	0.497
MS.258         	16.875         	0.471
MS.259         	16.842         	0.506
MS.260         	16.807         	0.483
MS.261         	16.775         	0.449
MS.262         	16.74          	0.437
MS.263         	16.708         	0.467
MS.264         	16.675         	0.473
MS.265         	16.64          	0.443
MS.266         	16.608         	0.491
MS.267         	16.575         	0.431
MS.268         	16.54          	0.453
MS.269         	16.507         	0.461
MS.270         	16.475         	0.469
MS.271         	16.442         	0.435
MS.272         	16.41          	0.467
MS.273         	16.378         	0.451
MS.274         	16.342         	0.455
MS.275         	16.31          	0.453
MS.276         	16.278         	0.427
MS.277         	16.245         	0.431
MS.278         	16.212         	0.417
MS.279         	16.18          	0.427
MS.280         	16.147         	0.423
MS.281         	16.118         	0.425
MS.282         	16.085         	0.427
MS.283         	16.052         	0.407
MS.284         	16.02          	0.407
MS.285         	15.987         	0.443
MS.286         	15.955         	0.419
MS.287         	15.925         	0.397
MS.288         	15.892         	0.401
MS.289         	15.86          	0.405
MS.290         	15.83          	0.381
MS.291         	15.797         	0.423
MS.292         	15.765         	0.395
MS.293         	15.735         	0.419
MS.294         	15.702         	0.415
MS.295         	15.672         	0.411
MS.296         	15.64          	0.383
MS.297         	15.61          	0.407
MS.298         	15.577         	0.395
MS.299         	15.547         	0.387
MS.300         	15.515         	0.401
MS.301         	15.485         	0.379
MS.302         	15.452         	0.387
MS.303         	15.422         	0.397
MS.304         	15.392         	0.387
MS.305         	15.36          	0.401
MS.306         	15.33          	0.377
MS.307         	15.3           	0.379
MS.308         	15.27          	0.375
MS.309         	15.237         	0.385
MS.310         	15.207         	0.381
MS.311         	15.177         	0.383
MS.312         	15.148         	0.381
MS.313         	15.117         	0.383
MS.314         	15.087         	0.377
MS.315         	15.057         	0.381
MS.316         	15.027         	0.389
MS.317         	14.997         	0.371
MS.318         	14.967         	0.379
MS.319         	14.938         	0.381
MS.320         	14.907         	0.379
MS.321         	14.877         	0.385
MS.322         	14.847         	0.365
MS.323         	14.818         	0.379
MS.324         	14.787         	0.371
MS.325         	14.76          	0.373
MS.326         	14.73          	0.381
MS.327         	14.7           	0.373
MS.328         	14.67          	0.375
MS.329         	14.64          	0.375
MS.330         	14.612         	0.379
MS.331         	14.582         	0.373
MS.332         	14.552         	0.375
MS.333         	14.525         	0.381
MS.334         	14.495         	0.379
MS.335         	14.467         	0.371
MS.336         	14.438         	0.365
MS.337         	14.41          	0.383
MS.338         	14.38          	0.373
MS.339         	14.352         	0.375
MS.340         	14.322         	0.379
MS.341         	14.295         	0.379
MS.342         	14.265         	0.385
MS.343         	14.237         	0.383
MS.344         	14.207         	0.377
MS.345         	14.18          	0.375
MS.346         	14.153         	0.377
MS.347         	14.122         	0.371
MS.348         	14.095         	0.377
MS.349         	14.068         	0.367
MS.350         	14.04          	0.359
MS.351         	14.01          	0.369
MS.352         	13.983         	0.371
MS.353         	13.955         	0.369
MS.354         	13.927         	0.373
MS.355         	13.9           	0.145
MS.356         	13.872         	0.145
MS.357         	13.845         	0.369
MS.358         	13.815         	0.143
MS.359         	13.787         	0.141
MS.360         	13.76          	0.367
MS.361         	13.733         	0.141
MS.362         	13.705         	0.137
MS.363         	13.677         	0.133
MS.364         	13.653         	0.367
MS.365         	13.625         	0.141
MS.366         	13.597         	0.352
MS.367         	13.57          	0.139
MS.368         	13.542         	0.129
MS.369         	13.515         	0.125
MS.370         	13.487         	0.135
MS.371         	13.462         	0.35
MS.372         	13.435         	0.137
MS.373         	13.407         	0.127
MS.374         	13.38          	0.129
MS.375         	13.355         	0.137
MS.376         	13.327         	0.129
MS.377         	13.3           	0.127
MS.378         	13.275         	0.133
MS.379         	13.247         	0.131
MS.380         	13.222         	0.141
MS.381         	13.195         	0.139
MS.382         	13.167         	0.137
MS.383         	13.142         	0.135
MS.384         	13.115         	0.141
MS.385         	13.09          	0.141
MS.386         	13.062         	0.137
MS.387         	13.037         	0.139
MS.388         	13.012         	0.135
MS.389         	12.985         	0.143
MS.390         	12.96          	0.141
MS.391         	12.932         	0.141
MS.392         	12.907         	0.145
MS.393         	12.882         	0.149
MS.394         	12.858         	0.149
MS.395         	12.83          	0.153
MS.396         	12.805         	0.143
MS.397         	12.78          	0.147
MS.398         	12.755         	0.137
MS.399         	12.727         	0.139
MS.400         	12.702         	0.137
MS.401         	12.677         	0.141
MS.402         	12.653         	0.143
MS.403         	12.627         	0.147
MS.404         	12.602         	0.137
MS.405         	12.577         	0.141
MS.406         	12.552         	0.141
MS.407         	12.528         	0.139
MS.408         	12.502         	0.137
MS.409         	12.477         	0.143
MS.410         	12.452         	0.139
MS.411         	12.427         	0.143
MS.412         	12.403         	0.141
MS.413         	12.377         	0.135
MS.414         	12.352         	0.143
MS.415         	12.327         	0.143
MS.416         	12.302         	0.141
MS.417         	12.278         	0.133
MS.418         	12.255         	0.135
MS.419         	12.23          	0.139
MS.420         	12.205         	0.145
MS.421         	12.18          	0.141
MS.422         	12.155         	0.141
MS.423         	12.132         	0.133
MS.424         	12.108         	0.143
MS.425         	12.082         	0.141
MS.426         	12.06          	0.147
MS.427         	12.035         	0.139
MS.428         	12.01          	0.139
MS.429         	11.988         	0.141
MS.430         	11.962         	0.143
MS.431         	11.94          	0.143
MS.432         	11.915         	0.145
MS.433         	11.892         	0.145
MS.434         	11.867         	0.137
MS.435         	11.845         	0.141
MS.436         	11.82          	0.139
MS.437         	11.797         	0.137
MS.438         	11.773         	0.141
MS.439         	11.75          	0.141
MS.440         	11.727         	0.139
MS.441         	11.702         	0.145
MS.442         	11.68          	0.139
MS.443         	11.655         	0.137
MS.444         	11.632         	0.139
MS.445         	11.61          	0.145
MS.446         	11.587         	0.139
MS.447         	11.562         	0.145
MS.448         	11.54          	0.139
MS.449         	11.517         	0.149
MS.450         	11.495         	0.143
MS.451         	11.47          	0.139
MS.452         	11.447         	0.141
MS.453         	11.425         	0.141
MS.454         	11.403         	0.145
MS.455         	11.38          	0.145
MS.456         	11.358         	0.137
MS.457         	11.335         	0.141
MS.458         	11.312         	0.143
MS.459         	11.29          	0.145
MS.460         	11.267         	0.145
MS.461         	11.245         	0.141
MS.462         	11.222         	0.137
MS.463         	11.2           	0.141
MS.464         	11.177         	0.147
MS.465         	11.155         	0.141
MS.466         	11.132         	0.143
MS.467         	11.11          	0.147
MS.468         	11.087         	0.139
MS.469         	11.065         	0.145
MS.470         	11.042         	0.143
MS.471         	11.023         	0.139
MS.472         	11             	0.139
MS.473         	10.977         	0.145
MS.474         	10.955         	0.145
MS.475         	10.932         	0.135
MS.476         	10.912         	0.141
MS.477         	10.89          	0.141
MS.478         	10.867         	0.143
MS.479         	10.847         	0.143
MS.480         	10.825         	0.147
MS.481         	10.802         	0.137
MS.482         	10.782         	0.137
MS.483         	10.76          	0.137
MS.484         	10.738         	0.143
MS.485         	10.717         	0.145
MS.486         	10.695         	0.141
MS.487         	10.675         	0.137
MS.488         	10.653         	0.141
MS.489         	10.632         	0.143
MS.490         	10.61          	0.141
MS.491         	10.59          	0.143
MS.492         	10.568         	0.139
MS.493         	10.547         	0.149
MS.494         	10.525         	0.143
MS.495         	10.505         	0.143
MS.496         	10.485         	0.137
MS.497         	10.462         	0.141
MS.498         	10.443         	0.139
MS.499         	10.42          	0.141
MS.500         	10.4           	0.139
MS.501         	10.38          	0.141
