File:              	C:\Qtrac\Data\Daniel M Sørensen\MScan multicentre study\Data from centres\Ankara\Processed data\HCAC10104D.QZD
Name:              	TR.ANK.NC.6.1
Protocol:          	MSCAN-R2
Date:              	4/1/21
Start time:        	13:19:53
Age:               	30
Sex:               	M
Temperature:
S/R sites:         	TA
NC/disease:        	NC
Operator:          	EB
Comments:
M-SCAN DATA (4.8-1.4m)
Scanpts: 11, 15, 377, 381
Stim. (mA)     	Amp. (mV)
MS.1           	30             	5.672
MS.2           	30             	5.68
MS.3           	30             	5.7
MS.4           	30             	5.704
MS.5           	30             	5.632
MS.6           	30             	5.65
MS.7           	30             	5.603
MS.8           	30             	5.553
MS.9           	30             	5.65
MS.10          	30             	5.585
MS.11          	30             	5.65
MS.12          	30             	5.611
MS.13          	30             	5.597
MS.14          	30             	5.573
MS.15          	30             	5.64
MS.16          	30             	5.583
MS.17          	30             	5.62
MS.18          	30             	5.626
MS.19          	30             	5.62
MS.20          	30             	5.607
MS.21          	30             	5.565
MS.22          	30             	5.541
MS.23          	29.88          	5.559
MS.24          	29.82          	5.561
MS.25          	29.76          	5.501
MS.26          	29.702         	5.462
MS.27          	29.642         	5.47
MS.28          	29.582         	5.404
MS.29          	29.522         	5.485
MS.30          	29.465         	5.466
MS.31          	29.405         	5.394
MS.32          	29.347         	5.39
MS.33          	29.287         	5.386
MS.34          	29.23          	5.4
MS.35          	29.172         	5.275
MS.36          	29.112         	5.251
MS.37          	29.055         	5.277
MS.38          	28.997         	5.211
MS.39          	28.94          	5.213
MS.40          	28.882         	5.207
MS.41          	28.823         	5.142
MS.42          	28.765         	5.19
MS.43          	28.707         	5.168
MS.44          	28.65          	5.116
MS.45          	28.595         	5.126
MS.46          	28.537         	5.066
MS.47          	28.48          	5.06
MS.48          	28.422         	5.054
MS.49          	28.365         	5.029
MS.50          	28.31          	5.052
MS.51          	28.252         	4.971
MS.52          	28.198         	5.118
MS.53          	28.14          	4.943
MS.54          	28.085         	4.929
MS.55          	28.028         	4.953
MS.56          	27.972         	4.935
MS.57          	27.915         	4.824
MS.58          	27.86          	4.945
MS.59          	27.805         	4.925
MS.60          	27.75          	4.703
MS.61          	27.692         	4.874
MS.62          	27.637         	4.763
MS.63          	27.582         	4.772
MS.64          	27.528         	4.824
MS.65          	27.472         	4.697
MS.66          	27.417         	4.755
MS.67          	27.362         	4.737
MS.68          	27.307         	4.689
MS.69          	27.255         	4.473
MS.70          	27.2           	4.552
MS.71          	27.145         	4.584
MS.72          	27.09          	4.51
MS.73          	27.037         	4.58
MS.74          	26.983         	4.49
MS.75          	26.927         	4.54
MS.76          	26.875         	4.429
MS.77          	26.82          	4.477
MS.78          	26.767         	4.504
MS.79          	26.715         	4.349
MS.80          	26.66          	4.343
MS.81          	26.608         	4.365
MS.82          	26.555         	4.284
MS.83          	26.502         	4.302
MS.84          	26.448         	4.2
MS.85          	26.395         	4.204
MS.86          	26.342         	4.157
MS.87          	26.29          	4.105
MS.88          	26.237         	4.093
MS.89          	26.185         	4.016
MS.90          	26.132         	4.075
MS.91          	26.08          	4.004
MS.92          	26.028         	4.105
MS.93          	25.977         	3.982
MS.94          	25.925         	4.008
MS.95          	25.872         	3.96
MS.96          	25.82          	3.94
MS.97          	25.77          	3.857
MS.98          	25.717         	3.972
MS.99          	25.667         	3.861
MS.100         	25.615         	3.911
MS.101         	25.565         	3.853
MS.102         	25.512         	3.775
MS.103         	25.462         	3.829
MS.104         	25.413         	3.686
MS.105         	25.36          	3.74
MS.106         	25.31          	3.748
MS.107         	25.26          	3.603
MS.108         	25.21          	3.69
MS.109         	25.157         	3.581
MS.110         	25.108         	3.656
MS.111         	25.057         	3.376
MS.112         	25.007         	3.491
MS.113         	24.957         	3.376
MS.114         	24.907         	3.464
MS.115         	24.858         	3.539
MS.116         	24.807         	3.386
MS.117         	24.76          	3.45
MS.118         	24.71          	3.509
MS.119         	24.66          	3.384
MS.120         	24.61          	3.281
MS.121         	24.562         	3.354
MS.122         	24.512         	3.295
MS.123         	24.465         	3.295
MS.124         	24.415         	3.281
MS.125         	24.365         	3.164
MS.126         	24.317         	3.182
MS.127         	24.27          	3.245
MS.128         	24.22          	3.13
MS.129         	24.172         	3.203
MS.130         	24.122         	3.003
MS.131         	24.075         	3.005
MS.132         	24.028         	3.124
MS.133         	23.98          	3.06
MS.134         	23.932         	2.884
MS.135         	23.882         	2.981
MS.136         	23.835         	3.003
MS.137         	23.788         	2.925
MS.138         	23.74          	2.896
MS.139         	23.692         	2.921
MS.140         	23.645         	2.923
MS.141         	23.597         	2.921
MS.142         	23.552         	2.723
MS.143         	23.505         	2.773
MS.144         	23.457         	2.713
MS.145         	23.41          	2.665
MS.146         	23.365         	2.804
MS.147         	23.317         	2.624
MS.148         	23.27          	2.643
MS.149         	23.225         	2.558
MS.150         	23.177         	2.687
MS.151         	23.132         	2.544
MS.152         	23.085         	2.584
MS.153         	23.04          	2.586
MS.154         	22.993         	2.485
MS.155         	22.948         	2.423
MS.156         	22.903         	2.423
MS.157         	22.855         	2.473
MS.158         	22.81          	2.427
MS.159         	22.765         	2.381
MS.160         	22.72          	2.425
MS.161         	22.672         	2.381
MS.162         	22.627         	2.316
MS.163         	22.582         	2.361
MS.164         	22.538         	2.312
MS.165         	22.493         	2.228
MS.166         	22.448         	2.111
MS.167         	22.403         	2.25
MS.168         	22.358         	2.183
MS.169         	22.312         	1.976
MS.170         	22.27          	2.145
MS.171         	22.225         	2.004
MS.172         	22.18          	2.119
MS.173         	22.135         	1.94
MS.174         	22.092         	1.996
MS.175         	22.047         	2.004
MS.176         	22.002         	1.847
MS.177         	21.96          	1.873
MS.178         	21.915         	2.024
MS.179         	21.872         	2.008
MS.180         	21.827         	1.799
MS.181         	21.785         	1.65
MS.182         	21.74          	1.946
MS.183         	21.698         	1.625
MS.184         	21.655         	1.833
MS.185         	21.61          	1.565
MS.186         	21.567         	1.547
MS.187         	21.525         	1.531
MS.188         	21.483         	1.595
MS.189         	21.438         	1.488
MS.190         	21.395         	1.551
MS.191         	21.352         	1.42
MS.192         	21.31          	1.394
MS.193         	21.267         	1.287
MS.194         	21.225         	1.408
MS.195         	21.182         	1.392
MS.196         	21.14          	1.237
MS.197         	21.097         	1.275
MS.198         	21.055         	1.291
MS.199         	21.015         	1.237
MS.200         	20.972         	1.184
MS.201         	20.93          	1.281
MS.202         	20.887         	1.174
MS.203         	20.847         	1.088
MS.204         	20.805         	1.219
MS.205         	20.762         	1.088
MS.206         	20.722         	1.136
MS.207         	20.68          	1.001
MS.208         	20.64          	1.124
MS.209         	20.597         	1.08
MS.210         	20.557         	1.027
MS.211         	20.515         	1.031
MS.212         	20.475         	0.997
MS.213         	20.435         	0.951
MS.214         	20.392         	0.868
MS.215         	20.352         	0.82
MS.216         	20.312         	0.924
MS.217         	20.27          	0.959
MS.218         	20.23          	0.999
MS.219         	20.19          	0.88
MS.220         	20.15          	0.86
MS.221         	20.11          	0.767
MS.222         	20.07          	0.854
MS.223         	20.03          	0.651
MS.224         	19.99          	0.719
MS.225         	19.95          	0.761
MS.226         	19.91          	0.651
MS.227         	19.87          	0.618
MS.228         	19.83          	0.596
MS.229         	19.79          	0.727
MS.230         	19.75          	0.63
MS.231         	19.712         	0.62
MS.232         	19.672         	0.671
MS.233         	19.632         	0.566
MS.234         	19.592         	0.667
MS.235         	19.555         	0.558
MS.236         	19.515         	0.556
MS.237         	19.475         	0.522
MS.238         	19.438         	0.493
MS.239         	19.397         	0.57
MS.240         	19.36          	0.469
MS.241         	19.32          	0.534
MS.242         	19.282         	0.502
MS.243         	19.245         	0.403
MS.244         	19.205         	0.417
MS.245         	19.167         	0.403
MS.246         	19.13          	0.425
MS.247         	19.09          	0.342
MS.248         	19.052         	0.31
MS.249         	19.015         	0.322
MS.250         	18.977         	0.318
MS.251         	18.938         	0.296
MS.252         	18.9           	0.294
MS.253         	18.862         	0.336
MS.254         	18.825         	0.298
MS.255         	18.788         	0.3
MS.256         	18.75          	0.304
MS.257         	18.712         	0.34
MS.258         	18.675         	0.288
MS.259         	18.637         	0.228
MS.260         	18.6           	0.282
MS.261         	18.562         	0.214
MS.262         	18.528         	0.175
MS.263         	18.49          	0.216
MS.264         	18.452         	0.242
MS.265         	18.415         	0.254
MS.266         	18.378         	0.222
MS.267         	18.342         	0.209
MS.268         	18.305         	0.203
MS.269         	18.27          	0.218
MS.270         	18.233         	0.201
MS.271         	18.195         	0.211
MS.272         	18.16          	0.181
MS.273         	18.122         	0.145
MS.274         	18.087         	0.183
MS.275         	18.05          	0.201
MS.276         	18.015         	0.165
MS.277         	17.98          	0.173
MS.278         	17.942         	0.119
MS.279         	17.907         	0.165
MS.280         	17.87          	0.171
MS.281         	17.835         	0.155
MS.282         	17.8           	0.137
MS.283         	17.765         	0.125
MS.284         	17.73          	0.121
MS.285         	17.692         	0.147
MS.286         	17.657         	0.125
MS.287         	17.622         	0.135
MS.288         	17.587         	0.129
MS.289         	17.552         	0.087
MS.290         	17.517         	0.133
MS.291         	17.483         	0.139
MS.292         	17.448         	0.073
MS.293         	17.413         	0.119
MS.294         	17.378         	0.101
MS.295         	17.342         	0.058
MS.296         	17.307         	0.123
MS.297         	17.275         	0.141
MS.298         	17.24          	0.099
MS.299         	17.205         	0.117
MS.300         	17.17          	0.068
MS.301         	17.135         	0.058
MS.302         	17.102         	0.058
MS.303         	17.067         	0.068
MS.304         	17.032         	0.062
MS.305         	17             	0.07
MS.306         	16.965         	0.103
MS.307         	16.932         	0.052
MS.308         	16.897         	0.048
MS.309         	16.865         	0.058
MS.310         	16.83          	0.048
MS.311         	16.797         	0.054
MS.312         	16.762         	0.05
MS.313         	16.73          	0.044
MS.314         	16.698         	0.05
MS.315         	16.663         	0.06
MS.316         	16.63          	0.04
MS.317         	16.597         	0.046
MS.318         	16.562         	0.046
MS.319         	16.53          	0.044
MS.320         	16.497         	0.046
MS.321         	16.465         	0.048
MS.322         	16.432         	0.04
MS.323         	16.397         	0.048
MS.324         	16.365         	0.05
MS.325         	16.333         	0.048
MS.326         	16.3           	0.048
MS.327         	16.267         	0.046
MS.328         	16.235         	0.038
MS.329         	16.202         	0.05
MS.330         	16.17          	0.046
MS.331         	16.137         	0.052
MS.332         	16.105         	0.044
MS.333         	16.075         	0.038
MS.334         	16.042         	0.048
MS.335         	16.01          	0.036
MS.336         	15.977         	0.04
MS.337         	15.945         	0.042
MS.338         	15.915         	0.032
MS.339         	15.882         	0.052
MS.340         	15.85          	0.026
MS.341         	15.818         	0.038
MS.342         	15.787         	0.024
MS.343         	15.755         	0.036
MS.344         	15.725         	0.05
MS.345         	15.693         	0.038
MS.346         	15.662         	0.03
MS.347         	15.63          	0.046
MS.348         	15.6           	0.05
MS.349         	15.568         	0.032
MS.350         	15.537         	0.028
MS.351         	15.505         	0.028
MS.352         	15.475         	0.024
MS.353         	15.443         	0.018
MS.354         	15.412         	0.008
MS.355         	15.382         	0.024
MS.356         	15.35          	0.032
MS.357         	15.32          	0.02
MS.358         	15.29          	0.02
MS.359         	15.26          	0.02
MS.360         	15.23          	0.016
MS.361         	15.197         	0.024
MS.362         	15.167         	0.016
MS.363         	15.137         	0.004
MS.364         	15.108         	0.026
MS.365         	15.077         	0.008
MS.366         	15.047         	0.000
MS.367         	15.017         	0.018
MS.368         	14.987         	0.02
MS.369         	14.957         	-0.002
MS.370         	14.927         	-0.004
MS.371         	14.898         	0.014
MS.372         	14.867         	0.008
MS.373         	14.837         	0.006
MS.374         	14.807         	0.02
MS.375         	14.78          	0.004
MS.376         	14.75          	0.002
MS.377         	14.72          	0.004
MS.378         	14.69          	-0.002
MS.379         	14.66          	-0.002
MS.380         	14.632         	0.000
MS.381         	14.602         	0.000
MS.382         	14.572         	0.000
MS.383         	14.545         	0.012
MS.384         	14.515         	-0.002
MS.385         	14.485         	0.000
DERIVED EXCITABILITY VARIABLES
Program = QTracP 3/4/2020
Threshold method = 6 (optimised for CAP, using data for present condition only)
SR method = 1 (using actual data values)
6.                 	0.000               	Peak response\(mV)
17.                	30                  	Age (years)
18.                	1                   	Sex (M=1, F=2)

EXTRA VARIABLES

MScPeak(mV) = 5.62
MScS5(mA) = 18.62
MScS50(mA) = 23.57
MScS95(mA) = 29.2
MScNSteps = 1
MScSteps(%) = 2.7
MScStepMax(%) = 2.7
MScD50 = 49
MScSlope = 4.53
MSFPeakAmp(mV) = 5.61
MSFNUnits = 164
MSFMeanUnitAmp(uV) = 34.2
MSFHuntTime(m) = 2.64
MSFError(%) = 1.92
MSFNLarge = 53.57
MSFMedianAmp(%) = 0.537
MSFMedianAmp(mV) = 0.0302
MSFHalfAmpAmp(%) = 0.637
MSFHalfAmpAmp(mV) = 0.0358
MSFLargestAmp(%) = 2.45
MSFLargestAmp(mV) = 0.138
MSFMeanRS(%) = 2
MSFOpts = 10106121
MScDuration(min) = 3.4
MSFTraces = 371
MSFSizeLimit(uV) = 14
MSFLimitType = 1
MSFSmallestAmp(uV) = 14.2

EXTRA WAVEFORMS


!MScan Model
!164
	1	15.53	0.62	2
	2	16.75	0.29	2
	3	17.17	0.62	2
	4	17.59	0.65	2
	5	17.92	0.65	2
	6	18.15	0.55	2
	7	18.4	0.53	2
	8	18.56	0.54	2
	9	18.71	0.41	2
	10	18.9	0.9	2
	11	18.99	0.26	2
	12	19.07	0.37	2
	13	19.1	0.25	2
	14	19.13	0.25	2
	15	19.18	0.44	2
	16	19.23	0.43	2
	17	19.28	0.39	2
	18	19.34	0.44	2
	19	19.44	1.05	2
	20	19.57	0.76	2
	21	19.73	0.86	2
	22	19.86	0.88	2
	23	19.95	0.65	2
	24	20.02	0.53	2
	25	20.09	0.74	2
	26	20.22	1.54	2
	27	20.34	0.9	2
	28	20.42	0.53	2
	29	20.5	0.63	2
	30	20.58	0.72	2
	31	20.67	0.96	2
	32	20.74	0.59	2
	33	20.81	0.47	2
	34	20.87	0.36	2
	35	20.93	0.59	2
	36	20.98	0.53	2
	37	21.04	0.56	2
	38	21.09	0.56	2
	39	21.15	0.54	2
	40	21.2	0.49	2
	41	21.25	0.44	2
	42	21.3	0.48	2
	43	21.34	0.56	2
	44	21.42	0.91	2
	45	21.51	1.48	2
	46	21.6	1.2	2
	47	21.69	1.38	2
	48	21.79	2.45	2
	49	22	2.23	2
	50	22.08	0.68	2
	51	22.15	0.32	2
	52	22.23	0.83	2
	53	22.28	0.57	2
	54	22.33	0.67	2
	55	22.38	0.79	2
	56	22.43	0.64	2
	57	22.48	0.71	2
	58	22.54	0.73	2
	59	22.6	0.52	2
	60	22.66	0.52	2
	61	22.71	0.39	2
	62	22.75	0.37	2
	63	22.79	0.49	2
	64	22.86	0.85	2
	65	22.93	0.5	2
	66	23	0.6	2
	67	23.07	0.42	2
	68	23.14	0.64	2
	69	23.2	0.6	2
	70	23.27	0.64	2
	71	23.33	0.67	2
	72	23.39	0.57	2
	73	23.44	0.47	2
	74	23.48	0.41	2
	75	23.53	0.43	2
	76	23.57	0.5	2
	77	23.67	1.03	2
	78	23.81	1.15	2
	79	23.91	0.64	2
	80	23.99	0.89	2
	81	24.08	0.74	2
	82	24.15	0.62	2
	83	24.22	0.77	2
	84	24.29	0.63	2
	85	24.35	0.56	2
	86	24.41	0.52	2
	87	24.47	0.77	2
	88	24.53	0.56	2
	89	24.69	1.3	2
	90	24.86	0.96	2
	91	24.95	0.75	2
	92	25.05	0.92	2
	93	25.1	0.55	2
	94	25.15	0.5	2
	95	25.2	0.33	2
	96	25.25	0.58	2
	97	25.31	0.61	2
	98	25.36	0.66	2
	99	25.41	0.65	2
	100	25.47	0.47	2
	101	25.53	0.5	2
	102	25.59	0.57	2
	103	25.66	0.68	2
	104	25.72	0.5	2
	105	25.79	0.49	2
	106	25.88	0.58	2
	107	25.96	0.51	2
	108	26.03	0.45	2
	109	26.11	0.49	2
	110	26.16	0.47	2
	111	26.19	0.27	2
	112	26.22	0.25	2
	113	26.24	0.25	2
	114	26.27	0.25	2
	115	26.31	0.41	2
	116	26.35	0.43	2
	117	26.4	0.42	2
	118	26.44	0.29	2
	119	26.47	0.36	2
	120	26.51	0.5	2
	121	26.57	0.59	2
	122	26.61	0.46	2
	123	26.65	0.46	2
	124	26.69	0.47	2
	125	26.74	0.41	2
	126	26.78	0.34	2
	127	26.82	0.34	2
	128	26.94	1.03	2
	129	27.07	0.98	2
	130	27.14	0.5	2
	131	27.2	0.42	2
	132	27.27	0.39	2
	133	27.33	0.57	2
	134	27.45	1.07	2
	135	27.62	1.4	2
	136	27.76	0.77	2
	137	27.9	0.83	2
	138	28.04	0.98	2
	139	28.18	0.76	2
	140	28.3	0.61	2
	141	28.42	0.78	2
	142	28.52	0.47	2
	143	28.58	0.26	2
	144	28.66	0.38	2
	145	28.74	0.46	2
	146	28.8	0.41	2
	147	28.89	0.46	2
	148	28.92	0.28	2
	149	28.98	0.46	2
	150	29.05	0.43	2
	151	29.09	0.3	2
	152	29.14	0.34	2
	153	29.18	0.3	2
	154	29.23	0.27	2
	155	29.28	0.31	2
	156	29.33	0.31	2
	157	29.38	0.35	2
	158	29.44	0.38	2
	159	29.5	0.44	2
	160	29.56	0.36	2
	161	29.62	0.4	2
	162	29.76	0.57	2
	163	29.86	0.33	2
	164	30.07	0.99	2

