File:              	C:\Qtrac\Data\Daniel M Sørensen\MScan multicentre study\Data from centres\Ankara\Processed data\HCAC10113A.QZD
Name:              	TR.ANK.NC.6.2
Protocol:          	MSCAN-R2
Date:              	13/1/21
Start time:        	17:23:19
Age:               	30
Sex:               	m
Temperature:
S/R sites:         	R APB 2
NC/disease:        	NC
Operator:          	EB
Comments:
M-SCAN DATA (6.3-1.3m)
Scanpts: 13, 17, 471, 474
Stim. (mA)     	Amp. (mV)
MS.1           	24             	6.911
MS.2           	24             	6.886
MS.3           	24             	6.905
MS.4           	24             	6.87
MS.5           	24             	6.868
MS.6           	24             	6.858
MS.7           	24             	6.878
MS.8           	24             	6.884
MS.9           	24             	6.872
MS.10          	24             	6.898
MS.11          	24             	6.886
MS.12          	24             	6.913
MS.13          	24             	6.909
MS.14          	24             	6.923
MS.15          	24             	6.909
MS.16          	24             	6.886
MS.17          	24             	6.911
MS.18          	24             	6.888
MS.19          	24             	6.903
MS.20          	24             	6.898
MS.21          	24             	6.88
MS.22          	24             	6.919
MS.23          	24             	6.911
MS.24          	23.952         	6.901
MS.25          	23.905         	6.911
MS.26          	23.858         	6.915
MS.27          	23.81          	6.846
MS.28          	23.76          	6.874
MS.29          	23.712         	6.933
MS.30          	23.667         	6.901
MS.31          	23.62          	6.903
MS.32          	23.573         	6.921
MS.33          	23.525         	6.89
MS.34          	23.477         	6.872
MS.35          	23.43          	6.86
MS.36          	23.385         	6.892
MS.37          	23.337         	6.909
MS.38          	23.29          	6.768
MS.39          	23.245         	6.721
MS.40          	23.198         	6.814
MS.41          	23.153         	6.917
MS.42          	23.105         	6.83
MS.43          	23.06          	6.878
MS.44          	23.012         	6.766
MS.45          	22.967         	6.937
MS.46          	22.92          	6.86
MS.47          	22.875         	6.836
MS.48          	22.83          	6.866
MS.49          	22.785         	6.854
MS.50          	22.737         	6.673
MS.51          	22.692         	6.381
MS.52          	22.647         	6.83
MS.53          	22.602         	6.21
MS.54          	22.557         	6.657
MS.55          	22.512         	6.248
MS.56          	22.467         	6.208
MS.57          	22.422         	6.304
MS.58          	22.377         	6.254
MS.59          	22.332         	6.016
MS.60          	22.288         	6.294
MS.61          	22.243         	5.857
MS.62          	22.2           	5.859
MS.63          	22.155         	5.871
MS.64          	22.11          	6.145
MS.65          	22.067         	5.829
MS.66          	22.022         	5.795
MS.67          	21.977         	5.996
MS.68          	21.935         	5.865
MS.69          	21.89          	6.026
MS.70          	21.847         	5.904
MS.71          	21.802         	5.783
MS.72          	21.76          	5.65
MS.73          	21.715         	5.813
MS.74          	21.672         	5.789
MS.75          	21.63          	5.368
MS.76          	21.585         	5.708
MS.77          	21.542         	5.626
MS.78          	21.5           	5.714
MS.79          	21.458         	5.636
MS.80          	21.415         	5.152
MS.81          	21.372         	5.438
MS.82          	21.327         	5.364
MS.83          	21.285         	5.648
MS.84          	21.243         	5.11
MS.85          	21.2           	5.245
MS.86          	21.16          	5.285
MS.87          	21.118         	5.297
MS.88          	21.075         	5.142
MS.89          	21.032         	4.967
MS.90          	20.99          	4.759
MS.91          	20.948         	4.061
MS.92          	20.907         	4.51
MS.93          	20.865         	4.733
MS.94          	20.823         	4.361
MS.95          	20.782         	4.61
MS.96          	20.74          	3.847
MS.97          	20.698         	4.415
MS.98          	20.657         	3.924
MS.99          	20.615         	4.173
MS.100         	20.575         	3.891
MS.101         	20.532         	3.871
MS.102         	20.493         	4.206
MS.103         	20.452         	3.803
MS.104         	20.41          	3.797
MS.105         	20.37          	3.768
MS.106         	20.33          	3.664
MS.107         	20.288         	3.777
MS.108         	20.247         	3.476
MS.109         	20.208         	3.775
MS.110         	20.167         	3.813
MS.111         	20.127         	3.432
MS.112         	20.087         	3.638
MS.113         	20.047         	3.466
MS.114         	20.007         	3.16
MS.115         	19.967         	3.46
MS.116         	19.927         	3.001
MS.117         	19.887         	3.168
MS.118         	19.847         	3.096
MS.119         	19.807         	3.315
MS.120         	19.767         	2.941
MS.121         	19.727         	3.249
MS.122         	19.69          	2.866
MS.123         	19.65          	2.834
MS.124         	19.61          	2.641
MS.125         	19.57          	2.61
MS.126         	19.532         	2.542
MS.127         	19.493         	2.643
MS.128         	19.455         	2.761
MS.129         	19.415         	2.439
MS.130         	19.377         	2.705
MS.131         	19.337         	2.441
MS.132         	19.3           	2.391
MS.133         	19.26          	2.427
MS.134         	19.222         	2.282
MS.135         	19.182         	2.244
MS.136         	19.145         	2.328
MS.137         	19.108         	2.208
MS.138         	19.07          	2.201
MS.139         	19.03          	2.159
MS.140         	18.993         	2.135
MS.141         	18.955         	2.183
MS.142         	18.917         	2.083
MS.143         	18.88          	2.046
MS.144         	18.842         	2.01
MS.145         	18.802         	2.203
MS.146         	18.765         	2.159
MS.147         	18.727         	1.903
MS.148         	18.69          	1.883
MS.149         	18.655         	1.94
MS.150         	18.618         	1.895
MS.151         	18.58          	1.849
MS.152         	18.542         	1.881
MS.153         	18.505         	1.797
MS.154         	18.467         	1.783
MS.155         	18.432         	1.867
MS.156         	18.395         	1.95
MS.157         	18.358         	1.795
MS.158         	18.32          	1.752
MS.159         	18.285         	1.897
MS.160         	18.247         	1.764
MS.161         	18.212         	1.706
MS.162         	18.175         	1.672
MS.163         	18.14          	1.722
MS.164         	18.102         	1.676
MS.165         	18.067         	1.694
MS.166         	18.03          	1.599
MS.167         	17.995         	1.563
MS.168         	17.958         	1.44
MS.169         	17.922         	1.545
MS.170         	17.887         	1.446
MS.171         	17.85          	1.513
MS.172         	17.815         	1.384
MS.173         	17.78          	1.513
MS.174         	17.745         	1.43
MS.175         	17.708         	1.317
MS.176         	17.672         	1.382
MS.177         	17.637         	1.333
MS.178         	17.602         	1.239
MS.179         	17.567         	1.303
MS.180         	17.532         	1.126
MS.181         	17.497         	1.376
MS.182         	17.462         	1.247
MS.183         	17.427         	1.323
MS.184         	17.392         	1.221
MS.185         	17.358         	1.184
MS.186         	17.323         	0.989
MS.187         	17.288         	1.053
MS.188         	17.255         	1.227
MS.189         	17.22          	1.19
MS.190         	17.185         	0.949
MS.191         	17.15          	1.082
MS.192         	17.118         	0.959
MS.193         	17.083         	0.981
MS.194         	17.047         	1.08
MS.195         	17.015         	0.981
MS.196         	16.98          	1.019
MS.197         	16.948         	0.987
MS.198         	16.913         	0.886
MS.199         	16.878         	0.866
MS.200         	16.845         	0.951
MS.201         	16.812         	0.858
MS.202         	16.778         	0.852
MS.203         	16.745         	0.856
MS.204         	16.71          	0.5
MS.205         	16.677         	0.824
MS.206         	16.645         	0.469
MS.207         	16.61          	0.812
MS.208         	16.577         	0.556
MS.209         	16.545         	0.844
MS.210         	16.512         	0.816
MS.211         	16.477         	0.485
MS.212         	16.445         	0.481
MS.213         	16.413         	0.506
MS.214         	16.38          	0.5
MS.215         	16.347         	0.461
MS.216         	16.315         	0.463
MS.217         	16.282         	0.435
MS.218         	16.25          	0.431
MS.219         	16.217         	0.439
MS.220         	16.185         	0.453
MS.221         	16.153         	0.441
MS.222         	16.12          	0.409
MS.223         	16.087         	0.475
MS.224         	16.055         	0.457
MS.225         	16.022         	0.415
MS.226         	15.992         	0.437
MS.227         	15.96          	0.413
MS.228         	15.927         	0.417
MS.229         	15.895         	0.433
MS.230         	15.865         	0.413
MS.231         	15.832         	0.417
MS.232         	15.8           	0.409
MS.233         	15.77          	0.413
MS.234         	15.737         	0.407
MS.235         	15.705         	0.407
MS.236         	15.675         	0.397
MS.237         	15.642         	0.399
MS.238         	15.612         	0.409
MS.239         	15.58          	0.332
MS.240         	15.55          	0.411
MS.241         	15.52          	0.401
MS.242         	15.487         	0.391
MS.243         	15.457         	0.395
MS.244         	15.425         	0.28
MS.245         	15.395         	0.393
MS.246         	15.365         	0.352
MS.247         	15.332         	0.379
MS.248         	15.302         	0.318
MS.249         	15.273         	0.308
MS.250         	15.242         	0.294
MS.251         	15.212         	0.373
MS.252         	15.18          	0.31
MS.253         	15.15          	0.385
MS.254         	15.12          	0.361
MS.255         	15.09          	0.29
MS.256         	15.06          	0.262
MS.257         	15.03          	0.32
MS.258         	15             	0.248
MS.259         	14.97          	0.25
MS.260         	14.94          	0.262
MS.261         	14.91          	0.286
MS.262         	14.88          	0.258
MS.263         	14.85          	0.27
MS.264         	14.82          	0.326
MS.265         	14.792         	0.26
MS.266         	14.762         	0.246
MS.267         	14.733         	0.252
MS.268         	14.702         	0.254
MS.269         	14.672         	0.25
MS.270         	14.645         	0.25
MS.271         	14.615         	0.246
MS.272         	14.585         	0.193
MS.273         	14.557         	0.32
MS.274         	14.527         	0.246
MS.275         	14.497         	0.189
MS.276         	14.47          	0.189
MS.277         	14.44          	0.254
MS.278         	14.412         	0.187
MS.279         	14.382         	0.195
MS.280         	14.355         	0.187
MS.281         	14.325         	0.185
MS.282         	14.297         	0.187
MS.283         	14.267         	0.189
MS.284         	14.24          	0.185
MS.285         	14.212         	0.246
MS.286         	14.182         	0.185
MS.287         	14.155         	0.246
MS.288         	14.127         	0.181
MS.289         	14.097         	0.191
MS.290         	14.07          	0.181
MS.291         	14.042         	0.165
MS.292         	14.015         	0.187
MS.293         	13.985         	0.157
MS.294         	13.957         	0.165
MS.295         	13.93          	0.173
MS.296         	13.903         	0.175
MS.297         	13.875         	0.165
MS.298         	13.847         	0.183
MS.299         	13.82          	0.171
MS.300         	13.792         	0.163
MS.301         	13.765         	0.161
MS.302         	13.737         	0.163
MS.303         	13.71          	0.177
MS.304         	13.682         	0.153
MS.305         	13.655         	0.169
MS.306         	13.627         	0.163
MS.307         	13.6           	0.175
MS.308         	13.572         	0.159
MS.309         	13.545         	0.151
MS.310         	13.517         	0.153
MS.311         	13.492         	0.149
MS.312         	13.465         	0.159
MS.313         	13.438         	0.151
MS.314         	13.41          	0.159
MS.315         	13.385         	0.153
MS.316         	13.358         	0.159
MS.317         	13.33          	0.155
MS.318         	13.305         	0.157
MS.319         	13.278         	0.155
MS.320         	13.25          	0.155
MS.321         	13.225         	0.155
MS.322         	13.197         	0.155
MS.323         	13.172         	0.153
MS.324         	13.145         	0.157
MS.325         	13.12          	0.151
MS.326         	13.092         	0.157
MS.327         	13.068         	0.157
MS.328         	13.04          	0.155
MS.329         	13.015         	0.157
MS.330         	12.987         	0.157
MS.331         	12.962         	0.159
MS.332         	12.938         	0.157
MS.333         	12.91          	0.161
MS.334         	12.885         	0.163
MS.335         	12.86          	0.161
MS.336         	12.832         	0.163
MS.337         	12.807         	0.159
MS.338         	12.782         	0.165
MS.339         	12.757         	0.163
MS.340         	12.73          	0.161
MS.341         	12.705         	0.167
MS.342         	12.68          	0.161
MS.343         	12.655         	0.159
MS.344         	12.63          	0.161
MS.345         	12.605         	0.165
MS.346         	12.58          	0.159
MS.347         	12.555         	0.163
MS.348         	12.53          	0.165
MS.349         	12.505         	0.157
MS.350         	12.48          	0.161
MS.351         	12.455         	0.163
MS.352         	12.43          	0.161
MS.353         	12.405         	0.163
MS.354         	12.38          	0.165
MS.355         	12.355         	0.167
MS.356         	12.33          	0.161
MS.357         	12.305         	0.161
MS.358         	12.28          	0.161
MS.359         	12.257         	0.161
MS.360         	12.233         	0.165
MS.361         	12.207         	0.165
MS.362         	12.182         	0.161
MS.363         	12.16          	0.163
MS.364         	12.135         	0.163
MS.365         	12.11          	0.161
MS.366         	12.085         	0.165
MS.367         	12.062         	0.161
MS.368         	12.037         	0.155
MS.369         	12.015         	0.157
MS.370         	11.99          	0.163
MS.371         	11.965         	0.165
MS.372         	11.943         	0.165
MS.373         	11.917         	0.167
MS.374         	11.895         	0.165
MS.375         	11.87          	0.167
MS.376         	11.847         	0.165
MS.377         	11.822         	0.163
MS.378         	11.8           	0.155
MS.379         	11.775         	0.161
MS.380         	11.752         	0.159
MS.381         	11.73          	0.159
MS.382         	11.705         	0.163
MS.383         	11.682         	0.157
MS.384         	11.657         	0.155
MS.385         	11.635         	0.153
MS.386         	11.613         	0.155
MS.387         	11.59          	0.157
MS.388         	11.565         	0.155
MS.389         	11.542         	0.153
MS.390         	11.52          	0.157
MS.391         	11.497         	0.159
MS.392         	11.472         	0.161
MS.393         	11.45          	0.155
MS.394         	11.427         	0.161
MS.395         	11.405         	0.189
MS.396         	11.382         	0.153
MS.397         	11.36          	0.159
MS.398         	11.337         	0.155
MS.399         	11.315         	0.155
MS.400         	11.292         	0.155
MS.401         	11.27          	0.169
MS.402         	11.247         	0.185
MS.403         	11.225         	0.159
MS.404         	11.202         	0.155
MS.405         	11.18          	0.185
MS.406         	11.157         	0.181
MS.407         	11.135         	0.183
MS.408         	11.113         	0.161
MS.409         	11.09          	0.185
MS.410         	11.068         	0.183
MS.411         	11.045         	0.153
MS.412         	11.025         	0.179
MS.413         	11.002         	0.183
MS.414         	10.98          	0.179
MS.415         	10.957         	0.181
MS.416         	10.935         	0.181
MS.417         	10.915         	0.181
MS.418         	10.892         	0.183
MS.419         	10.87          	0.157
MS.420         	10.85          	0.181
MS.421         	10.827         	0.173
MS.422         	10.805         	0.179
MS.423         	10.785         	0.177
MS.424         	10.762         	0.181
MS.425         	10.74          	0.171
MS.426         	10.72          	0.177
MS.427         	10.698         	0.177
MS.428         	10.677         	0.173
MS.429         	10.655         	0.173
MS.430         	10.635         	0.179
MS.431         	10.613         	0.175
MS.432         	10.592         	0.177
MS.433         	10.57          	0.044
MS.434         	10.55          	0.177
MS.435         	10.528         	0.169
MS.436         	10.507         	0.163
MS.437         	10.485         	0.161
MS.438         	10.465         	0.173
MS.439         	10.445         	0.165
MS.440         	10.422         	0.161
MS.441         	10.403         	0.161
MS.442         	10.382         	0.163
MS.443         	10.36          	0.165
MS.444         	10.34          	0.163
MS.445         	10.32          	0.165
MS.446         	10.3           	0.161
MS.447         	10.278         	0.036
MS.448         	10.257         	0.161
MS.449         	10.238         	0.163
MS.450         	10.217         	0.161
MS.451         	10.198         	0.155
MS.452         	10.175         	0.157
MS.453         	10.155         	0.169
MS.454         	10.135         	0.163
MS.455         	10.115         	0.04
MS.456         	10.095         	0.034
MS.457         	10.075         	0.161
MS.458         	10.055         	0.159
MS.459         	10.035         	0.036
MS.460         	10.015         	0.038
MS.461         	9.995          	0.159
MS.462         	9.975          	0.032
MS.463         	9.955          	0.038
MS.464         	9.935          	0.161
MS.465         	9.915          	0.036
MS.466         	9.895          	0.038
MS.467         	9.875          	0.036
MS.468         	9.855          	0.036
MS.469         	9.835          	0.036
MS.470         	9.818          	0.034
MS.471         	9.797          	0.038
MS.472         	9.778          	0.04
MS.473         	9.757          	0.038
MS.474         	9.738          	0.04
MS.475         	9.717          	0.038
MS.476         	9.7            	0.034
MS.477         	9.68           	0.036
MS.478         	9.66           	0.036
MS.479         	9.642          	0.034
MS.480         	9.622          	0.038
MS.481         	9.602          	0.038
MS.482         	9.582          	0.038
MS.483         	9.565          	0.04
MS.484         	9.545          	0.038
MS.485         	9.528          	0.036
MS.486         	9.507          	0.04
MS.487         	9.488          	0.04
MS.488         	9.47           	0.036
MS.489         	9.45           	0.036
MS.490         	9.432          	0.042
MS.491         	9.412          	0.034
MS.492         	9.395          	0.04
MS.493         	9.375          	0.04
MS.494         	9.358          	0.036
MS.495         	9.337          	0.04
MS.496         	9.32           	0.038
MS.497         	9.3            	0.036
MS.498         	9.283          	0.036
MS.499         	9.262          	0.04
MS.500         	9.245          	0.04
MS.501         	9.227          	0.04
