File:              	C:\Qtrac\Data\Daniel M Sørensen\MScan multicentre study\Data from centres\Ankara\Processed data\HCAC10113C.QZD
Name:              	TR.ANK.NC.6.2
Protocol:          	MSCAN-R2
Date:              	13/1/21
Start time:        	17:49:57
Age:               	30
Sex:               	M
Temperature:
S/R sites:         	ADM
NC/disease:        	NC
Operator:          	EB
Comments:
M-SCAN DATA (7.2-2m)
Scanpts: 38, 45, 538, 544
Stim. (mA)     	Amp. (mV)
MS.1           	30.5           	6.872
MS.2           	30.5           	6.836
MS.3           	30.5           	6.903
MS.4           	30.5           	6.828
MS.5           	30.5           	7.009
MS.6           	30.5           	6.846
MS.7           	30.5           	6.844
MS.8           	30.5           	7.017
MS.9           	30.5           	6.931
MS.10          	30.5           	6.81
MS.11          	30.5           	6.788
MS.12          	30.5           	7.005
MS.13          	30.5           	7.001
MS.14          	30.5           	6.925
MS.15          	30.5           	6.854
MS.16          	30.5           	7.025
MS.17          	30.5           	6.898
MS.18          	30.5           	7.044
MS.19          	30.5           	7.039
MS.20          	30.5           	6.965
MS.21          	30.5           	6.981
MS.22          	30.5           	7.046
MS.23          	30.5           	6.884
MS.24          	30.377         	7.015
MS.25          	30.317         	6.949
MS.26          	30.257         	7.021
MS.27          	30.198         	6.999
MS.28          	30.135         	7.007
MS.29          	30.075         	6.862
MS.30          	30.015         	6.975
MS.31          	29.955         	6.88
MS.32          	29.895         	7.044
MS.33          	29.835         	7.015
MS.34          	29.778         	6.866
MS.35          	29.717         	7.019
MS.36          	29.657         	6.985
MS.37          	29.597         	6.981
MS.38          	29.54          	6.878
MS.39          	29.48          	6.828
MS.40          	29.422         	6.836
MS.41          	29.362         	6.822
MS.42          	29.305         	6.846
MS.43          	29.245         	6.776
MS.44          	29.188         	6.764
MS.45          	29.127         	6.82
MS.46          	29.07          	6.782
MS.47          	29.012         	6.846
MS.48          	28.955         	6.564
MS.49          	28.897         	6.808
MS.50          	28.84          	6.512
MS.51          	28.78          	6.737
MS.52          	28.722         	6.784
MS.53          	28.667         	6.764
MS.54          	28.61          	6.711
MS.55          	28.552         	6.367
MS.56          	28.495         	6.719
MS.57          	28.438         	6.389
MS.58          	28.38          	6.383
MS.59          	28.325         	6.363
MS.60          	28.267         	6.457
MS.61          	28.212         	6.427
MS.62          	28.155         	6.419
MS.63          	28.097         	6.28
MS.64          	28.042         	6.296
MS.65          	27.987         	6.034
MS.66          	27.93          	6.278
MS.67          	27.875         	6.097
MS.68          	27.82          	6.248
MS.69          	27.762         	6.198
MS.70          	27.707         	6.051
MS.71          	27.653         	6.014
MS.72          	27.597         	5.988
MS.73          	27.542         	6.024
MS.74          	27.487         	6.026
MS.75          	27.432         	5.833
MS.76          	27.377         	6
MS.77          	27.323         	5.956
MS.78          	27.267         	5.992
MS.79          	27.215         	5.994
MS.80          	27.16          	5.922
MS.81          	27.105         	5.712
MS.82          	27.05          	5.885
MS.83          	26.997         	5.756
MS.84          	26.942         	5.944
MS.85          	26.89          	5.783
MS.86          	26.835         	5.76
MS.87          	26.782         	5.763
MS.88          	26.727         	5.325
MS.89          	26.675         	5.17
MS.90          	26.622         	5.247
MS.91          	26.567         	5.233
MS.92          	26.515         	5.12
MS.93          	26.462         	5.104
MS.94          	26.41          	4.973
MS.95          	26.358         	4.902
MS.96          	26.305         	5.368
MS.97          	26.252         	4.911
MS.98          	26.2           	4.985
MS.99          	26.147         	4.937
MS.100         	26.095         	4.858
MS.101         	26.042         	4.812
MS.102         	25.99          	4.808
MS.103         	25.938         	4.894
MS.104         	25.887         	4.902
MS.105         	25.835         	4.878
MS.106         	25.782         	4.802
MS.107         	25.733         	4.759
MS.108         	25.68          	4.715
MS.109         	25.63          	4.804
MS.110         	25.577         	4.473
MS.111         	25.528         	4.675
MS.112         	25.475         	4.475
MS.113         	25.425         	4.6
MS.114         	25.375         	4.578
MS.115         	25.323         	4.49
MS.116         	25.272         	4.377
MS.117         	25.222         	4.397
MS.118         	25.172         	4.365
MS.119         	25.122         	4.52
MS.120         	25.073         	4.409
MS.121         	25.02          	4.538
MS.122         	24.97          	4.457
MS.123         	24.922         	4.282
MS.124         	24.872         	4.147
MS.125         	24.823         	4.226
MS.126         	24.772         	4.171
MS.127         	24.722         	4.145
MS.128         	24.672         	4
MS.129         	24.625         	4.089
MS.130         	24.575         	3.926
MS.131         	24.525         	3.877
MS.132         	24.477         	3.958
MS.133         	24.427         	4.046
MS.134         	24.38          	3.968
MS.135         	24.33          	3.93
MS.136         	24.282         	3.865
MS.137         	24.233         	3.793
MS.138         	24.185         	3.867
MS.139         	24.137         	3.879
MS.140         	24.087         	3.688
MS.141         	24.04          	3.775
MS.142         	23.993         	3.714
MS.143         	23.945         	3.718
MS.144         	23.897         	3.905
MS.145         	23.847         	3.692
MS.146         	23.8           	3.662
MS.147         	23.752         	3.579
MS.148         	23.705         	3.654
MS.149         	23.657         	3.636
MS.150         	23.61          	3.599
MS.151         	23.565         	3.617
MS.152         	23.517         	3.507
MS.153         	23.47          	3.525
MS.154         	23.422         	3.575
MS.155         	23.377         	3.476
MS.156         	23.33          	3.497
MS.157         	23.282         	3.597
MS.158         	23.237         	3.555
MS.159         	23.19          	3.45
MS.160         	23.142         	3.531
MS.161         	23.097         	3.478
MS.162         	23.052         	3.42
MS.163         	23.005         	3.458
MS.164         	22.96          	3.388
MS.165         	22.913         	3.362
MS.166         	22.868         	3.331
MS.167         	22.823         	3.444
MS.168         	22.778         	3.358
MS.169         	22.73          	3.329
MS.170         	22.685         	3.331
MS.171         	22.64          	3.311
MS.172         	22.595         	3.219
MS.173         	22.55          	3.313
MS.174         	22.505         	3.243
MS.175         	22.46          	3.335
MS.176         	22.415         	3.309
MS.177         	22.37          	3.194
MS.178         	22.325         	3.287
MS.179         	22.28          	3.166
MS.180         	22.235         	3.217
MS.181         	22.192         	3.255
MS.182         	22.147         	3.225
MS.183         	22.102         	3.198
MS.184         	22.06          	3.201
MS.185         	22.015         	3.18
MS.186         	21.97          	3.239
MS.187         	21.927         	3.275
MS.188         	21.882         	3.174
MS.189         	21.84          	3.188
MS.190         	21.795         	3.172
MS.191         	21.752         	3.114
MS.192         	21.71          	3.126
MS.193         	21.665         	3.176
MS.194         	21.622         	3.144
MS.195         	21.58          	3.154
MS.196         	21.535         	3.176
MS.197         	21.493         	3.14
MS.198         	21.45          	3.128
MS.199         	21.407         	3.142
MS.200         	21.365         	3.134
MS.201         	21.323         	3.138
MS.202         	21.28          	3.124
MS.203         	21.237         	3.051
MS.204         	21.195         	3.126
MS.205         	21.153         	3.14
MS.206         	21.11          	3.186
MS.207         	21.067         	3.166
MS.208         	21.025         	3.051
MS.209         	20.983         	3.053
MS.210         	20.942         	3.041
MS.211         	20.9           	3.064
MS.212         	20.858         	3.158
MS.213         	20.815         	3.076
MS.214         	20.775         	3.074
MS.215         	20.733         	3.066
MS.216         	20.692         	3.144
MS.217         	20.65          	3.176
MS.218         	20.61          	3.192
MS.219         	20.567         	3.078
MS.220         	20.528         	3.047
MS.221         	20.485         	3.064
MS.222         	20.445         	3.082
MS.223         	20.405         	3.072
MS.224         	20.362         	3.09
MS.225         	20.323         	3.086
MS.226         	20.282         	3.062
MS.227         	20.243         	3.039
MS.228         	20.2           	3.043
MS.229         	20.16          	3.17
MS.230         	20.12          	3.043
MS.231         	20.08          	3.051
MS.232         	20.04          	3.011
MS.233         	20             	3.023
MS.234         	19.96          	2.969
MS.235         	19.92          	2.925
MS.236         	19.88          	3.015
MS.237         	19.84          	2.969
MS.238         	19.8           	2.908
MS.239         	19.76          	2.973
MS.240         	19.722         	2.951
MS.241         	19.682         	3.015
MS.242         	19.642         	2.896
MS.243         	19.605         	2.894
MS.244         	19.565         	2.896
MS.245         	19.525         	2.917
MS.246         	19.487         	2.896
MS.247         	19.448         	2.679
MS.248         	19.407         	2.89
MS.249         	19.37          	2.663
MS.250         	19.33          	2.906
MS.251         	19.292         	2.695
MS.252         	19.255         	2.939
MS.253         	19.215         	2.898
MS.254         	19.177         	2.677
MS.255         	19.14          	2.713
MS.256         	19.1           	2.641
MS.257         	19.062         	2.908
MS.258         	19.025         	2.89
MS.259         	18.987         	2.681
MS.260         	18.948         	2.687
MS.261         	18.91          	2.546
MS.262         	18.872         	2.562
MS.263         	18.835         	2.526
MS.264         	18.797         	2.512
MS.265         	18.76          	2.767
MS.266         	18.722         	2.443
MS.267         	18.685         	2.542
MS.268         	18.647         	2.411
MS.269         	18.61          	2.554
MS.270         	18.573         	2.338
MS.271         	18.535         	2.431
MS.272         	18.5           	2.522
MS.273         	18.462         	2.357
MS.274         	18.425         	2.479
MS.275         	18.387         	2.298
MS.276         	18.352         	2.429
MS.277         	18.315         	2.445
MS.278         	18.278         	2.312
MS.279         	18.243         	2.25
MS.280         	18.205         	2.304
MS.281         	18.17          	2.415
MS.282         	18.132         	2.292
MS.283         	18.097         	2.252
MS.284         	18.06          	2.306
MS.285         	18.025         	2.111
MS.286         	17.987         	2.141
MS.287         	17.952         	2.266
MS.288         	17.917         	2.23
MS.289         	17.88          	2.218
MS.290         	17.845         	2.083
MS.291         	17.81          	2.234
MS.292         	17.772         	2.121
MS.293         	17.737         	2.189
MS.294         	17.702         	2.085
MS.295         	17.667         	2.008
MS.296         	17.632         	1.919
MS.297         	17.597         	2.032
MS.298         	17.562         	2.012
MS.299         	17.528         	2.014
MS.300         	17.493         	2.069
MS.301         	17.458         	1.942
MS.302         	17.422         	1.907
MS.303         	17.387         	1.917
MS.304         	17.352         	1.907
MS.305         	17.317         	1.934
MS.306         	17.282         	1.873
MS.307         	17.247         	2.018
MS.308         	17.215         	1.871
MS.309         	17.18          	1.899
MS.310         	17.145         	1.903
MS.311         	17.11          	1.903
MS.312         	17.077         	1.913
MS.313         	17.042         	1.861
MS.314         	17.007         	1.903
MS.315         	16.975         	1.901
MS.316         	16.94          	1.915
MS.317         	16.907         	1.922
MS.318         	16.872         	1.827
MS.319         	16.84          	1.917
MS.320         	16.805         	1.887
MS.321         	16.772         	1.825
MS.322         	16.737         	1.919
MS.323         	16.705         	1.879
MS.324         	16.672         	1.883
MS.325         	16.637         	1.797
MS.326         	16.605         	1.825
MS.327         	16.573         	1.907
MS.328         	16.54          	1.781
MS.329         	16.505         	1.785
MS.330         	16.472         	1.805
MS.331         	16.44          	1.785
MS.332         	16.407         	1.871
MS.333         	16.375         	1.851
MS.334         	16.342         	1.799
MS.335         	16.31          	1.885
MS.336         	16.278         	1.781
MS.337         	16.245         	1.779
MS.338         	16.212         	1.783
MS.339         	16.18          	1.795
MS.340         	16.147         	1.75
MS.341         	16.115         	1.754
MS.342         	16.083         	1.764
MS.343         	16.05          	1.732
MS.344         	16.017         	1.75
MS.345         	15.985         	1.704
MS.346         	15.955         	1.74
MS.347         	15.922         	1.728
MS.348         	15.89          	1.648
MS.349         	15.86          	1.736
MS.350         	15.827         	1.75
MS.351         	15.795         	1.768
MS.352         	15.765         	1.726
MS.353         	15.733         	1.706
MS.354         	15.7           	1.71
MS.355         	15.67          	1.724
MS.356         	15.637         	1.629
MS.357         	15.608         	1.706
MS.358         	15.575         	1.599
MS.359         	15.545         	1.633
MS.360         	15.512         	1.702
MS.361         	15.483         	1.611
MS.362         	15.452         	1.599
MS.363         	15.42          	1.603
MS.364         	15.39          	1.585
MS.365         	15.36          	1.505
MS.366         	15.327         	1.603
MS.367         	15.297         	1.563
MS.368         	15.267         	1.668
MS.369         	15.237         	1.603
MS.370         	15.207         	1.499
MS.371         	15.175         	1.499
MS.372         	15.145         	1.565
MS.373         	15.115         	1.533
MS.374         	15.085         	1.515
MS.375         	15.055         	1.519
MS.376         	15.025         	1.388
MS.377         	14.995         	1.4
MS.378         	14.965         	1.408
MS.379         	14.935         	1.382
MS.380         	14.905         	1.368
MS.381         	14.875         	1.499
MS.382         	14.845         	1.454
MS.383         	14.815         	1.436
MS.384         	14.787         	1.448
MS.385         	14.757         	1.452
MS.386         	14.727         	1.339
MS.387         	14.697         	1.16
MS.388         	14.67          	1.364
MS.389         	14.64          	1.285
MS.390         	14.61          	1.341
MS.391         	14.58          	1.253
MS.392         	14.552         	1.271
MS.393         	14.523         	1.223
MS.394         	14.495         	1.362
MS.395         	14.465         	1.156
MS.396         	14.435         	1.114
MS.397         	14.407         	1.319
MS.398         	14.377         	1.134
MS.399         	14.35          	1.208
MS.400         	14.32          	1.263
MS.401         	14.292         	1.18
MS.402         	14.265         	1.194
MS.403         	14.235         	1.158
MS.404         	14.207         	0.999
MS.405         	14.177         	0.945
MS.406         	14.15          	0.89
MS.407         	14.122         	1.025
MS.408         	14.092         	1.08
MS.409         	14.065         	0.798
MS.410         	14.037         	0.818
MS.411         	14.01          	0.906
MS.412         	13.983         	0.697
MS.413         	13.952         	0.761
MS.414         	13.925         	0.918
MS.415         	13.898         	0.753
MS.416         	13.87          	0.719
MS.417         	13.842         	0.765
MS.418         	13.815         	0.761
MS.419         	13.787         	0.693
MS.420         	13.76          	0.691
MS.421         	13.733         	0.771
MS.422         	13.705         	0.572
MS.423         	13.677         	0.6
MS.424         	13.65          	0.638
MS.425         	13.622         	0.681
MS.426         	13.595         	0.659
MS.427         	13.568         	0.653
MS.428         	13.54          	0.588
MS.429         	13.515         	0.653
MS.430         	13.487         	0.536
MS.431         	13.46          	0.552
MS.432         	13.432         	0.55
MS.433         	13.407         	0.584
MS.434         	13.38          	0.514
MS.435         	13.352         	0.536
MS.436         	13.325         	0.544
MS.437         	13.3           	0.522
MS.438         	13.273         	0.508
MS.439         	13.247         	0.465
MS.440         	13.22          	0.558
MS.441         	13.193         	0.504
MS.442         	13.167         	0.469
MS.443         	13.14          	0.495
MS.444         	13.115         	0.415
MS.445         	13.087         	0.405
MS.446         	13.062         	0.385
MS.447         	13.035         	0.336
MS.448         	13.01          	0.419
MS.449         	12.985         	0.469
MS.450         	12.957         	0.399
MS.451         	12.932         	0.393
MS.452         	12.907         	0.439
MS.453         	12.88          	0.425
MS.454         	12.855         	0.363
MS.455         	12.83          	0.427
MS.456         	12.802         	0.419
MS.457         	12.778         	0.35
MS.458         	12.752         	0.324
MS.459         	12.727         	0.342
MS.460         	12.702         	0.338
MS.461         	12.675         	0.312
MS.462         	12.65          	0.254
MS.463         	12.625         	0.3
MS.464         	12.6           	0.23
MS.465         	12.575         	0.332
MS.466         	12.55          	0.216
MS.467         	12.525         	0.205
MS.468         	12.5           	0.207
MS.469         	12.475         	0.232
MS.470         	12.45          	0.286
MS.471         	12.425         	0.209
MS.472         	12.4           	0.238
MS.473         	12.375         	0.23
MS.474         	12.35          	0.238
MS.475         	12.325         	0.22
MS.476         	12.302         	0.24
MS.477         	12.278         	0.185
MS.478         	12.252         	0.234
MS.479         	12.227         	0.199
MS.480         	12.202         	0.205
MS.481         	12.18          	0.177
MS.482         	12.155         	0.169
MS.483         	12.13          	0.155
MS.484         	12.108         	0.183
MS.485         	12.082         	0.187
MS.486         	12.057         	0.115
MS.487         	12.035         	0.147
MS.488         	12.01          	0.189
MS.489         	11.985         	0.151
MS.490         	11.962         	0.167
MS.491         	11.938         	0.151
MS.492         	11.915         	0.214
MS.493         	11.89          	0.147
MS.494         	11.867         	0.075
MS.495         	11.842         	0.135
MS.496         	11.82          	0.062
MS.497         	11.795         	0.147
MS.498         	11.773         	0.149
MS.499         	11.747         	0.066
MS.500         	11.725         	0.054
MS.501         	11.702         	0.034
