File:              	C:\Qtrac\Data\Daniel M Sørensen\MScan multicentre study\Data from centres\Ankara\Processed data\HCAC10113D.QZD
Name:              	TR.ANK.NC.6.2
Protocol:          	MSCAN-R2
Date:              	13/1/21
Start time:        	18:02:25
Age:               	30
Sex:               	M
Temperature:
S/R sites:         	TA
NC/disease:        	NC
Operator:          	EB
Comments:
M-SCAN DATA (5-1.1m)
Scanpts: 7, 10, 413, 435
Stim. (mA)     	Amp. (mV)
MS.1           	33             	6.373
MS.2           	33             	6.391
MS.3           	33             	6.379
MS.4           	33             	6.278
MS.5           	33             	6.337
MS.6           	33             	6.353
MS.7           	33             	6.308
MS.8           	33             	6.296
MS.9           	33             	6.278
MS.10          	33             	6.316
MS.11          	33             	6.306
MS.12          	33             	6.28
MS.13          	33             	6.363
MS.14          	33             	6.308
MS.15          	33             	6.369
MS.16          	33             	6.306
MS.17          	33             	6.333
MS.18          	33             	6.3
MS.19          	33             	6.308
MS.20          	33             	6.28
MS.21          	33             	6.322
MS.22          	33             	6.268
MS.23          	33             	6.351
MS.24          	32.868         	6.284
MS.25          	32.802         	6.232
MS.26          	32.737         	6.21
MS.27          	32.673         	6.26
MS.28          	32.605         	6.224
MS.29          	32.54          	6.228
MS.30          	32.475         	6.258
MS.31          	32.41          	6.284
MS.32          	32.347         	6.183
MS.33          	32.282         	6.23
MS.34          	32.217         	6.151
MS.35          	32.153         	6.202
MS.36          	32.087         	6.163
MS.37          	32.025         	6.067
MS.38          	31.96          	6.181
MS.39          	31.897         	6.129
MS.40          	31.832         	6.133
MS.41          	31.77          	6.049
MS.42          	31.705         	6.101
MS.43          	31.642         	6
MS.44          	31.58          	6.077
MS.45          	31.517         	6
MS.46          	31.452         	5.998
MS.47          	31.39          	5.994
MS.48          	31.327         	5.998
MS.49          	31.265         	5.984
MS.50          	31.202         	5.948
MS.51          	31.14          	5.952
MS.52          	31.077         	5.887
MS.53          	31.015         	5.901
MS.54          	30.955         	5.91
MS.55          	30.892         	5.877
MS.56          	30.83          	5.869
MS.57          	30.77          	5.841
MS.58          	30.707         	5.775
MS.59          	30.645         	5.813
MS.60          	30.585         	5.74
MS.61          	30.522         	5.825
MS.62          	30.462         	5.831
MS.63          	30.403         	5.819
MS.64          	30.34          	5.773
MS.65          	30.28          	5.789
MS.66          	30.22          	5.732
MS.67          	30.16          	5.758
MS.68          	30.1           	5.716
MS.69          	30.04          	5.722
MS.70          	29.98          	5.688
MS.71          	29.92          	5.654
MS.72          	29.86          	5.611
MS.73          	29.8           	5.609
MS.74          	29.74          	5.527
MS.75          	29.68          	5.563
MS.76          	29.622         	5.541
MS.77          	29.562         	5.474
MS.78          	29.502         	5.468
MS.79          	29.445         	5.458
MS.80          	29.385         	5.424
MS.81          	29.327         	5.41
MS.82          	29.267         	5.446
MS.83          	29.21          	5.368
MS.84          	29.153         	5.454
MS.85          	29.092         	5.402
MS.86          	29.035         	5.253
MS.87          	28.977         	5.321
MS.88          	28.92          	5.285
MS.89          	28.862         	5.263
MS.90          	28.802         	5.219
MS.91          	28.745         	5.136
MS.92          	28.688         	5.199
MS.93          	28.632         	5.203
MS.94          	28.575         	5.126
MS.95          	28.517         	5.066
MS.96          	28.46          	5.025
MS.97          	28.403         	4.894
MS.98          	28.347         	4.993
MS.99          	28.29          	4.963
MS.100         	28.233         	4.896
MS.101         	28.177         	4.888
MS.102         	28.12          	4.898
MS.103         	28.065         	4.834
MS.104         	28.007         	4.909
MS.105         	27.952         	4.808
MS.106         	27.897         	4.854
MS.107         	27.84          	4.854
MS.108         	27.785         	4.695
MS.109         	27.73          	4.695
MS.110         	27.675         	4.703
MS.111         	27.62          	4.57
MS.112         	27.565         	4.627
MS.113         	27.507         	4.58
MS.114         	27.455         	4.566
MS.115         	27.4           	4.512
MS.116         	27.345         	4.58
MS.117         	27.29          	4.516
MS.118         	27.235         	4.479
MS.119         	27.18          	4.427
MS.120         	27.127         	4.433
MS.121         	27.073         	4.373
MS.122         	27.017         	4.349
MS.123         	26.965         	4.431
MS.124         	26.91          	4.332
MS.125         	26.858         	4.332
MS.126         	26.802         	4.298
MS.127         	26.75          	4.343
MS.128         	26.695         	4.252
MS.129         	26.642         	4.278
MS.130         	26.59          	4.228
MS.131         	26.535         	4.26
MS.132         	26.483         	4.212
MS.133         	26.43          	4.167
MS.134         	26.377         	4.171
MS.135         	26.325         	4.193
MS.136         	26.272         	4.133
MS.137         	26.22          	4.097
MS.138         	26.167         	4.014
MS.139         	26.115         	4.083
MS.140         	26.062         	4.147
MS.141         	26.01          	3.96
MS.142         	25.957         	3.948
MS.143         	25.907         	3.867
MS.144         	25.855         	3.942
MS.145         	25.802         	3.916
MS.146         	25.752         	3.903
MS.147         	25.7           	3.932
MS.148         	25.65          	3.859
MS.149         	25.597         	3.789
MS.150         	25.547         	3.785
MS.151         	25.495         	3.519
MS.152         	25.445         	3.73
MS.153         	25.395         	3.754
MS.154         	25.342         	3.501
MS.155         	25.292         	3.628
MS.156         	25.243         	3.557
MS.157         	25.192         	3.499
MS.158         	25.14          	3.519
MS.159         	25.09          	3.597
MS.160         	25.04          	3.376
MS.161         	24.99          	3.454
MS.162         	24.94          	3.462
MS.163         	24.89          	3.382
MS.164         	24.84          	3.418
MS.165         	24.792         	3.295
MS.166         	24.743         	3.281
MS.167         	24.692         	3.142
MS.168         	24.642         	3.44
MS.169         	24.595         	3.041
MS.170         	24.545         	3.104
MS.171         	24.495         	3.188
MS.172         	24.448         	2.999
MS.173         	24.397         	2.987
MS.174         	24.35          	2.953
MS.175         	24.3           	2.955
MS.176         	24.252         	3.027
MS.177         	24.202         	2.747
MS.178         	24.155         	2.953
MS.179         	24.108         	2.87
MS.180         	24.06          	2.84
MS.181         	24.01          	2.878
MS.182         	23.962         	2.878
MS.183         	23.915         	2.707
MS.184         	23.868         	2.695
MS.185         	23.82          	2.594
MS.186         	23.772         	2.614
MS.187         	23.725         	2.612
MS.188         	23.677         	2.461
MS.189         	23.63          	2.439
MS.190         	23.582         	2.552
MS.191         	23.535         	2.494
MS.192         	23.487         	2.282
MS.193         	23.442         	2.49
MS.194         	23.395         	2.197
MS.195         	23.347         	2.236
MS.196         	23.3           	2.25
MS.197         	23.255         	2.143
MS.198         	23.207         	2.171
MS.199         	23.163         	2.244
MS.200         	23.115         	1.97
MS.201         	23.07          	2.181
MS.202         	23.022         	1.948
MS.203         	22.977         	2.01
MS.204         	22.932         	1.936
MS.205         	22.885         	1.98
MS.206         	22.84          	1.795
MS.207         	22.795         	1.839
MS.208         	22.747         	2.131
MS.209         	22.702         	1.762
MS.210         	22.657         	1.678
MS.211         	22.612         	1.807
MS.212         	22.567         	1.672
MS.213         	22.522         	1.76
MS.214         	22.477         	1.658
MS.215         	22.432         	1.589
MS.216         	22.387         	1.827
MS.217         	22.342         	1.607
MS.218         	22.297         	1.672
MS.219         	22.252         	1.436
MS.220         	22.21          	1.414
MS.221         	22.165         	1.557
MS.222         	22.12          	1.47
MS.223         	22.077         	1.472
MS.224         	22.032         	1.343
MS.225         	21.987         	1.432
MS.226         	21.945         	1.551
MS.227         	21.9           	1.339
MS.228         	21.858         	1.337
MS.229         	21.812         	1.331
MS.230         	21.77          	1.301
MS.231         	21.725         	1.335
MS.232         	21.682         	1.223
MS.233         	21.64          	1.335
MS.234         	21.595         	1.172
MS.235         	21.552         	1.154
MS.236         	21.51          	1.253
MS.237         	21.467         	1.14
MS.238         	21.425         	1.108
MS.239         	21.38          	1.17
MS.240         	21.337         	1.152
MS.241         	21.295         	1.15
MS.242         	21.252         	1.136
MS.243         	21.21          	1.053
MS.244         	21.167         	1.104
MS.245         	21.125         	1.154
MS.246         	21.085         	1.025
MS.247         	21.042         	1.086
MS.248         	21             	1.003
MS.249         	20.958         	1.003
MS.250         	20.915         	1.027
MS.251         	20.875         	0.959
MS.252         	20.833         	1.146
MS.253         	20.79          	1.035
MS.254         	20.75          	0.898
MS.255         	20.708         	0.933
MS.256         	20.667         	0.904
MS.257         	20.625         	1.031
MS.258         	20.585         	0.939
MS.259         	20.542         	0.963
MS.260         	20.502         	0.902
MS.261         	20.46          	0.876
MS.262         	20.42          	0.89
MS.263         	20.38          	0.886
MS.264         	20.337         	0.894
MS.265         	20.297         	0.83
MS.266         	20.257         	0.924
MS.267         	20.217         	0.818
MS.268         	20.175         	0.808
MS.269         	20.135         	0.804
MS.270         	20.095         	0.822
MS.271         	20.055         	0.79
MS.272         	20.015         	0.719
MS.273         	19.975         	0.745
MS.274         	19.935         	0.725
MS.275         	19.895         	0.697
MS.276         	19.855         	0.81
MS.277         	19.817         	0.759
MS.278         	19.778         	0.719
MS.279         	19.737         	0.737
MS.280         	19.698         	0.699
MS.281         	19.657         	0.727
MS.282         	19.62          	0.647
MS.283         	19.58          	0.659
MS.284         	19.54          	0.759
MS.285         	19.502         	0.663
MS.286         	19.462         	0.596
MS.287         	19.425         	0.671
MS.288         	19.385         	0.596
MS.289         	19.347         	0.606
MS.290         	19.307         	0.556
MS.291         	19.27          	0.524
MS.292         	19.23          	0.51
MS.293         	19.192         	0.588
MS.294         	19.155         	0.508
MS.295         	19.115         	0.542
MS.296         	19.077         	0.479
MS.297         	19.04          	0.592
MS.298         	19             	0.443
MS.299         	18.962         	0.506
MS.300         	18.925         	0.463
MS.301         	18.887         	0.455
MS.302         	18.85          	0.471
MS.303         	18.812         	0.445
MS.304         	18.775         	0.497
MS.305         	18.737         	0.461
MS.306         	18.7           	0.383
MS.307         	18.663         	0.461
MS.308         	18.625         	0.425
MS.309         	18.587         	0.473
MS.310         	18.55          	0.469
MS.311         	18.512         	0.369
MS.312         	18.477         	0.377
MS.313         	18.44          	0.407
MS.314         	18.403         	0.328
MS.315         	18.365         	0.234
MS.316         	18.33          	0.365
MS.317         	18.292         	0.276
MS.318         	18.255         	0.278
MS.319         	18.22          	0.276
MS.320         	18.182         	0.282
MS.321         	18.147         	0.286
MS.322         	18.11          	0.272
MS.323         	18.075         	0.27
MS.324         	18.038         	0.244
MS.325         	18.003         	0.262
MS.326         	17.967         	0.242
MS.327         	17.93          	0.236
MS.328         	17.895         	0.242
MS.329         	17.86          	0.183
MS.330         	17.823         	0.232
MS.331         	17.788         	0.195
MS.332         	17.753         	0.171
MS.333         	17.717         	0.149
MS.334         	17.68          	0.175
MS.335         	17.645         	0.125
MS.336         	17.61          	0.145
MS.337         	17.575         	0.224
MS.338         	17.54          	0.169
MS.339         	17.505         	0.161
MS.340         	17.47          	0.199
MS.341         	17.435         	0.165
MS.342         	17.4           	0.169
MS.343         	17.365         	0.155
MS.344         	17.33          	0.189
MS.345         	17.297         	0.173
MS.346         	17.262         	0.195
MS.347         	17.227         	0.105
MS.348         	17.192         	0.119
MS.349         	17.157         	0.123
MS.350         	17.125         	0.115
MS.351         	17.09          	0.117
MS.352         	17.055         	0.113
MS.353         	17.022         	0.139
MS.354         	16.987         	0.151
MS.355         	16.955         	0.139
MS.356         	16.92          	0.091
MS.357         	16.887         	0.103
MS.358         	16.852         	0.075
MS.359         	16.82          	0.093
MS.360         	16.785         	0.075
MS.361         	16.753         	0.046
MS.362         	16.717         	0.081
MS.363         	16.685         	0.056
MS.364         	16.653         	0.097
MS.365         	16.618         	0.06
MS.366         	16.585         	0.115
MS.367         	16.552         	0.038
MS.368         	16.52          	0.097
MS.369         	16.485         	0.073
MS.370         	16.452         	0.054
MS.371         	16.42          	0.058
MS.372         	16.387         	0.054
MS.373         	16.355         	0.052
MS.374         	16.323         	0.034
MS.375         	16.29          	0.028
MS.376         	16.257         	0.028
MS.377         	16.225         	0.03
MS.378         	16.192         	0.042
MS.379         	16.16          	0.079
MS.380         	16.128         	0.034
MS.381         	16.095         	0.03
MS.382         	16.062         	0.022
MS.383         	16.03          	0.03
MS.384         	15.997         	0.022
MS.385         	15.967         	0.028
MS.386         	15.935         	0.02
MS.387         	15.902         	0.016
MS.388         	15.87          	0.044
MS.389         	15.84          	0.032
MS.390         	15.807         	0.042
MS.391         	15.775         	0.026
MS.392         	15.745         	0.028
MS.393         	15.712         	0.028
MS.394         	15.682         	0.012
MS.395         	15.65          	0.01
MS.396         	15.62          	0.012
MS.397         	15.587         	0.014
MS.398         	15.557         	0.016
MS.399         	15.525         	0.014
MS.400         	15.495         	0.018
MS.401         	15.465         	0.022
MS.402         	15.432         	0.004
MS.403         	15.402         	0.014
MS.404         	15.372         	0.012
MS.405         	15.34          	0.012
MS.406         	15.31          	0.008
MS.407         	15.28          	0.014
MS.408         	15.25          	0.004
MS.409         	15.217         	0.012
MS.410         	15.188         	0.008
MS.411         	15.157         	0.01
MS.412         	15.127         	0.008
MS.413         	15.097         	0.012
MS.414         	15.068         	0.002
MS.415         	15.037         	0.012
MS.416         	15.007         	0.004
MS.417         	14.977         	0.006
MS.418         	14.947         	0.012
MS.419         	14.917         	0.000
MS.420         	14.887         	0.01
MS.421         	14.858         	0.012
MS.422         	14.827         	0.002
MS.423         	14.797         	0.006
MS.424         	14.767         	-0.002
MS.425         	14.74          	0.006
MS.426         	14.71          	0.002
MS.427         	14.68          	0.006
MS.428         	14.65          	0.002
MS.429         	14.622         	0.000
MS.430         	14.592         	0.004
MS.431         	14.562         	0.004
MS.432         	14.535         	0.01
MS.433         	14.505         	0.002
MS.434         	14.475         	0.004
MS.435         	14.447         	0.000
DERIVED EXCITABILITY VARIABLES
Program = QTracP 3/4/2020
Threshold method = 6 (optimised for CAP, using data for present condition only)
SR method = 1 (using actual data values)
6.                 	0.000               	Peak response\(mV)
17.                	30                  	Age (years)
18.                	1                   	Sex (M=1, F=2)

EXTRA VARIABLES

MScPeak(mV) = 6.32
MScS5(mA) = 18.35
MScS50(mA) = 24.6
MScS95(mA) = 31.51
MScNSteps = 1
MScSteps(%) = 2.5
MScStepMax(%) = 2.5
MScD50 = 56
MScSlope = 4.46
MSFPeakAmp(mV) = 6.29
MSFNUnits = 192
MSFMeanUnitAmp(uV) = 32.8
MSFHuntTime(m) = 2.35
MSFError(%) = 1.69
MSFNLarge = 60.71
MSFMedianAmp(%) = 0.452
MSFMedianAmp(mV) = 0.0285
MSFHalfAmpAmp(%) = 0.605
MSFHalfAmpAmp(mV) = 0.0381
MSFLargestAmp(%) = 1.25
MSFLargestAmp(mV) = 0.0789
MSFMeanRS(%) = 2
MSFOpts = 10106121
MScDuration(min) = 3.9
MSFTraces = 429
MSFSizeLimit(uV) = 15.7
MSFLimitType = 1
MSFSmallestAmp(uV) = 15.9

EXTRA WAVEFORMS


!MScan Model
!192
	1	15.84	0.43	2
	2	16.38	0.36	2
	3	16.71	0.49	2
	4	16.98	0.48	2
	5	17.33	0.58	2
	6	17.65	0.67	2
	7	17.84	0.45	2
	8	18.01	0.46	2
	9	18.12	0.43	2
	10	18.24	0.51	2
	11	18.35	0.5	2
	12	18.49	0.45	2
	13	18.66	0.76	2
	14	18.86	0.83	2
	15	19.06	0.95	2
	16	19.17	0.47	2
	17	19.28	0.47	2
	18	19.4	0.51	2
	19	19.53	0.5	2
	20	19.65	0.56	2
	21	19.77	0.57	2
	22	19.9	0.55	2
	23	20.03	0.63	2
	24	20.19	0.62	2
	25	20.35	0.63	2
	26	20.5	0.59	2
	27	20.66	0.83	2
	28	20.83	0.7	2
	29	21.01	0.83	2
	30	21.17	0.75	2
	31	21.31	0.75	2
	32	21.41	0.57	2
	33	21.51	0.58	2
	34	21.62	0.73	2
	35	21.74	0.83	2
	36	21.85	0.73	2
	37	21.95	0.8	2
	38	22.09	1.09	2
	39	22.23	1.19	2
	40	22.36	1.17	2
	41	22.5	1.25	2
	42	22.62	1.22	2
	43	22.73	1.08	2
	44	22.84	1.16	2
	45	22.94	1.08	2
	46	23.03	1.09	2
	47	23.1	0.75	2
	48	23.17	0.77	2
	49	23.24	0.82	2
	50	23.31	0.8	2
	51	23.36	0.58	2
	52	23.41	0.6	2
	53	23.46	0.61	2
	54	23.49	0.76	2
	55	23.52	0.69	2
	56	23.58	0.75	2
	57	23.64	0.72	2
	58	23.7	0.69	2
	59	23.76	0.67	2
	60	23.83	0.83	2
	61	23.9	0.84	2
	62	23.97	0.81	2
	63	24.04	0.85	2
	64	24.11	0.83	2
	65	24.18	0.82	2
	66	24.25	0.8	2
	67	24.32	0.92	2
	68	24.39	0.61	2
	69	24.54	0.97	2
	70	24.62	0.64	2
	71	24.7	0.78	2
	72	24.78	0.8	2
	73	24.86	0.81	2
	74	24.95	0.79	2
	75	25.04	1	2
	76	25.14	0.95	2
	77	25.23	0.9	2
	78	25.3	0.68	2
	79	25.37	0.64	2
	80	25.44	0.63	2
	81	25.51	0.6	2
	82	25.58	0.6	2
	83	25.65	0.59	2
	84	25.72	0.58	2
	85	25.79	0.58	2
	86	25.86	0.56	2
	87	25.93	0.53	2
	88	26	0.58	2
	89	26.08	0.62	2
	90	26.16	0.58	2
