File:              	C:\Qtrac\Data\Daniel M Sørensen\MScan multicentre study\Data from centres\Ankara\Processed data\HKC10114B.QZD
Name:              	TR.ANK.NC.8.1
Protocol:          	MSCAN-R2
Date:              	14/1/21
Start time:        	18:00:39
Age:               	25
Sex:               	F
Temperature:
S/R sites:         	ADM
NC/disease:        	NC
Operator:          	HA
Comments:
M-SCAN DATA (6.7-2.3m)
Scanpts: 2, 7, 444, 450
Stim. (mA)     	Amp. (mV)
MS.1           	14             	8.931
MS.2           	14             	8.878
MS.3           	14             	8.917
MS.4           	14             	8.891
MS.5           	14             	8.848
MS.6           	14             	8.943
MS.7           	14             	8.884
MS.8           	14             	8.814
MS.9           	14             	8.838
MS.10          	14             	8.758
MS.11          	14             	8.784
MS.12          	14             	8.88
MS.13          	14             	8.826
MS.14          	14             	8.768
MS.15          	14             	8.747
MS.16          	14             	8.617
MS.17          	14             	8.508
MS.18          	14             	8.739
MS.19          	14             	8.733
MS.20          	14             	8.719
MS.21          	14             	8.711
MS.22          	14             	8.699
MS.23          	14             	8.812
MS.24          	13.972         	8.77
MS.25          	13.945         	8.782
MS.26          	13.917         	8.651
MS.27          	13.887         	8.578
MS.28          	13.86          	8.645
MS.29          	13.832         	8.532
MS.30          	13.805         	8.899
MS.31          	13.778         	8.727
MS.32          	13.75          	8.552
MS.33          	13.722         	8.76
MS.34          	13.695         	8.613
MS.35          	13.667         	8.752
MS.36          	13.64          	8.627
MS.37          	13.612         	8.655
MS.38          	13.585         	8.721
MS.39          	13.56          	8.687
MS.40          	13.532         	8.721
MS.41          	13.505         	8.647
MS.42          	13.477         	8.796
MS.43          	13.45          	8.695
MS.44          	13.425         	8.588
MS.45          	13.398         	8.719
MS.46          	13.37          	8.552
MS.47          	13.345         	8.77
MS.48          	13.318         	8.762
MS.49          	13.29          	8.691
MS.50          	13.265         	8.812
MS.51          	13.237         	8.754
MS.52          	13.21          	8.588
MS.53          	13.185         	8.625
MS.54          	13.157         	8.615
MS.55          	13.132         	8.645
MS.56          	13.105         	8.167
MS.57          	13.08          	8.715
MS.58          	13.052         	8.715
MS.59          	13.028         	8.617
MS.60          	13.002         	8.615
MS.61          	12.975         	8.671
MS.62          	12.95          	8.723
MS.63          	12.922         	8.359
MS.64          	12.898         	8.657
MS.65          	12.872         	8.526
MS.66          	12.847         	8.427
MS.67          	12.82          	8.431
MS.68          	12.795         	8.466
MS.69          	12.77          	8.184
MS.70          	12.745         	8.482
MS.71          	12.717         	8.367
MS.72          	12.693         	8.323
MS.73          	12.667         	8.447
MS.74          	12.642         	8.504
MS.75          	12.617         	8.395
MS.76          	12.592         	8.399
MS.77          	12.568         	8.288
MS.78          	12.542         	8.335
MS.79          	12.517         	8.425
MS.80          	12.492         	8.107
MS.81          	12.467         	8.228
MS.82          	12.443         	8.22
MS.83          	12.417         	8.32
MS.84          	12.392         	8.23
MS.85          	12.367         	8.149
MS.86          	12.342         	8.159
MS.87          	12.318         	8.173
MS.88          	12.292         	8.232
MS.89          	12.27          	8.133
MS.90          	12.245         	8.184
MS.91          	12.22          	8.184
MS.92          	12.195         	8.165
MS.93          	12.17          	8.256
MS.94          	12.148         	8.236
MS.95          	12.122         	8.19
MS.96          	12.097         	8.208
MS.97          	12.075         	8.19
MS.98          	12.05          	8.159
MS.99          	12.025         	8.218
MS.100         	12.002         	8.117
MS.101         	11.977         	8.147
MS.102         	11.955         	8.182
MS.103         	11.93          	8.224
MS.104         	11.905         	8.216
MS.105         	11.882         	8.129
MS.106         	11.858         	8.115
MS.107         	11.835         	8.163
MS.108         	11.812         	8.288
MS.109         	11.787         	8.131
MS.110         	11.765         	8.107
MS.111         	11.74          	8.141
MS.112         	11.717         	8.103
MS.113         	11.695         	8.069
MS.114         	11.67          	8.091
MS.115         	11.648         	8.018
MS.116         	11.625         	8.065
MS.117         	11.6           	8.099
MS.118         	11.577         	7.982
MS.119         	11.555         	8.026
MS.120         	11.53          	8.004
MS.121         	11.507         	7.938
MS.122         	11.485         	7.966
MS.123         	11.462         	7.896
MS.124         	11.44          	7.96
MS.125         	11.417         	7.98
MS.126         	11.392         	7.946
MS.127         	11.37          	7.958
MS.128         	11.347         	7.912
MS.129         	11.325         	7.992
MS.130         	11.302         	8.006
MS.131         	11.28          	8
MS.132         	11.257         	7.875
MS.133         	11.235         	7.865
MS.134         	11.212         	7.881
MS.135         	11.19          	7.972
MS.136         	11.167         	7.962
MS.137         	11.145         	7.936
MS.138         	11.122         	7.904
MS.139         	11.1           	7.942
MS.140         	11.08          	7.857
MS.141         	11.057         	7.984
MS.142         	11.035         	7.938
MS.143         	11.012         	7.829
MS.144         	10.99          	7.904
MS.145         	10.97          	7.889
MS.146         	10.948         	7.843
MS.147         	10.925         	7.875
MS.148         	10.903         	7.845
MS.149         	10.882         	7.843
MS.150         	10.86          	7.863
MS.151         	10.837         	7.92
MS.152         	10.818         	7.819
MS.153         	10.795         	7.853
MS.154         	10.773         	7.841
MS.155         	10.752         	7.853
MS.156         	10.73          	7.805
MS.157         	10.707         	7.811
MS.158         	10.688         	7.817
MS.159         	10.665         	7.819
MS.160         	10.645         	7.724
MS.161         	10.622         	7.595
MS.162         	10.602         	7.553
MS.163         	10.58          	7.356
MS.164         	10.56          	7.054
MS.165         	10.537         	7.547
MS.166         	10.517         	7.243
MS.167         	10.497         	7.783
MS.168         	10.475         	7.259
MS.169         	10.455         	7.344
MS.170         	10.435         	7.603
MS.171         	10.412         	7.257
MS.172         	10.392         	7.009
MS.173         	10.372         	6.848
MS.174         	10.35          	7.388
MS.175         	10.33          	7.319
MS.176         	10.31          	6.882
MS.177         	10.29          	7.255
MS.178         	10.267         	6.665
MS.179         	10.247         	6.53
MS.180         	10.227         	7.301
MS.181         	10.207         	6.715
MS.182         	10.188         	6.474
MS.183         	10.165         	6.846
MS.184         	10.145         	6.657
MS.185         	10.125         	6.971
MS.186         	10.105         	6.572
MS.187         	10.085         	6.768
MS.188         	10.065         	7.114
MS.189         	10.045         	5.99
MS.190         	10.025         	5.95
MS.191         	10.005         	5.98
MS.192         	9.985          	5.758
MS.193         	9.965          	6.28
MS.194         	9.945          	5.801
MS.195         	9.925          	5.877
MS.196         	9.905          	6.137
MS.197         	9.885          	5.823
MS.198         	9.865          	5.861
MS.199         	9.845          	6.169
MS.200         	9.825          	5.845
MS.201         	9.807          	5.807
MS.202         	9.787          	5.597
MS.203         	9.767          	5.434
MS.204         	9.747          	5.197
MS.205         	9.727          	5.509
MS.206         	9.71           	5.523
MS.207         	9.69           	5.249
MS.208         	9.67           	5.378
MS.209         	9.65           	5.287
MS.210         	9.632          	5.331
MS.211         	9.613          	5.1
MS.212         	9.592          	5.104
MS.213         	9.575          	5.086
MS.214         	9.555          	4.977
MS.215         	9.535          	5.201
MS.216         	9.517          	4.888
MS.217         	9.497          	4.81
MS.218         	9.48           	4.763
MS.219         	9.46           	4.927
MS.220         	9.44           	4.618
MS.221         	9.422          	4.574
MS.222         	9.403          	4.286
MS.223         	9.385          	4.643
MS.224         	9.365          	4.423
MS.225         	9.347          	4.566
MS.226         	9.327          	4.214
MS.227         	9.31           	4.25
MS.228         	9.29           	4.193
MS.229         	9.273          	4.518
MS.230         	9.255          	4.427
MS.231         	9.235          	3.853
MS.232         	9.217          	4.314
MS.233         	9.198          	3.932
MS.234         	9.18           	4.05
MS.235         	9.162          	4.195
MS.236         	9.142          	3.839
MS.237         	9.125          	3.636
MS.238         	9.108          	4.077
MS.239         	9.09           	3.356
MS.240         	9.07           	3.563
MS.241         	9.052          	3.601
MS.242         	9.035          	3.478
MS.243         	9.017          	3.615
MS.244         	8.997          	3.591
MS.245         	8.98           	3.408
MS.246         	8.962          	3.698
MS.247         	8.945          	3.303
MS.248         	8.927          	3.136
MS.249         	8.91           	3.198
MS.250         	8.89           	3.201
MS.251         	8.872          	3.263
MS.252         	8.855          	3.354
MS.253         	8.837          	3.215
MS.254         	8.82           	3.017
MS.255         	8.802          	2.949
MS.256         	8.785          	3.049
MS.257         	8.767          	2.993
MS.258         	8.75           	2.584
MS.259         	8.733          	2.763
MS.260         	8.715          	2.836
MS.261         	8.698          	2.939
MS.262         	8.68           	2.733
MS.263         	8.662          	2.723
MS.264         	8.645          	2.691
MS.265         	8.627          	2.63
MS.266         	8.61           	2.651
MS.267         	8.595          	2.84
MS.268         	8.577          	2.836
MS.269         	8.56           	2.608
MS.270         	8.542          	2.479
MS.271         	8.525          	2.048
MS.272         	8.507          	2.3
MS.273         	8.492          	2.288
MS.274         	8.475          	2.445
MS.275         	8.457          	2.447
MS.276         	8.44           	2.318
MS.277         	8.425          	2.32
MS.278         	8.408          	2.27
MS.279         	8.39           	1.847
MS.280         	8.372          	2.264
MS.281         	8.358          	2.177
MS.282         	8.34           	2.002
MS.283         	8.323          	1.952
MS.284         	8.307          	2.201
MS.285         	8.29           	1.793
MS.286         	8.273          	1.887
MS.287         	8.257          	1.72
MS.288         	8.24           	1.837
MS.289         	8.225          	1.827
MS.290         	8.207          	1.682
MS.291         	8.19           	1.766
MS.292         	8.175          	1.807
MS.293         	8.158          	1.803
MS.294         	8.142          	1.47
MS.295         	8.125          	1.764
MS.296         	8.11           	1.243
MS.297         	8.092          	1.742
MS.298         	8.077          	1.505
MS.299         	8.06           	1.331
MS.300         	8.045          	1.474
MS.301         	8.03           	1.454
MS.302         	8.012          	1.237
MS.303         	7.997          	1.219
MS.304         	7.98           	1.398
MS.305         	7.965          	1.16
MS.306         	7.95           	1.386
MS.307         	7.932          	1.027
MS.308         	7.918          	1.092
MS.309         	7.902          	1.557
MS.310         	7.885          	1.11
MS.311         	7.87           	1.039
MS.312         	7.855          	0.892
MS.313         	7.837          	0.981
MS.314         	7.822          	0.971
MS.315         	7.807          	1.168
MS.316         	7.793          	0.904
MS.317         	7.775          	0.922
MS.318         	7.76           	0.846
MS.319         	7.745          	1.241
MS.320         	7.73           	0.751
MS.321         	7.715          	0.743
MS.322         	7.697          	0.866
MS.323         	7.682          	0.792
MS.324         	7.668          	0.695
MS.325         	7.652          	0.735
MS.326         	7.637          	0.713
MS.327         	7.622          	0.749
MS.328         	7.607          	0.703
MS.329         	7.592          	0.723
MS.330         	7.577          	0.703
MS.331         	7.562          	0.743
MS.332         	7.547          	0.679
MS.333         	7.53           	0.731
MS.334         	7.515          	0.56
MS.335         	7.5            	0.61
MS.336         	7.485          	0.604
MS.337         	7.47           	0.558
MS.338         	7.457          	0.558
MS.339         	7.442          	0.532
MS.340         	7.427          	0.596
MS.341         	7.412          	0.443
MS.342         	7.398          	0.504
MS.343         	7.382          	0.34
MS.344         	7.367          	0.453
MS.345         	7.352          	0.449
MS.346         	7.337          	0.348
MS.347         	7.322          	0.425
MS.348         	7.307          	0.383
MS.349         	7.295          	0.33
MS.350         	7.28           	0.236
MS.351         	7.265          	0.318
MS.352         	7.25           	0.272
MS.353         	7.235          	0.207
MS.354         	7.222          	0.211
MS.355         	7.207          	0.205
MS.356         	7.192          	0.157
MS.357         	7.177          	0.209
MS.358         	7.165          	0.234
MS.359         	7.15           	0.093
MS.360         	7.135          	0.05
MS.361         	7.12           	0.145
MS.362         	7.108          	0.165
MS.363         	7.092          	0.115
MS.364         	7.077          	0.101
MS.365         	7.065          	0.089
MS.366         	7.05           	0.046
MS.367         	7.035          	0.135
MS.368         	7.023          	0.046
MS.369         	7.007          	0.127
MS.370         	6.995          	0.066
MS.371         	6.98           	0.085
MS.372         	6.965          	0.04
MS.373         	6.952          	0.083
MS.374         	6.938          	0.046
MS.375         	6.925          	0.05
MS.376         	6.91           	0.091
MS.377         	6.898          	0.095
MS.378         	6.882          	0.028
MS.379         	6.87           	0.052
MS.380         	6.855          	0.091
MS.381         	6.842          	0.097
MS.382         	6.827          	0.097
MS.383         	6.815          	0.089
MS.384         	6.8            	0.038
MS.385         	6.787          	0.046
MS.386         	6.775          	0.048
MS.387         	6.76           	0.036
MS.388         	6.747          	0.038
MS.389         	6.733          	0.056
MS.390         	6.72           	0.087
MS.391         	6.707          	0.034
MS.392         	6.692          	0.032
MS.393         	6.68           	0.038
MS.394         	6.665          	0.044
MS.395         	6.652          	0.036
MS.396         	6.64           	0.034
MS.397         	6.628          	0.034
MS.398         	6.612          	0.026
MS.399         	6.6            	0.03
MS.400         	6.587          	0.028
MS.401         	6.572          	0.038
MS.402         	6.56           	0.032
MS.403         	6.547          	0.036
MS.404         	6.535          	0.024
MS.405         	6.52           	0.034
MS.406         	6.507          	0.03
MS.407         	6.495          	0.036
MS.408         	6.483          	0.03
MS.409         	6.47           	0.044
MS.410         	6.457          	0.028
MS.411         	6.442          	0.03
MS.412         	6.43           	0.042
MS.413         	6.418          	0.038
MS.414         	6.405          	0.034
MS.415         	6.392          	0.036
MS.416         	6.38           	0.036
MS.417         	6.367          	0.046
MS.418         	6.355          	0.034
MS.419         	6.34           	0.034
MS.420         	6.327          	0.044
MS.421         	6.315          	0.036
MS.422         	6.302          	0.034
MS.423         	6.29           	0.036
MS.424         	6.277          	0.036
MS.425         	6.265          	0.008
MS.426         	6.253          	0.028
MS.427         	6.24           	0.034
MS.428         	6.227          	0.032
MS.429         	6.215          	0.024
MS.430         	6.202          	0.018
MS.431         	6.19           	0.026
MS.432         	6.177          	0.026
MS.433         	6.165          	0.002
MS.434         	6.152          	0.032
MS.435         	6.142          	0.022
MS.436         	6.13           	0.024
MS.437         	6.117          	0.014
MS.438         	6.105          	0.01
MS.439         	6.092          	0.032
MS.440         	6.08           	0.000
MS.441         	6.067          	0.01
MS.442         	6.055          	0.014
MS.443         	6.045          	-0.002
MS.444         	6.032          	0.01
MS.445         	6.02           	-0.004
MS.446         	6.007          	0.008
MS.447         	5.995          	-0.002
MS.448         	5.985          	0.006
MS.449         	5.972          	0.004
MS.450         	5.96           	-0.006
MS.451         	5.947          	-0.002
MS.452         	5.935          	-0.002
MS.453         	5.925          	0.006
MS.454         	5.912          	-0.002
MS.455         	5.9            	0.002
MS.456         	5.89           	-0.004
MS.457         	5.878          	0.000
MS.458         	5.865          	-0.002
MS.459         	5.852          	-0.008
MS.460         	5.842          	0.002
MS.461         	5.83           	-0.002
MS.462         	5.817          	-0.006
MS.463         	5.807          	-0.004
MS.464         	5.795          	0.002
MS.465         	5.785          	-0.002
MS.466         	5.773          	-0.004
MS.467         	5.76           	-0.004
MS.468         	5.75           	0.000
MS.469         	5.737          	0.002
MS.470         	5.725          	-0.006
MS.471         	5.715          	0.000
MS.472         	5.702          	0.000
MS.473         	5.692          	0.000
MS.474         	5.68           	-0.004
MS.475         	5.67           	0.000
MS.476         	5.657          	-0.004
MS.477         	5.648          	-0.002
MS.478         	5.635          	-0.002
MS.479         	5.625          	-0.002
MS.480         	5.612          	-0.004
MS.481         	5.602          	0.000
MS.482         	5.59           	-0.002
MS.483         	5.58           	-0.004
MS.484         	5.567          	-0.006
MS.485         	5.557          	-0.004
MS.486         	5.545          	-0.002
MS.487         	5.535          	0.002
MS.488         	5.525          	-0.002
MS.489         	5.512          	0.000
MS.490         	5.503          	0.000
MS.491         	5.49           	-0.004
MS.492         	5.48           	-0.002
DERIVED EXCITABILITY VARIABLES
Program = QTracP 3/4/2020
Threshold method = 6 (optimised for CAP, using data for present condition only)
SR method = 1 (using actual data values)
6.                 	0.000               	Peak response\(mV)
17.                	25                  	Age (years)
18.                	2                   	Sex (M=1, F=2)
