File:              	C:\Qtrac\Data\Daniel M Sørensen\MScan multicentre study\Data from centres\Ankara\Processed data\HKC10122A.QZD
Name:              	TR.ANK.NC.8.2
Protocol:          	MSCAN-R2
Date:              	22/1/21
Start time:        	16:34:16
Age:               	25
Sex:               	F
Temperature:
S/R sites:         	APB
NC/disease:        	NC
Operator:          	HA
Comments:
M-SCAN DATA (6.8-1.3m)
Scanpts: 17, 24, 572, 593
Stim. (mA)     	Amp. (mV)
MS.1           	17             	6.006
MS.2           	17             	5.995
MS.3           	17             	6.01
MS.4           	17             	5.989
MS.5           	17             	5.961
MS.6           	17             	5.967
MS.7           	17             	5.968
MS.8           	17             	5.985
MS.9           	17             	5.988
MS.10          	17             	5.986
MS.11          	17             	5.99
MS.12          	17             	6.079
MS.13          	17             	6.012
MS.14          	17             	6.013
MS.15          	17             	6.001
MS.16          	17             	6.013
MS.17          	17             	6.007
MS.18          	17             	6.014
MS.19          	17             	6.014
MS.20          	17             	6.008
MS.21          	17             	6.016
MS.22          	17             	6.017
MS.23          	16.965         	6.029
MS.24          	16.932         	6.041
MS.25          	16.897         	5.887
MS.26          	16.865         	6.024
MS.27          	16.83          	6.003
MS.28          	16.797         	6.017
MS.29          	16.762         	6.035
MS.30          	16.73          	5.9
MS.31          	16.698         	5.913
MS.32          	16.663         	6.041
MS.33          	16.63          	6.061
MS.34          	16.597         	5.927
MS.35          	16.562         	6.061
MS.36          	16.53          	5.935
MS.37          	16.497         	5.939
MS.38          	16.465         	5.929
MS.39          	16.432         	5.947
MS.40          	16.4           	5.94
MS.41          	16.365         	5.945
MS.42          	16.333         	5.936
MS.43          	16.3           	5.957
MS.44          	16.267         	5.955
MS.45          	16.235         	5.925
MS.46          	16.202         	5.925
MS.47          	16.17          	5.919
MS.48          	16.137         	5.936
MS.49          	16.108         	5.929
MS.50          	16.075         	5.911
MS.51          	16.042         	5.925
MS.52          	16.01          	5.919
MS.53          	15.977         	5.929
MS.54          	15.945         	5.944
MS.55          	15.915         	5.946
MS.56          	15.882         	5.933
MS.57          	15.85          	5.934
MS.58          	15.82          	5.955
MS.59          	15.787         	5.942
MS.60          	15.755         	5.935
MS.61          	15.725         	5.956
MS.62          	15.693         	5.927
MS.63          	15.662         	5.94
MS.64          	15.63          	5.951
MS.65          	15.6           	5.959
MS.66          	15.568         	5.946
MS.67          	15.537         	5.929
MS.68          	15.505         	5.952
MS.69          	15.475         	5.953
MS.70          	15.445         	5.97
MS.71          	15.412         	5.966
MS.72          	15.382         	5.97
MS.73          	15.352         	5.975
MS.74          	15.32          	5.999
MS.75          	15.29          	5.995
MS.76          	15.26          	5.997
MS.77          	15.23          	6.002
MS.78          	15.2           	6.028
MS.79          	15.167         	6.034
MS.80          	15.137         	6.042
MS.81          	15.108         	6.041
MS.82          	15.077         	6.057
MS.83          	15.047         	6.061
MS.84          	15.017         	6.086
MS.85          	14.987         	6.1
MS.86          	14.957         	6.04
MS.87          	14.927         	6.005
MS.88          	14.898         	5.863
MS.89          	14.867         	5.94
MS.90          	14.837         	5.931
MS.91          	14.807         	5.917
MS.92          	14.78          	5.82
MS.93          	14.75          	5.944
MS.94          	14.72          	5.942
MS.95          	14.69          	5.864
MS.96          	14.662         	5.865
MS.97          	14.632         	5.85
MS.98          	14.602         	5.876
MS.99          	14.572         	5.87
MS.100         	14.545         	5.872
MS.101         	14.515         	5.879
MS.102         	14.487         	5.879
MS.103         	14.457         	5.984
MS.104         	14.427         	5.887
MS.105         	14.4           	5.894
MS.106         	14.37          	5.89
MS.107         	14.342         	5.903
MS.108         	14.312         	5.9
MS.109         	14.285         	5.707
MS.110         	14.257         	5.873
MS.111         	14.227         	5.98
MS.112         	14.2           	5.717
MS.113         	14.17          	5.887
MS.114         	14.142         	5.691
MS.115         	14.115         	5.688
MS.116         	14.087         	5.679
MS.117         	14.057         	5.974
MS.118         	14.03          	5.697
MS.119         	14.002         	5.707
MS.120         	13.975         	5.695
MS.121         	13.947         	5.703
MS.122         	13.917         	5.697
MS.123         	13.89          	5.687
MS.124         	13.862         	5.704
MS.125         	13.835         	5.703
MS.126         	13.807         	5.902
MS.127         	13.78          	5.707
MS.128         	13.752         	5.704
MS.129         	13.725         	5.901
MS.130         	13.697         	5.713
MS.131         	13.67          	5.697
MS.132         	13.642         	5.67
MS.133         	13.615         	5.66
MS.134         	13.587         	5.699
MS.135         	13.56          	5.697
MS.136         	13.535         	5.698
MS.137         	13.507         	5.668
MS.138         	13.48          	5.685
MS.139         	13.452         	5.719
MS.140         	13.427         	5.546
MS.141         	13.4           	5.688
MS.142         	13.372         	5.687
MS.143         	13.345         	5.673
MS.144         	13.32          	5.667
MS.145         	13.292         	5.675
MS.146         	13.265         	5.703
MS.147         	13.24          	5.695
MS.148         	13.212         	5.686
MS.149         	13.188         	5.696
MS.150         	13.16          	5.675
MS.151         	13.135         	5.71
MS.152         	13.108         	5.734
MS.153         	13.082         	5.73
MS.154         	13.055         	5.602
MS.155         	13.03          	5.686
MS.156         	13.002         	5.721
MS.157         	12.977         	5.706
MS.158         	12.952         	5.526
MS.159         	12.925         	5.503
MS.160         	12.9           	5.643
MS.161         	12.875         	5.646
MS.162         	12.847         	5.625
MS.163         	12.822         	5.529
MS.164         	12.797         	5.569
MS.165         	12.773         	5.562
MS.166         	12.745         	5.437
MS.167         	12.72          	5.593
MS.168         	12.695         	5.568
MS.169         	12.67          	5.47
MS.170         	12.645         	5.444
MS.171         	12.62          	5.411
MS.172         	12.595         	5.449
MS.173         	12.568         	5.414
MS.174         	12.542         	5.406
MS.175         	12.517         	5.403
MS.176         	12.492         	5.458
MS.177         	12.467         	5.41
MS.178         	12.443         	5.365
MS.179         	12.42          	5.422
MS.180         	12.395         	5.428
MS.181         	12.37          	5.439
MS.182         	12.345         	5.35
MS.183         	12.32          	5.293
MS.184         	12.295         	5.364
MS.185         	12.27          	5.372
MS.186         	12.245         	5.389
MS.187         	12.222         	5.449
MS.188         	12.197         	5.413
MS.189         	12.172         	5.309
MS.190         	12.148         	5.3
MS.191         	12.125         	5.199
MS.192         	12.1           	5.255
MS.193         	12.075         	5.135
MS.194         	12.052         	5.284
MS.195         	12.028         	5.189
MS.196         	12.002         	5.247
MS.197         	11.98          	5.144
MS.198         	11.955         	5.076
MS.199         	11.932         	5.195
MS.200         	11.907         	4.86
MS.201         	11.885         	5.11
MS.202         	11.86          	4.886
MS.203         	11.837         	4.794
MS.204         	11.812         	5.182
MS.205         	11.79          	4.915
MS.206         	11.765         	4.979
MS.207         	11.742         	4.972
MS.208         	11.72          	4.559
MS.209         	11.695         	4.526
MS.210         	11.672         	4.994
MS.211         	11.65          	4.818
MS.212         	11.625         	4.979
MS.213         	11.602         	4.839
MS.214         	11.58          	4.929
MS.215         	11.555         	4.617
MS.216         	11.532         	4.418
MS.217         	11.51          	4.666
MS.218         	11.488         	4.126
MS.219         	11.465         	4.434
MS.220         	11.44          	4.36
MS.221         	11.417         	4.865
MS.222         	11.395         	4.458
MS.223         	11.372         	4.403
MS.224         	11.35          	4.265
MS.225         	11.327         	3.989
MS.226         	11.305         	4.131
MS.227         	11.282         	4.32
MS.228         	11.26          	4.049
MS.229         	11.238         	4.126
MS.230         	11.215         	4.248
MS.231         	11.193         	3.898
MS.232         	11.17          	3.827
MS.233         	11.148         	3.64
MS.234         	11.125         	3.933
MS.235         	11.102         	3.746
MS.236         	11.08          	3.934
MS.237         	11.057         	3.812
MS.238         	11.037         	3.436
MS.239         	11.015         	3.684
MS.240         	10.992         	3.585
MS.241         	10.97          	3.593
MS.242         	10.948         	3.148
MS.243         	10.927         	3.099
MS.244         	10.905         	3.116
MS.245         	10.882         	3.223
MS.246         	10.863         	2.882
MS.247         	10.84          	3.407
MS.248         	10.818         	2.998
MS.249         	10.797         	3.306
MS.250         	10.775         	3.246
MS.251         	10.752         	3.003
MS.252         	10.733         	3.016
MS.253         	10.71          	2.793
MS.254         	10.69          	3.03
MS.255         	10.667         	2.737
MS.256         	10.648         	2.742
MS.257         	10.625         	2.605
MS.258         	10.605         	2.863
MS.259         	10.582         	2.888
MS.260         	10.562         	2.632
MS.261         	10.54          	2.865
MS.262         	10.52          	2.556
MS.263         	10.497         	2.594
MS.264         	10.477         	2.775
MS.265         	10.457         	2.484
MS.266         	10.435         	2.432
MS.267         	10.415         	2.405
MS.268         	10.395         	2.404
MS.269         	10.372         	2.229
MS.270         	10.352         	2.271
MS.271         	10.332         	2.523
MS.272         	10.31          	2.2
MS.273         	10.29          	2.286
MS.274         	10.27          	2.247
MS.275         	10.25          	2.098
MS.276         	10.23          	2.26
MS.277         	10.207         	2.229
MS.278         	10.188         	2.131
MS.279         	10.167         	2.271
MS.280         	10.148         	2.108
MS.281         	10.127         	2.247
MS.282         	10.108         	2.338
MS.283         	10.087         	2.151
MS.284         	10.068         	2.006
MS.285         	10.047         	2.181
MS.286         	10.028         	2.048
MS.287         	10.007         	1.967
MS.288         	9.988          	1.896
MS.289         	9.967          	1.959
MS.290         	9.948          	1.936
MS.291         	9.927          	2.034
MS.292         	9.907          	1.833
MS.293         	9.887          	1.949
MS.294         	9.867          	2.101
MS.295         	9.847          	1.912
MS.296         	9.827          	1.903
MS.297         	9.807          	1.779
MS.298         	9.787          	1.877
MS.299         	9.77           	1.809
MS.300         	9.75           	1.808
MS.301         	9.73           	1.815
MS.302         	9.71           	1.836
MS.303         	9.69           	1.741
MS.304         	9.672          	1.783
MS.305         	9.653          	1.732
MS.306         	9.632          	1.71
MS.307         	9.615          	1.655
MS.308         	9.595          	1.654
MS.309         	9.575          	1.602
MS.310         	9.557          	1.688
MS.311         	9.537          	1.639
MS.312         	9.517          	1.667
MS.313         	9.5            	1.604
MS.314         	9.48           	1.581
MS.315         	9.462          	1.591
MS.316         	9.443          	1.681
MS.317         	9.422          	1.605
MS.318         	9.405          	1.63
MS.319         	9.385          	1.566
MS.320         	9.367          	1.6
MS.321         	9.347          	1.61
MS.322         	9.33           	1.561
MS.323         	9.31           	1.536
MS.324         	9.292          	1.588
MS.325         	9.275          	1.576
MS.326         	9.255          	1.598
MS.327         	9.238          	1.542
MS.328         	9.217          	1.516
MS.329         	9.2            	1.517
MS.330         	9.182          	1.605
MS.331         	9.162          	1.39
MS.332         	9.145          	1.504
MS.333         	9.127          	1.483
MS.334         	9.108          	1.449
MS.335         	9.09           	1.478
MS.336         	9.073          	1.304
MS.337         	9.055          	1.324
MS.338         	9.035          	1.249
MS.339         	9.017          	1.246
MS.340         	9              	1.323
MS.341         	8.983          	1.367
MS.342         	8.965          	1.162
MS.343         	8.945          	1.088
MS.344         	8.927          	1.035
MS.345         	8.91           	1.276
MS.346         	8.892          	1.123
MS.347         	8.875          	0.947
MS.348         	8.858          	1.121
MS.349         	8.84           	0.984
MS.350         	8.823          	1.029
MS.351         	8.805          	1.057
MS.352         	8.787          	1.116
MS.353         	8.77           	0.977
MS.354         	8.752          	0.986
MS.355         	8.735          	1.001
MS.356         	8.717          	0.977
MS.357         	8.7            	0.924
MS.358         	8.682          	0.779
MS.359         	8.665          	0.88
MS.360         	8.648          	0.902
MS.361         	8.63           	0.75
MS.362         	8.613          	0.702
MS.363         	8.595          	0.746
MS.364         	8.577          	0.743
MS.365         	8.56           	0.702
MS.366         	8.545          	0.784
MS.367         	8.528          	0.632
MS.368         	8.51           	0.691
MS.369         	8.492          	0.703
MS.370         	8.475          	0.643
MS.371         	8.46           	0.491
MS.372         	8.443          	0.658
MS.373         	8.425          	0.637
MS.374         	8.408          	0.592
MS.375         	8.392          	0.615
MS.376         	8.375          	0.634
MS.377         	8.358          	0.648
MS.378         	8.342          	0.585
MS.379         	8.325          	0.553
MS.380         	8.307          	0.569
MS.381         	8.292          	0.553
MS.382         	8.275          	0.59
MS.383         	8.257          	0.507
MS.384         	8.242          	0.424
MS.385         	8.225          	0.459
MS.386         	8.21           	0.47
MS.387         	8.193          	0.574
MS.388         	8.175          	0.447
MS.389         	8.16           	0.627
MS.390         	8.142          	0.536
MS.391         	8.127          	0.592
MS.392         	8.11           	0.493
MS.393         	8.095          	0.471
MS.394         	8.077          	0.391
MS.395         	8.062          	0.486
MS.396         	8.047          	0.53
MS.397         	8.03           	0.406
MS.398         	8.015          	0.49
MS.399         	7.997          	0.42
MS.400         	7.982          	0.281
MS.401         	7.965          	0.214
MS.402         	7.95           	0.229
MS.403         	7.935          	0.452
MS.404         	7.918          	0.32
MS.405         	7.902          	0.419
MS.406         	7.887          	0.287
MS.407         	7.87           	0.261
MS.408         	7.855          	0.166
MS.409         	7.84           	0.326
MS.410         	7.825          	0.197
MS.411         	7.807          	0.35
MS.412         	7.793          	0.203
MS.413         	7.777          	0.21
MS.414         	7.762          	0.12
MS.415         	7.747          	0.109
MS.416         	7.73           	0.105
MS.417         	7.715          	0.155
MS.418         	7.7            	0.262
MS.419         	7.685          	0.112
MS.420         	7.67           	0.104
MS.421         	7.655          	0.109
MS.422         	7.637          	0.1
MS.423         	7.622          	0.093
MS.424         	7.607          	0.1
MS.425         	7.592          	0.112
MS.426         	7.577          	0.134
MS.427         	7.562          	0.082
MS.428         	7.547          	0.096
MS.429         	7.532          	0.105
MS.430         	7.517          	0.09
MS.431         	7.503          	0.111
MS.432         	7.487          	0.094
MS.433         	7.472          	0.09
MS.434         	7.457          	0.092
MS.435         	7.442          	0.094
MS.436         	7.427          	0.093
MS.437         	7.412          	0.089
MS.438         	7.398          	0.09
MS.439         	7.382          	0.095
MS.440         	7.367          	0.093
MS.441         	7.355          	0.088
MS.442         	7.34           	0.073
MS.443         	7.325          	0.088
MS.444         	7.31           	0.089
MS.445         	7.295          	0.072
MS.446         	7.28           	0.09
MS.447         	7.265          	0.068
MS.448         	7.253          	0.067
MS.449         	7.237          	0.088
MS.450         	7.222          	0.07
MS.451         	7.207          	0.054
MS.452         	7.195          	0.089
MS.453         	7.18           	0.084
MS.454         	7.165          	0.052
MS.455         	7.15           	0.05
MS.456         	7.137          	0.089
MS.457         	7.122          	0.049
MS.458         	7.108          	0.068
MS.459         	7.092          	0.055
MS.460         	7.08           	0.07
MS.461         	7.065          	0.049
MS.462         	7.052          	0.052
MS.463         	7.037          	0.051
MS.464         	7.023          	0.051
MS.465         	7.01           	0.071
MS.466         	6.995          	0.05
MS.467         	6.98           	0.051
MS.468         	6.967          	0.05
MS.469         	6.952          	0.054
MS.470         	6.94           	0.055
MS.471         	6.925          	0.05
MS.472         	6.912          	0.052
MS.473         	6.898          	0.054
MS.474         	6.885          	0.071
MS.475         	6.87           	0.057
MS.476         	6.858          	0.054
MS.477         	6.842          	0.054
MS.478         	6.83           	0.055
MS.479         	6.815          	0.056
MS.480         	6.802          	0.052
MS.481         	6.787          	0.052
MS.482         	6.775          	0.054
MS.483         	6.762          	0.052
MS.484         	6.747          	0.056
MS.485         	6.735          	0.056
MS.486         	6.72           	0.052
MS.487         	6.707          	0.054
MS.488         	6.695          	0.054
MS.489         	6.68           	0.056
MS.490         	6.668          	0.057
MS.491         	6.655          	0.059
MS.492         	6.64           	0.056
MS.493         	6.628          	0.055
MS.494         	6.615          	0.057
MS.495         	6.6            	0.054
MS.496         	6.587          	0.06
MS.497         	6.575          	0.059
MS.498         	6.562          	0.054
MS.499         	6.547          	0.055
MS.500         	6.535          	0.057
MS.501         	6.523          	0.052
MS.502         	6.51           	0.05
