File:              	C:\Qtrac\Data\Daniel M Sørensen\MScan multicentre study\Data from centres\Ankara\Processed data\IAC10113B.QZD
Name:              	TR.ANK.NC.9.1
Protocol:          	MSCAN-R2
Date:              	13/1/21
Start time:        	14:13:20
Age:               	27
Sex:               	m
Temperature:
S/R sites:         	ADM
NC/disease:        	NC
Operator:          	eb
Comments:
M-SCAN DATA (5.1-1.4m)
Scanpts: 4, 8, 403, 424
Stim. (mA)     	Amp. (mV)
MS.1           	36             	10.961
MS.2           	36             	11.009
MS.3           	36             	11.001
MS.4           	36             	11.052
MS.5           	36             	10.971
MS.6           	36             	10.995
MS.7           	36             	10.965
MS.8           	36             	10.872
MS.9           	36             	10.947
MS.10          	36             	10.923
MS.11          	36             	10.929
MS.12          	36             	10.897
MS.13          	36             	10.895
MS.14          	36             	10.917
MS.15          	36             	10.983
MS.16          	36             	10.883
MS.17          	36             	10.999
MS.18          	36             	10.921
MS.19          	36             	10.858
MS.20          	36             	10.792
MS.21          	36             	10.766
MS.22          	36             	10.955
MS.23          	36             	10.963
MS.24          	35.927         	10.854
MS.25          	35.857         	10.85
MS.26          	35.785         	10.828
MS.27          	35.712         	10.927
MS.28          	35.642         	10.975
MS.29          	35.57          	10.87
MS.30          	35.5           	10.856
MS.31          	35.427         	10.854
MS.32          	35.357         	10.899
MS.33          	35.287         	10.885
MS.34          	35.217         	10.947
MS.35          	35.147         	10.945
MS.36          	35.075         	11.048
MS.37          	35.005         	10.991
MS.38          	34.935         	11.003
MS.39          	34.865         	10.971
MS.40          	34.798         	10.903
MS.41          	34.728         	11.013
MS.42          	34.657         	10.987
MS.43          	34.587         	10.971
MS.44          	34.52          	10.931
MS.45          	34.45          	10.905
MS.46          	34.382         	10.933
MS.47          	34.312         	10.885
MS.48          	34.245         	10.83
MS.49          	34.175         	10.905
MS.50          	34.107         	10.911
MS.51          	34.04          	10.88
MS.52          	33.972         	10.814
MS.53          	33.903         	10.911
MS.54          	33.835         	10.913
MS.55          	33.767         	11.017
MS.56          	33.7           	11.021
MS.57          	33.632         	10.951
MS.58          	33.565         	10.764
MS.59          	33.5           	10.601
MS.60          	33.432         	10.846
MS.61          	33.365         	10.792
MS.62          	33.298         	10.558
MS.63          	33.232         	10.737
MS.64          	33.165         	10.717
MS.65          	33.1           	10.784
MS.66          	33.032         	10.806
MS.67          	32.967         	10.727
MS.68          	32.903         	10.629
MS.69          	32.835         	10.427
MS.70          	32.77          	10.502
MS.71          	32.705         	10.218
MS.72          	32.64          	10.468
MS.73          	32.575         	10.312
MS.74          	32.51          	10.278
MS.75          	32.445         	10.3
MS.76          	32.38          	10.264
MS.77          	32.315         	10.2
MS.78          	32.25          	10.103
MS.79          	32.185         	10.091
MS.80          	32.122         	9.841
MS.81          	32.057         	9.62
MS.82          	31.992         	10.145
MS.83          	31.93          	9.769
MS.84          	31.865         	9.599
MS.85          	31.802         	9.839
MS.86          	31.737         	9.634
MS.87          	31.675         	9.432
MS.88          	31.612         	9.45
MS.89          	31.547         	9.495
MS.90          	31.485         	9.416
MS.91          	31.422         	9.541
MS.92          	31.36          	9.485
MS.93          	31.297         	9.487
MS.94          	31.235         	9.328
MS.95          	31.172         	9.094
MS.96          	31.11          	9.04
MS.97          	31.047         	8.971
MS.98          	30.985         	9.114
MS.99          	30.922         	8.548
MS.100         	30.862         	9.044
MS.101         	30.8           	9.034
MS.102         	30.737         	8.76
MS.103         	30.677         	8.766
MS.104         	30.615         	8.564
MS.105         	30.555         	8.667
MS.106         	30.492         	8.782
MS.107         	30.432         	8.697
MS.108         	30.372         	8.671
MS.109         	30.31          	8.518
MS.110         	30.25          	8.508
MS.111         	30.19          	8.377
MS.112         	30.13          	8.316
MS.113         	30.07          	8.061
MS.114         	30.01          	8.23
MS.115         	29.95          	8.252
MS.116         	29.89          	8.075
MS.117         	29.83          	8.184
MS.118         	29.77          	7.863
MS.119         	29.71          	8.093
MS.120         	29.653         	7.684
MS.121         	29.592         	8.075
MS.122         	29.532         	7.904
MS.123         	29.475         	7.189
MS.124         	29.415         	7.73
MS.125         	29.358         	7.138
MS.126         	29.297         	7.603
MS.127         	29.24          	7.078
MS.128         	29.18          	7.227
MS.129         	29.122         	7.007
MS.130         	29.065         	7.342
MS.131         	29.007         	7.45
MS.132         	28.948         	6.995
MS.133         	28.89          	6.562
MS.134         	28.832         	6.333
MS.135         	28.775         	6.671
MS.136         	28.717         	6.514
MS.137         	28.66          	6.568
MS.138         	28.602         	6.621
MS.139         	28.545         	6.083
MS.140         	28.49          	6.411
MS.141         	28.432         	6.165
MS.142         	28.375         	6.274
MS.143         	28.317         	6.324
MS.144         	28.262         	6.196
MS.145         	28.205         	5.71
MS.146         	28.15          	5.799
MS.147         	28.092         	5.722
MS.148         	28.037         	5.593
MS.149         	27.98          	5.758
MS.150         	27.925         	5.398
MS.151         	27.87          	5.656
MS.152         	27.812         	5.535
MS.153         	27.757         	5.331
MS.154         	27.702         	5.279
MS.155         	27.647         	4.981
MS.156         	27.592         	5.066
MS.157         	27.537         	4.945
MS.158         	27.483         	4.917
MS.159         	27.427         	4.709
MS.160         	27.372         	4.475
MS.161         	27.317         	4.635
MS.162         	27.262         	4.804
MS.163         	27.207         	4.473
MS.164         	27.155         	4.423
MS.165         	27.1           	4.53
MS.166         	27.045         	4.471
MS.167         	26.993         	4.417
MS.168         	26.938         	4.389
MS.169         	26.882         	4.361
MS.170         	26.83          	4.04
MS.171         	26.778         	4.151
MS.172         	26.722         	4.077
MS.173         	26.67          	3.817
MS.174         	26.615         	3.71
MS.175         	26.562         	3.704
MS.176         	26.51          	3.289
MS.177         	26.457         	3.166
MS.178         	26.405         	3.39
MS.179         	26.352         	3.48
MS.180         	26.297         	3.386
MS.181         	26.245         	3.509
MS.182         	26.192         	3.317
MS.183         	26.142         	3.297
MS.184         	26.09          	3.384
MS.185         	26.037         	3.098
MS.186         	25.985         	3.18
MS.187         	25.932         	2.769
MS.188         	25.882         	2.959
MS.189         	25.83          	2.975
MS.190         	25.778         	2.518
MS.191         	25.727         	2.735
MS.192         	25.675         	2.576
MS.193         	25.622         	2.806
MS.194         	25.573         	2.58
MS.195         	25.522         	2.574
MS.196         	25.47          	2.445
MS.197         	25.42          	2.596
MS.198         	25.37          	2.264
MS.199         	25.317         	2.55
MS.200         	25.267         	2.318
MS.201         	25.217         	2.332
MS.202         	25.167         	2.141
MS.203         	25.118         	2.012
MS.204         	25.065         	2.226
MS.205         	25.015         	2.409
MS.206         	24.965         	2.046
MS.207         	24.915         	1.964
MS.208         	24.868         	1.958
MS.209         	24.817         	1.976
MS.210         	24.767         	1.865
MS.211         	24.717         	1.881
MS.212         	24.667         	1.829
MS.213         	24.62          	1.785
MS.214         	24.57          	1.754
MS.215         	24.52          	1.785
MS.216         	24.472         	1.682
MS.217         	24.422         	2.018
MS.218         	24.375         	1.752
MS.219         	24.325         	1.638
MS.220         	24.278         	1.601
MS.221         	24.227         	1.436
MS.222         	24.18          	1.531
MS.223         	24.132         	1.644
MS.224         	24.082         	1.492
MS.225         	24.035         	1.337
MS.226         	23.987         	1.319
MS.227         	23.94          	1.392
MS.228         	23.892         	1.39
MS.229         	23.842         	1.37
MS.230         	23.795         	1.251
MS.231         	23.747         	1.192
MS.232         	23.7           	1.317
MS.233         	23.653         	1.432
MS.234         	23.608         	1.378
MS.235         	23.56          	1.223
MS.236         	23.512         	1.144
MS.237         	23.465         	1.18
MS.238         	23.417         	1.281
MS.239         	23.372         	1.162
MS.240         	23.325         	1.086
MS.241         	23.278         	1.057
MS.242         	23.233         	1.146
MS.243         	23.185         	1.005
MS.244         	23.14          	1.223
MS.245         	23.092         	0.935
MS.246         	23.047         	1.055
MS.247         	23             	0.951
MS.248         	22.955         	1.005
MS.249         	22.91          	0.979
MS.250         	22.862         	0.924
MS.251         	22.817         	1.029
MS.252         	22.772         	0.81
MS.253         	22.725         	0.792
MS.254         	22.68          	0.751
MS.255         	22.635         	0.79
MS.256         	22.59          	0.794
MS.257         	22.545         	0.808
MS.258         	22.5           	0.751
MS.259         	22.455         	0.737
MS.260         	22.41          	0.852
MS.261         	22.365         	0.852
MS.262         	22.32          	0.653
MS.263         	22.275         	0.687
MS.264         	22.233         	0.775
MS.265         	22.188         	0.828
MS.266         	22.142         	0.743
MS.267         	22.097         	0.689
MS.268         	22.055         	0.671
MS.269         	22.01          	0.777
MS.270         	21.967         	0.82
MS.271         	21.922         	0.856
MS.272         	21.88          	0.88
MS.273         	21.835         	0.86
MS.274         	21.792         	0.818
MS.275         	21.747         	0.812
MS.276         	21.705         	0.771
MS.277         	21.66          	0.747
MS.278         	21.618         	0.777
MS.279         	21.575         	0.757
MS.280         	21.532         	0.745
MS.281         	21.487         	0.9
MS.282         	21.445         	0.709
MS.283         	21.403         	0.687
MS.284         	21.36          	0.709
MS.285         	21.317         	0.693
MS.286         	21.275         	0.715
MS.287         	21.233         	0.683
MS.288         	21.19          	0.63
MS.289         	21.147         	0.649
MS.290         	21.105         	0.677
MS.291         	21.062         	0.657
MS.292         	21.02          	0.578
MS.293         	20.98          	0.657
MS.294         	20.938         	0.681
MS.295         	20.895         	0.655
MS.296         	20.852         	0.677
MS.297         	20.812         	0.63
MS.298         	20.77          	0.653
MS.299         	20.727         	0.588
MS.300         	20.688         	0.614
MS.301         	20.645         	0.614
MS.302         	20.605         	0.536
MS.303         	20.562         	0.564
MS.304         	20.522         	0.558
MS.305         	20.483         	0.556
MS.306         	20.44          	0.449
MS.307         	20.4           	0.574
MS.308         	20.36          	0.542
MS.309         	20.317         	0.57
MS.310         	20.278         	0.586
MS.311         	20.237         	0.423
MS.312         	20.198         	0.409
MS.313         	20.157         	0.538
MS.314         	20.115         	0.53
MS.315         	20.075         	0.52
MS.316         	20.035         	0.524
MS.317         	19.995         	0.429
MS.318         	19.955         	0.522
MS.319         	19.915         	0.361
MS.320         	19.875         	0.407
MS.321         	19.837         	0.427
MS.322         	19.797         	0.322
MS.323         	19.757         	0.441
MS.324         	19.717         	0.397
MS.325         	19.677         	0.465
MS.326         	19.64          	0.459
MS.327         	19.6           	0.371
MS.328         	19.56          	0.421
MS.329         	19.522         	0.324
MS.330         	19.483         	0.189
MS.331         	19.442         	0.294
MS.332         	19.405         	0.177
MS.333         	19.365         	0.264
MS.334         	19.327         	0.28
MS.335         	19.288         	0.161
MS.336         	19.25          	0.274
MS.337         	19.212         	0.272
MS.338         	19.172         	0.123
MS.339         	19.135         	0.189
MS.340         	19.097         	0.097
MS.341         	19.057         	0.107
MS.342         	19.02          	0.081
MS.343         	18.983         	0.203
MS.344         	18.945         	0.171
MS.345         	18.907         	0.101
MS.346         	18.87          	0.046
MS.347         	18.833         	0.145
MS.348         	18.792         	0.097
MS.349         	18.755         	0.077
MS.350         	18.717         	0.081
MS.351         	18.68          	0.131
MS.352         	18.645         	0.042
MS.353         	18.608         	0.115
MS.354         	18.57          	0.095
MS.355         	18.532         	0.085
MS.356         	18.495         	0.048
MS.357         	18.458         	0.048
MS.358         	18.422         	0.012
MS.359         	18.385         	0.028
MS.360         	18.347         	0.062
MS.361         	18.312         	0.038
MS.362         	18.275         	0.024
MS.363         	18.237         	0.012
MS.364         	18.202         	0.026
MS.365         	18.165         	0.014
MS.366         	18.13          	0.054
MS.367         	18.092         	0.01
MS.368         	18.057         	0.012
MS.369         	18.02          	0.024
MS.370         	17.985         	0.018
MS.371         	17.948         	0.02
MS.372         	17.913         	0.026
MS.373         	17.878         	0.044
MS.374         	17.842         	0.008
MS.375         	17.805         	0.008
MS.376         	17.77          	0.01
MS.377         	17.735         	0.01
MS.378         	17.7           	0.014
MS.379         	17.665         	0.012
MS.380         	17.628         	0.02
MS.381         	17.592         	0.01
MS.382         	17.557         	0.012
MS.383         	17.522         	0.012
MS.384         	17.487         	0.008
MS.385         	17.452         	0.024
MS.386         	17.417         	0.012
MS.387         	17.382         	0.006
MS.388         	17.347         	0.006
MS.389         	17.315         	0.01
MS.390         	17.28          	0.012
MS.391         	17.245         	0.026
MS.392         	17.21          	0.008
MS.393         	17.175         	0.012
MS.394         	17.142         	0.01
MS.395         	17.108         	0.014
MS.396         	17.073         	0.006
MS.397         	17.04          	0.01
MS.398         	17.005         	0.006
MS.399         	16.97          	0.006
MS.400         	16.938         	0.01
MS.401         	16.903         	0.01
MS.402         	16.87          	0.006
MS.403         	16.835         	0.01
MS.404         	16.802         	0.012
MS.405         	16.77          	0.01
MS.406         	16.735         	0.006
MS.407         	16.702         	0.008
MS.408         	16.667         	0.01
MS.409         	16.635         	0.008
MS.410         	16.602         	0.01
MS.411         	16.57          	0.01
MS.412         	16.535         	0.008
MS.413         	16.503         	0.01
MS.414         	16.47          	0.01
MS.415         	16.438         	0.01
MS.416         	16.405         	0.006
MS.417         	16.37          	0.008
MS.418         	16.337         	0.008
MS.419         	16.305         	0.008
MS.420         	16.272         	0.008
MS.421         	16.24          	0.01
MS.422         	16.208         	0.006
MS.423         	16.175         	0.006
MS.424         	16.142         	0.006
DERIVED EXCITABILITY VARIABLES
Program = QTracP 3/4/2020
Threshold method = 6 (optimised for CAP, using data for present condition only)
SR method = 1 (using actual data values)
6.                 	0.000               	Peak response\(mV)
17.                	27                  	Age (years)
18.                	1                   	Sex (M=1, F=2)

EXTRA VARIABLES

MScPeak(mV) = 10.92
MScS5(mA) = 20.44
MScS50(mA) = 27.88
MScS95(mA) = 32.67
MScNSteps = 4
MScSteps(%) = 9.9
MScStepMax(%) = 3
MScD50 = 41
MScSlope = 6.46
MSFPeakAmp(mV) = 11
MSFNUnits = 136
MSFMeanUnitAmp(uV) = 80.6
MSFHuntTime(m) = 1.84
MSFError(%) = 5.33
MSFNLarge = 50.61
MSFMedianAmp(%) = 0.684
MSFMedianAmp(mV) = 0.075
MSFHalfAmpAmp(%) = 0.781
MSFHalfAmpAmp(mV) = 0.0856
MSFLargestAmp(%) = 1.54
MSFLargestAmp(mV) = 0.169
MSFMeanRS(%) = 2
MSFOpts = 10106121
MScDuration(min) = 3.7
MSFTraces = 421
MSFSizeLimit(uV) = 27.4
MSFLimitType = 1
MSFSmallestAmp(uV) = 33.4

EXTRA WAVEFORMS


!MScan Model
!136
	1	18.31	0.35	2
	2	18.63	0.3	2
	3	18.92	0.5	2
	4	19.13	0.45	2
	5	19.27	0.5	2
	6	19.43	0.44	2
	7	19.58	0.51	2
	8	19.79	0.6	2
	9	20.14	0.79	2
	10	20.42	0.6	2
	11	20.7	0.43	2
	12	20.94	0.41	2
	13	21.2	0.48	2
	14	21.47	0.45	2
	15	22.55	0.9	2
	16	22.72	0.41	2
	17	22.86	0.46	2
	18	22.96	0.36	2
	19	23.08	0.52	2
	20	23.21	0.54	2
	21	23.37	0.69	2
	22	23.56	0.72	2
	23	23.74	0.83	2
	24	23.88	0.7	2
	25	24.01	0.72	2
	26	24.14	0.62	2
	27	24.25	0.61	2
	28	24.35	0.51	2
	29	24.44	0.62	2
	30	24.54	0.67	2
	31	24.64	0.68	2
	32	24.74	0.67	2
	33	24.84	0.66	2
	34	24.94	0.67	2
	35	25.02	0.53	2
	36	25.11	0.56	2
	37	25.19	0.64	2
	38	25.28	0.69	2
	39	25.36	0.75	2
	40	25.43	0.72	2
	41	25.49	0.47	2
	42	25.54	0.46	2
	43	25.6	0.5	2
	44	25.65	0.54	2
	45	25.71	0.56	2
	46	25.8	0.89	2
	47	25.93	0.97	2
	48	26.01	0.81	2
	49	26.1	0.88	2
	50	26.18	1.04	2
	51	26.26	0.9	2
	52	26.33	0.82	2
	53	26.4	0.85	2
	54	26.46	0.9	2
	55	26.55	0.94	2
	56	26.63	0.89	2
	57	26.71	0.86	2
	58	26.79	0.9	2
	59	26.85	0.64	2
	60	26.92	0.69	2
	61	26.98	0.73	2
	62	27.03	0.59	2
	63	27.08	0.64	2
	64	27.12	0.68	2
	65	27.17	0.67	2
	66	27.21	0.66	2
	67	27.26	0.65	2
	68	27.3	0.54	2
	69	27.35	0.57	2
	70	27.4	0.59	2
	71	27.45	0.59	2
	72	27.49	0.59	2
	73	27.54	0.57	2
	74	27.58	0.48	2
	75	27.62	0.43	2
	76	27.66	0.42	2
	77	27.7	0.44	2
	78	27.74	0.47	2
	79	27.78	0.49	2
	80	27.82	0.5	2
	81	27.86	0.53	2
	82	27.91	0.64	2
	83	27.96	0.67	2
	84	28.01	0.65	2
	85	28.06	0.62	2
	86	28.12	0.72	2
	87	28.19	0.98	2
	88	28.27	1.04	2
	89	28.34	1.04	2
	90	28.41	0.96	2
	91	28.49	0.96	2
	92	28.58	0.99	2
	93	28.66	0.99	2
	94	28.77	1.42	2
	95	28.88	1.46	2
	96	28.99	1.41	2
	97	29.09	1.04	2
	98	29.19	1.05	2
	99	29.29	1.23	2
	100	29.39	1.3	2
	101	29.5	1.16	2
	102	29.61	1.18	2
	103	29.7	0.96	2
	104	29.78	0.89	2
	105	29.9	1.15	2
	106	30.04	1.54	2
	107	30.19	1.19	2
	108	30.29	0.96	2
	109	30.4	0.88	2
