File:              	C:\Qtrac\Data\Daniel M Sørensen\MScan multicentre study\Data from centres\Ankara\Processed data\IAC10125A.QZD
Name:              	TR.ANK.NC.9.2
Protocol:          	MSCAN-R2
Date:              	25/1/21
Start time:        	14:12:48
Age:               	27
Sex:               	m
Temperature:
S/R sites:         	APB
NC/disease:        	NC
Operator:          	eb
Comments:
M-SCAN DATA (3.9-0.9m)
Scanpts: 10, 14, 324, 346
Stim. (mA)     	Amp. (mV)
MS.1           	22.5           	11.971
MS.2           	22.5           	11.97
MS.3           	22.5           	11.984
MS.4           	22.5           	11.976
MS.5           	22.5           	11.949
MS.6           	22.5           	11.935
MS.7           	22.5           	11.981
MS.8           	22.5           	11.979
MS.9           	22.5           	11.969
MS.10          	22.5           	11.978
MS.11          	22.5           	11.975
MS.12          	22.5           	11.982
MS.13          	22.5           	11.974
MS.14          	22.5           	11.974
MS.15          	22.5           	11.97
MS.16          	22.5           	11.973
MS.17          	22.5           	11.976
MS.18          	22.5           	11.969
MS.19          	22.5           	11.964
MS.20          	22.5           	11.968
MS.21          	22.5           	11.967
MS.22          	22.5           	11.96
MS.23          	22.5           	11.978
MS.24          	22.41          	11.981
MS.25          	22.365         	11.976
MS.26          	22.32          	11.964
MS.27          	22.275         	11.97
MS.28          	22.233         	11.964
MS.29          	22.188         	11.971
MS.30          	22.142         	11.979
MS.31          	22.097         	11.971
MS.32          	22.055         	11.952
MS.33          	22.01          	11.969
MS.34          	21.967         	11.937
MS.35          	21.922         	11.957
MS.36          	21.877         	11.98
MS.37          	21.835         	11.969
MS.38          	21.792         	11.965
MS.39          	21.747         	11.97
MS.40          	21.705         	11.965
MS.41          	21.66          	11.96
MS.42          	21.618         	11.971
MS.43          	21.575         	11.97
MS.44          	21.532         	11.964
MS.45          	21.487         	11.971
MS.46          	21.445         	11.973
MS.47          	21.403         	11.945
MS.48          	21.36          	11.959
MS.49          	21.317         	11.737
MS.50          	21.275         	11.611
MS.51          	21.233         	11.978
MS.52          	21.19          	11.628
MS.53          	21.147         	11.373
MS.54          	21.105         	11.517
MS.55          	21.062         	11.481
MS.56          	21.02          	11.538
MS.57          	20.98          	11.362
MS.58          	20.938         	11.381
MS.59          	20.895         	11.366
MS.60          	20.852         	11.365
MS.61          	20.812         	11.53
MS.62          	20.77          	11.379
MS.63          	20.727         	11.377
MS.64          	20.688         	11.587
MS.65          	20.645         	11.53
MS.66          	20.605         	11.947
MS.67          	20.562         	11.365
MS.68          	20.522         	11.375
MS.69          	20.483         	11.354
MS.70          	20.44          	11.621
MS.71          	20.4           	11.378
MS.72          	20.36          	11.37
MS.73          	20.317         	11.333
MS.74          	20.278         	11.372
MS.75          	20.237         	11.349
MS.76          	20.198         	11.257
MS.77          	20.155         	11.356
MS.78          	20.115         	11.239
MS.79          	20.075         	11.285
MS.80          	20.035         	11.293
MS.81          	19.995         	11.332
MS.82          	19.955         	11.226
MS.83          	19.915         	11.11
MS.84          	19.875         	11.146
MS.85          	19.837         	11.169
MS.86          	19.797         	11.266
MS.87          	19.757         	11.13
MS.88          	19.717         	11.144
MS.89          	19.677         	11.096
MS.90          	19.64          	11.09
MS.91          	19.6           	11.082
MS.92          	19.56          	11.075
MS.93          	19.522         	10.872
MS.94          	19.483         	10.38
MS.95          	19.442         	10.774
MS.96          	19.405         	10.977
MS.97          	19.365         	10.649
MS.98          	19.327         	10.508
MS.99          	19.288         	10.687
MS.100         	19.25          	10.662
MS.101         	19.212         	9.962
MS.102         	19.172         	10.199
MS.103         	19.135         	10.256
MS.104         	19.097         	10.144
MS.105         	19.057         	9.875
MS.106         	19.02          	10.203
MS.107         	18.983         	9.502
MS.108         	18.945         	10.184
MS.109         	18.907         	9.83
MS.110         	18.87          	9.921
MS.111         	18.83          	8.903
MS.112         	18.792         	9.636
MS.113         	18.755         	9.601
MS.114         	18.717         	8.486
MS.115         	18.68          	9.132
MS.116         	18.645         	9.453
MS.117         	18.608         	9.301
MS.118         	18.57          	9.481
MS.119         	18.532         	8.28
MS.120         	18.495         	9.044
MS.121         	18.458         	8.689
MS.122         	18.422         	9.263
MS.123         	18.385         	8.066
MS.124         	18.347         	9.102
MS.125         	18.31          	7.844
MS.126         	18.275         	7.889
MS.127         	18.237         	7.958
MS.128         	18.202         	8
MS.129         	18.165         	7.911
MS.130         	18.13          	7.762
MS.131         	18.092         	7.892
MS.132         	18.057         	7.859
MS.133         	18.02          	7.332
MS.134         	17.985         	7.637
MS.135         	17.948         	7.019
MS.136         	17.913         	7.466
MS.137         	17.878         	6.747
MS.138         	17.84          	7.146
MS.139         	17.805         	7.05
MS.140         	17.77          	6.989
MS.141         	17.735         	7.196
MS.142         	17.7           	6.667
MS.143         	17.663         	6.847
MS.144         	17.628         	6.506
MS.145         	17.592         	6.543
MS.146         	17.557         	5.717
MS.147         	17.522         	6.289
MS.148         	17.487         	6.021
MS.149         	17.452         	5.858
MS.150         	17.417         	5.072
MS.151         	17.382         	4.835
MS.152         	17.347         	5.275
MS.153         	17.315         	5.018
MS.154         	17.28          	4.829
MS.155         	17.245         	5.502
MS.156         	17.21          	5.283
MS.157         	17.175         	4.888
MS.158         	17.142         	4.707
MS.159         	17.108         	4.432
MS.160         	17.073         	4.321
MS.161         	17.04          	4.857
MS.162         	17.005         	4.683
MS.163         	16.97          	4.459
MS.164         	16.938         	3.827
MS.165         	16.903         	3.939
MS.166         	16.87          	3.705
MS.167         	16.835         	4.066
MS.168         	16.802         	3.925
MS.169         	16.767         	3.737
MS.170         	16.735         	3.987
MS.171         	16.702         	3.726
MS.172         	16.667         	3.875
MS.173         	16.635         	3.527
MS.174         	16.602         	3.403
MS.175         	16.567         	3.413
MS.176         	16.535         	3.419
MS.177         	16.503         	3.085
MS.178         	16.47          	3.085
MS.179         	16.438         	3.169
MS.180         	16.405         	2.841
MS.181         	16.37          	2.687
MS.182         	16.337         	3.103
MS.183         	16.305         	3.037
MS.184         	16.272         	2.596
MS.185         	16.24          	2.792
MS.186         	16.208         	2.776
MS.187         	16.175         	2.991
MS.188         	16.142         	2.758
MS.189         	16.11          	2.908
MS.190         	16.08          	2.56
MS.191         	16.047         	2.59
MS.192         	16.015         	2.435
MS.193         	15.983         	2.408
MS.194         	15.95          	2.598
MS.195         	15.92          	2.185
MS.196         	15.887         	2.014
MS.197         	15.855         	2.161
MS.198         	15.822         	2.129
MS.199         	15.792         	2.307
MS.200         	15.76          	2.206
MS.201         	15.73          	1.605
MS.202         	15.697         	1.84
MS.203         	15.667         	1.488
MS.204         	15.635         	1.949
MS.205         	15.602         	1.709
MS.206         	15.572         	1.605
MS.207         	15.542         	1.624
MS.208         	15.51          	1.592
MS.209         	15.48          	1.775
MS.210         	15.447         	1.447
MS.211         	15.417         	1.644
MS.212         	15.387         	1.034
MS.213         	15.355         	1.204
MS.214         	15.325         	1.403
MS.215         	15.295         	1.371
MS.216         	15.265         	1.084
MS.217         	15.233         	1.194
MS.218         	15.202         	0.963
MS.219         	15.172         	0.984
MS.220         	15.142         	0.969
MS.221         	15.112         	0.957
MS.222         	15.082         	0.76
MS.223         	15.052         	1.007
MS.224         	15.023         	0.791
MS.225         	14.992         	0.897
MS.226         	14.962         	0.828
MS.227         	14.932         	0.662
MS.228         	14.902         	0.507
MS.229         	14.872         	0.482
MS.230         	14.842         	0.682
MS.231         	14.812         	0.336
MS.232         	14.782         	0.391
MS.233         	14.755         	0.593
MS.234         	14.725         	0.295
MS.235         	14.695         	0.529
MS.236         	14.665         	0.67
MS.237         	14.637         	0.303
MS.238         	14.608         	0.487
MS.239         	14.577         	0.4
MS.240         	14.55          	0.433
MS.241         	14.52          	0.579
MS.242         	14.49          	0.427
MS.243         	14.462         	0.266
MS.244         	14.432         	0.349
MS.245         	14.405         	0.358
MS.246         	14.375         	0.242
MS.247         	14.347         	0.449
MS.248         	14.318         	0.306
MS.249         	14.29          	0.305
MS.250         	14.26          	0.286
MS.251         	14.233         	0.287
MS.252         	14.205         	0.281
MS.253         	14.175         	0.228
MS.254         	14.148         	0.176
MS.255         	14.12          	0.225
MS.256         	14.09          	0.295
MS.257         	14.062         	0.159
MS.258         	14.035         	0.331
MS.259         	14.007         	0.192
MS.260         	13.977         	0.157
MS.261         	13.95          	0.134
MS.262         	13.922         	0.081
MS.263         	13.895         	0.186
MS.264         	13.867         	0.212
MS.265         	13.84          	0.132
MS.266         	13.812         	0.165
MS.267         	13.785         	0.14
MS.268         	13.757         	0.12
MS.269         	13.73          	0.151
MS.270         	13.702         	0.095
MS.271         	13.675         	0.167
MS.272         	13.648         	0.045
MS.273         	13.62          	0.054
MS.274         	13.592         	0.151
MS.275         	13.565         	0.046
MS.276         	13.537         	0.142
MS.277         	13.51          	0.07
MS.278         	13.485         	0.089
MS.279         	13.457         	0.145
MS.280         	13.43          	0.063
MS.281         	13.403         	0.027
MS.282         	13.377         	0.027
MS.283         	13.35          	0.05
MS.284         	13.322         	0.122
MS.285         	13.297         	0.028
MS.286         	13.27          	0.082
MS.287         	13.242         	0.023
MS.288         	13.217         	0.015
MS.289         	13.19          	0.021
MS.290         	13.165         	0.034
MS.291         	13.137         	0.033
MS.292         	13.112         	0.017
MS.293         	13.085         	0.002
MS.294         	13.06          	0.023
MS.295         	13.032         	0.004
MS.296         	13.007         	0.031
MS.297         	12.983         	0.000
MS.298         	12.955         	0.002
MS.299         	12.93          	0.000
MS.300         	12.903         	0.026
MS.301         	12.877         	0.027
MS.302         	12.852         	0.023
MS.303         	12.827         	0.023
MS.304         	12.8           	0.004
MS.305         	12.775         	0.002
MS.306         	12.75          	0.002
MS.307         	12.725         	0.034
MS.308         	12.7           	0.000
MS.309         	12.672         	0.000
MS.310         	12.648         	0.034
MS.311         	12.622         	0.001
MS.312         	12.597         	0.002
MS.313         	12.572         	0.002
MS.314         	12.547         	0.001
MS.315         	12.523         	-0.001
MS.316         	12.497         	0.007
MS.317         	12.472         	0.001
MS.318         	12.447         	0.002
MS.319         	12.422         	0.001
MS.320         	12.398         	0.001
MS.321         	12.372         	0.001
MS.322         	12.347         	0.001
MS.323         	12.322         	-0.001
MS.324         	12.3           	0.001
MS.325         	12.275         	0.001
MS.326         	12.25          	0.000
MS.327         	12.225         	0.002
MS.328         	12.2           	0.000
MS.329         	12.177         	0.001
MS.330         	12.153         	0.002
MS.331         	12.127         	0.001
MS.332         	12.102         	0.006
MS.333         	12.08          	0.002
MS.334         	12.055         	0.001
MS.335         	12.032         	0.000
MS.336         	12.007         	0.005
MS.337         	11.983         	0.001
MS.338         	11.96          	0.001
MS.339         	11.935         	0.004
MS.340         	11.912         	0.002
MS.341         	11.887         	0.001
MS.342         	11.865         	0.002
MS.343         	11.84          	0.002
MS.344         	11.818         	0.001
MS.345         	11.792         	0.005
MS.346         	11.77          	0.002
DERIVED EXCITABILITY VARIABLES
Program = QTracP 3/4/2020
Threshold method = 6 (optimised for CAP, using data for present condition only)
SR method = 1 (using actual data values)
6.                 	0.000               	Peak response\(mV)
17.                	27                  	Age (years)
18.                	1                   	Sex (M=1, F=2)

EXTRA VARIABLES

MScPeak(mV) = 11.97
MScS5(mA) = 14.79
MScS50(mA) = 17.53
MScS95(mA) = 20.61
MScNSteps = 1
MScSteps(%) = 2.1
MScStepMax(%) = 2.1
MScD50 = 35
MScSlope = 7.95
MSFPeakAmp(mV) = 12
MSFNUnits = 79
MSFMeanUnitAmp(uV) = 151.6
MSFHuntTime(m) = 1.86
MSFError(%) = 6.41
MSFNLarge = 24.69
MSFMedianAmp(%) = 1.14
MSFMedianAmp(mV) = 0.137
MSFHalfAmpAmp(%) = 1.36
MSFHalfAmpAmp(mV) = 0.163
MSFLargestAmp(%) = 3.74
MSFLargestAmp(mV) = 0.448
MSFMeanRS(%) = 2.01
MSFOpts = 10106121
MScDuration(min) = 3
MSFTraces = 337
MSFSizeLimit(uV) = 30.3
MSFLimitType = 3
MSFSmallestAmp(uV) = 46

EXTRA WAVEFORMS


!MScan Model
!79
	1	13.27	0.38	2
	2	13.7	0.61	2
	3	13.95	0.57	2
	4	14.13	0.48	2
	5	14.29	0.6	2
	6	14.57	0.92	2
	7	14.77	1.2	2
	8	14.86	0.67	2
	9	14.93	0.52	2
	10	14.99	0.71	2
	11	15.05	0.53	2
	12	15.1	0.6	2
	13	15.15	0.64	2
	14	15.2	0.7	2
	15	15.24	0.72	2
	16	15.29	0.62	2
	17	15.37	0.87	2
	18	15.45	1	2
	19	15.53	1.24	2
	20	15.61	1.13	2
	21	15.68	1.1	2
	22	15.74	0.99	2
	23	15.79	0.66	2
	24	15.84	0.65	2
	25	15.88	0.78	2
	26	15.94	1.01	2
	27	16.04	1.26	2
	28	16.13	1.14	2
	29	16.21	1.17	2
	30	16.28	0.97	2
	31	16.34	1.19	2
	32	16.4	0.86	2
	33	16.45	0.63	2
	34	16.5	0.51	2
	35	16.55	0.85	2
	36	16.61	0.9	2
	37	16.66	0.95	2
	38	16.72	1.1	2
	39	16.77	1.08	2
	40	16.82	1.27	2
	41	16.87	1.19	2
	42	16.95	1.54	2
	43	17.05	1.6	2
	44	17.12	1.39	2
	45	17.19	1.9	2
	46	17.28	3.05	2
	47	17.35	1.58	2
	48	17.4	1.56	2
	49	17.45	1.61	2
	50	17.51	1.27	2
	51	17.56	1.45	2
	52	17.61	1.49	2
	53	17.66	1.29	2
	54	17.71	1.25	2
	55	17.77	1.66	2
	56	17.84	2.05	2
	57	17.91	1.49	2
	58	17.98	1.24	2
	59	18.06	2.7	2
	60	18.15	1.9	2
	61	18.23	1.13	2
	62	18.31	2.34	2
	63	18.46	2.79	2
	64	18.64	3.74	2
	65	18.79	2.89	2
	66	18.9	1.93	2
	67	19	1.72	2
	68	19.09	1.78	2
	69	19.18	1.36	2
	70	19.26	1.25	2
	71	19.33	1.14	2
	72	19.4	0.92	2
	73	19.49	1.18	2
	74	19.61	0.95	2
	75	19.83	2.1	2
	76	20.04	0.75	2
	77	20.96	2.81	2.4
	78	21.17	1.2	1.6
	79	21.33	1	2

