File:              	C:\Qtrac\Data\Daniel M Sørensen\MScan multicentre study\Data from centres\Ankara\Processed data\IKC10120B.QZD
Name:              	TR.ANK.NC.10.2
Protocol:          	MSCAN-R2
Date:              	20/1/21
Start time:        	15:40:36
Age:               	25
Sex:               	f
Temperature:
S/R sites:         	ADM
NC/disease:        	NC
Operator:          	eb
Comments:
M-SCAN DATA (5.5-0.8m)
Scanpts: 12, 16, 454, 464
Stim. (mA)     	Amp. (mV)
MS.1           	19.5           	10.947
MS.2           	19.5           	10.969
MS.3           	19.5           	10.908
MS.4           	19.5           	11.074
MS.5           	19.5           	10.983
MS.6           	19.5           	11.115
MS.7           	19.5           	11.082
MS.8           	19.5           	11.144
MS.9           	19.5           	11.182
MS.10          	19.5           	11.033
MS.11          	19.5           	11.141
MS.12          	19.5           	11.052
MS.13          	19.5           	11.152
MS.14          	19.5           	11.073
MS.15          	19.5           	11.069
MS.16          	19.5           	11.13
MS.17          	19.5           	11.064
MS.18          	19.5           	11.063
MS.19          	19.5           	11.069
MS.20          	19.5           	11.198
MS.21          	19.5           	11.174
MS.22          	19.5           	10.98
MS.23          	19.5           	11.025
MS.24          	19.422         	10.934
MS.25          	19.382         	10.823
MS.26          	19.345         	10.902
MS.27          	19.305         	10.962
MS.28          	19.267         	10.884
MS.29          	19.23          	10.833
MS.30          	19.19          	10.901
MS.31          	19.153         	10.82
MS.32          	19.115         	10.555
MS.33          	19.075         	10.763
MS.34          	19.038         	10.713
MS.35          	19             	10.51
MS.36          	18.962         	10.734
MS.37          	18.922         	10.642
MS.38          	18.885         	10.529
MS.39          	18.847         	10.413
MS.40          	18.81          	10.392
MS.41          	18.772         	10.399
MS.42          	18.735         	10.286
MS.43          	18.698         	10.306
MS.44          	18.66          	10.16
MS.45          	18.622         	10.188
MS.46          	18.585         	10.194
MS.47          	18.55          	10.322
MS.48          	18.512         	10.04
MS.49          	18.475         	10.181
MS.50          	18.438         	9.866
MS.51          	18.4           	9.807
MS.52          	18.365         	9.888
MS.53          	18.327         	9.839
MS.54          	18.29          	9.692
MS.55          	18.255         	9.905
MS.56          	18.217         	9.607
MS.57          	18.182         	9.73
MS.58          	18.145         	9.519
MS.59          	18.11          	9.496
MS.60          	18.073         	9.712
MS.61          	18.038         	9.448
MS.62          	18             	9.185
MS.63          	17.965         	9.323
MS.64          	17.93          	9.338
MS.65          	17.892         	9.365
MS.66          	17.858         	9.293
MS.67          	17.823         	8.843
MS.68          	17.785         	8.96
MS.69          	17.75          	8.923
MS.70          	17.715         	9.067
MS.71          	17.68          	9.01
MS.72          	17.645         	8.849
MS.73          	17.61          	8.667
MS.74          	17.575         	8.701
MS.75          	17.538         	8.767
MS.76          	17.503         	8.789
MS.77          	17.467         	8.699
MS.78          	17.435         	8.665
MS.79          	17.4           	8.544
MS.80          	17.365         	8.595
MS.81          	17.33          	8.762
MS.82          	17.295         	8.442
MS.83          	17.26          	8.423
MS.84          	17.225         	8.588
MS.85          	17.192         	8.585
MS.86          	17.157         	8.282
MS.87          	17.122         	8.484
MS.88          	17.087         	8.368
MS.89          	17.055         	8.207
MS.90          	17.02          	8.008
MS.91          	16.987         	8.268
MS.92          	16.952         	8.18
MS.93          	16.917         	7.986
MS.94          	16.885         	8.054
MS.95          	16.85          	8.114
MS.96          	16.817         	7.957
MS.97          	16.782         	7.927
MS.98          	16.75          	7.864
MS.99          	16.717         	8.162
MS.100         	16.682         	7.881
MS.101         	16.65          	7.898
MS.102         	16.618         	7.679
MS.103         	16.583         	7.64
MS.104         	16.55          	7.751
MS.105         	16.517         	7.695
MS.106         	16.485         	7.581
MS.107         	16.452         	7.62
MS.108         	16.417         	7.571
MS.109         	16.385         	7.303
MS.110         	16.352         	7.219
MS.111         	16.32          	7.478
MS.112         	16.288         	7.151
MS.113         	16.255         	7.189
MS.114         	16.222         	6.912
MS.115         	16.19          	7.3
MS.116         	16.157         	6.837
MS.117         	16.125         	6.791
MS.118         	16.092         	7.228
MS.119         	16.062         	6.831
MS.120         	16.03          	7.019
MS.121         	15.997         	6.956
MS.122         	15.965         	6.904
MS.123         	15.932         	6.646
MS.124         	15.902         	6.705
MS.125         	15.87          	6.531
MS.126         	15.837         	6.755
MS.127         	15.807         	6.453
MS.128         	15.775         	6.2
MS.129         	15.742         	6.025
MS.130         	15.712         	6.34
MS.131         	15.68          	5.916
MS.132         	15.65          	6.096
MS.133         	15.617         	5.999
MS.134         	15.587         	6.428
MS.135         	15.555         	6.006
MS.136         	15.525         	6.111
MS.137         	15.492         	6.145
MS.138         	15.462         	5.762
MS.139         	15.432         	5.667
MS.140         	15.4           	5.883
MS.141         	15.37          	5.597
MS.142         	15.34          	5.782
MS.143         	15.307         	5.573
MS.144         	15.277         	5.564
MS.145         	15.247         	5.642
MS.146         	15.217         	5.603
MS.147         	15.188         	5.553
MS.148         	15.155         	5.526
MS.149         	15.125         	5.564
MS.150         	15.095         	5.479
MS.151         	15.065         	5.503
MS.152         	15.035         	5.627
MS.153         	15.005         	5.15
MS.154         	14.975         	5.055
MS.155         	14.945         	5.341
MS.156         	14.915         	5.304
MS.157         	14.885         	5.148
MS.158         	14.855         	4.785
MS.159         	14.827         	4.896
MS.160         	14.797         	4.899
MS.161         	14.767         	4.802
MS.162         	14.737         	4.866
MS.163         	14.707         	4.514
MS.164         	14.68          	4.64
MS.165         	14.65          	4.569
MS.166         	14.62          	4.646
MS.167         	14.59          	4.731
MS.168         	14.562         	4.513
MS.169         	14.532         	4.608
MS.170         	14.505         	4.458
MS.171         	14.475         	4.276
MS.172         	14.445         	4.309
MS.173         	14.417         	4.166
MS.174         	14.387         	4.091
MS.175         	14.36          	4.24
MS.176         	14.33          	4.189
MS.177         	14.302         	4.136
MS.178         	14.273         	3.995
MS.179         	14.245         	4.026
MS.180         	14.217         	4.156
MS.181         	14.188         	4.038
MS.182         	14.16          	3.85
MS.183         	14.132         	3.861
MS.184         	14.102         	3.893
MS.185         	14.075         	3.737
MS.186         	14.047         	3.818
MS.187         	14.02          	3.723
MS.188         	13.99          	3.865
MS.189         	13.962         	3.74
MS.190         	13.935         	3.699
MS.191         	13.907         	3.676
MS.192         	13.88          	3.672
MS.193         	13.852         	3.65
MS.194         	13.825         	3.573
MS.195         	13.797         	3.488
MS.196         	13.77          	3.615
MS.197         	13.742         	3.755
MS.198         	13.715         	3.636
MS.199         	13.688         	3.431
MS.200         	13.66          	3.495
MS.201         	13.632         	3.474
MS.202         	13.605         	3.425
MS.203         	13.577         	3.375
MS.204         	13.55          	3.232
MS.205         	13.523         	3.325
MS.206         	13.495         	3.293
MS.207         	13.47          	3.291
MS.208         	13.443         	2.955
MS.209         	13.415         	3.125
MS.210         	13.387         	3.112
MS.211         	13.362         	3.154
MS.212         	13.335         	2.941
MS.213         	13.307         	2.839
MS.214         	13.282         	2.819
MS.215         	13.255         	2.71
MS.216         	13.23          	2.91
MS.217         	13.202         	2.816
MS.218         	13.175         	2.904
MS.219         	13.15          	2.9
MS.220         	13.122         	2.684
MS.221         	13.097         	2.803
MS.222         	13.07          	2.527
MS.223         	13.045         	2.383
MS.224         	13.02          	2.538
MS.225         	12.992         	2.848
MS.226         	12.967         	2.588
MS.227         	12.94          	2.422
MS.228         	12.915         	2.485
MS.229         	12.89          	2.631
MS.230         	12.862         	2.335
MS.231         	12.837         	2.509
MS.232         	12.812         	2.505
MS.233         	12.787         	2.252
MS.234         	12.76          	2.264
MS.235         	12.735         	2.141
MS.236         	12.71          	2.218
MS.237         	12.685         	2.025
MS.238         	12.66          	2.002
MS.239         	12.635         	2.032
MS.240         	12.61          	2.001
MS.241         	12.585         	1.974
MS.242         	12.557         	2.052
MS.243         	12.532         	2.104
MS.244         	12.507         	1.956
MS.245         	12.483         	1.982
MS.246         	12.457         	1.904
MS.247         	12.432         	1.874
MS.248         	12.41          	1.821
MS.249         	12.385         	1.843
MS.250         	12.36          	1.84
MS.251         	12.335         	1.844
MS.252         	12.31          	1.748
MS.253         	12.285         	1.927
MS.254         	12.26          	1.765
MS.255         	12.238         	1.81
MS.256         	12.212         	1.78
MS.257         	12.188         	1.809
MS.258         	12.162         	1.688
MS.259         	12.14          	1.76
MS.260         	12.115         	1.714
MS.261         	12.09          	1.738
MS.262         	12.065         	1.7
MS.263         	12.042         	1.755
MS.264         	12.017         	1.763
MS.265         	11.995         	1.697
MS.266         	11.97          	1.737
MS.267         	11.945         	1.632
MS.268         	11.922         	1.666
MS.269         	11.898         	1.569
MS.270         	11.875         	1.584
MS.271         	11.85          	1.646
MS.272         	11.827         	1.548
MS.273         	11.802         	1.562
MS.274         	11.78          	1.572
MS.275         	11.757         	1.482
MS.276         	11.733         	1.523
MS.277         	11.71          	1.603
MS.278         	11.685         	1.464
MS.279         	11.662         	1.539
MS.280         	11.64          	1.511
MS.281         	11.617         	1.461
MS.282         	11.592         	1.476
MS.283         	11.57          	1.416
MS.284         	11.547         	1.375
MS.285         	11.525         	1.379
MS.286         	11.5           	1.464
MS.287         	11.477         	1.456
MS.288         	11.455         	1.41
MS.289         	11.432         	1.423
MS.290         	11.41          	1.447
MS.291         	11.387         	1.448
MS.292         	11.363         	1.359
MS.293         	11.34          	1.388
MS.294         	11.318         	1.447
MS.295         	11.295         	1.334
MS.296         	11.273         	1.3
MS.297         	11.25          	1.362
MS.298         	11.227         	1.333
MS.299         	11.205         	1.378
MS.300         	11.182         	1.351
MS.301         	11.16          	1.329
MS.302         	11.137         	1.327
MS.303         	11.117         	1.357
MS.304         	11.095         	1.333
MS.305         	11.073         	1.277
MS.306         	11.05          	1.246
MS.307         	11.028         	1.343
MS.308         	11.005         	1.256
MS.309         	10.983         	1.307
MS.310         	10.962         	1.249
MS.311         	10.94          	1.254
MS.312         	10.917         	1.257
MS.313         	10.895         	1.266
MS.314         	10.875         	1.262
MS.315         	10.852         	1.237
MS.316         	10.83          	1.257
MS.317         	10.81          	1.215
MS.318         	10.787         	1.245
MS.319         	10.765         	1.226
MS.320         	10.745         	1.241
MS.321         	10.722         	1.167
MS.322         	10.702         	1.25
MS.323         	10.68          	1.179
MS.324         	10.66          	1.157
MS.325         	10.637         	1.133
MS.326         	10.617         	1.08
MS.327         	10.595         	1.06
MS.328         	10.575         	1.088
MS.329         	10.552         	1.124
MS.330         	10.532         	1.241
MS.331         	10.51          	1.088
MS.332         	10.49          	1.136
MS.333         	10.47          	0.959
MS.334         	10.448         	1.133
MS.335         	10.427         	1.051
MS.336         	10.407         	1.057
MS.337         	10.385         	1.149
MS.338         	10.365         	0.984
MS.339         	10.345         	1.075
MS.340         	10.323         	0.907
MS.341         	10.302         	0.906
MS.342         	10.282         	0.969
MS.343         	10.262         	0.884
MS.344         	10.24          	0.85
MS.345         	10.22          	0.984
MS.346         	10.2           	0.934
MS.347         	10.18          	0.984
MS.348         	10.16          	0.812
MS.349         	10.14          	0.907
MS.350         	10.12          	0.845
MS.351         	10.097         	0.527
MS.352         	10.077         	0.885
MS.353         	10.057         	0.839
MS.354         	10.037         	0.778
MS.355         	10.017         	0.664
MS.356         	9.997          	0.726
MS.357         	9.977          	0.813
MS.358         	9.957          	0.643
MS.359         	9.938          	0.475
MS.360         	9.917          	0.438
MS.361         	9.9            	0.629
MS.362         	9.88           	0.43
MS.363         	9.86           	0.486
MS.364         	9.84           	0.389
MS.365         	9.82           	0.442
MS.366         	9.8            	0.361
MS.367         	9.78           	0.42
MS.368         	9.76           	0.366
MS.369         	9.742          	0.472
MS.370         	9.722          	0.36
MS.371         	9.702          	0.276
MS.372         	9.682          	0.402
MS.373         	9.665          	0.293
MS.374         	9.645          	0.391
MS.375         	9.625          	0.206
MS.376         	9.605          	0.269
MS.377         	9.587          	0.214
MS.378         	9.568          	0.308
MS.379         	9.55           	0.26
MS.380         	9.53           	0.212
MS.381         	9.51           	0.139
MS.382         	9.492          	0.168
MS.383         	9.472          	0.253
MS.384         	9.452          	0.199
MS.385         	9.435          	0.144
MS.386         	9.415          	0.17
MS.387         	9.398          	0.167
MS.388         	9.377          	0.135
MS.389         	9.36           	0.126
MS.390         	9.34           	0.164
MS.391         	9.323          	0.114
MS.392         	9.302          	0.1
MS.393         	9.285          	0.121
MS.394         	9.267          	0.092
MS.395         	9.247          	0.105
MS.396         	9.23           	0.065
MS.397         	9.21           	0.159
MS.398         	9.193          	0.165
MS.399         	9.175          	0.076
MS.400         	9.155          	0.173
MS.401         	9.137          	0.133
MS.402         	9.12           	0.088
MS.403         	9.1            	0.098
MS.404         	9.082          	0.089
MS.405         	9.065          	0.059
MS.406         	9.047          	0.083
MS.407         	9.028          	0.082
MS.408         	9.01           	0.092
MS.409         	8.992          	0.084
MS.410         	8.975          	0.059
MS.411         	8.957          	0.074
MS.412         	8.94           	0.067
MS.413         	8.92           	0.067
MS.414         	8.903          	0.073
MS.415         	8.885          	0.055
MS.416         	8.867          	0.076
MS.417         	8.85           	0.043
MS.418         	8.832          	0.061
MS.419         	8.815          	0.065
MS.420         	8.797          	0.034
MS.421         	8.78           	0.046
MS.422         	8.762          	0.046
MS.423         	8.745          	0.029
MS.424         	8.727          	0.029
MS.425         	8.71           	0.035
MS.426         	8.693          	0.062
MS.427         	8.675          	0.044
MS.428         	8.658          	0.049
MS.429         	8.64           	0.055
MS.430         	8.622          	0.028
MS.431         	8.605          	0.023
MS.432         	8.587          	0.027
MS.433         	8.57           	0.035
MS.434         	8.555          	0.042
MS.435         	8.537          	0.027
MS.436         	8.52           	0.018
MS.437         	8.502          	0.02
MS.438         	8.485          	0.02
MS.439         	8.47           	0.023
MS.440         	8.452          	0.028
MS.441         	8.435          	0.017
MS.442         	8.417          	0.021
MS.443         	8.403          	0.023
MS.444         	8.385          	0.018
MS.445         	8.367          	0.026
MS.446         	8.35           	0.028
MS.447         	8.335          	0.017
MS.448         	8.318          	0.028
MS.449         	8.302          	0.02
MS.450         	8.285          	0.022
MS.451         	8.267          	0.017
MS.452         	8.252          	0.016
MS.453         	8.235          	0.02
MS.454         	8.217          	0.023
MS.455         	8.202          	0.023
MS.456         	8.185          	0.02
MS.457         	8.17           	0.024
MS.458         	8.153          	0.023
MS.459         	8.137          	0.026
MS.460         	8.12           	0.021
MS.461         	8.105          	0.022
MS.462         	8.087          	0.022
MS.463         	8.073          	0.022
MS.464         	8.055          	0.022
MS.465         	8.04           	0.017
MS.466         	8.025          	0.022
MS.467         	8.007          	0.023
MS.468         	7.992          	0.022
MS.469         	7.975          	0.026
MS.470         	7.96           	0.017
MS.471         	7.945          	0.023
MS.472         	7.927          	0.018
MS.473         	7.912          	0.021
MS.474         	7.898          	0.023
MS.475         	7.88           	0.026
MS.476         	7.865          	0.022
MS.477         	7.85           	0.023
MS.478         	7.832          	0.021
MS.479         	7.817          	0.026
MS.480         	7.802          	0.021
MS.481         	7.787          	0.018
MS.482         	7.77           	0.027
MS.483         	7.755          	0.023
MS.484         	7.74           	0.021
MS.485         	7.725          	0.024
MS.486         	7.71           	0.026
MS.487         	7.695          	0.022
MS.488         	7.677          	0.02
MS.489         	7.662          	0.024
MS.490         	7.648          	0.023
MS.491         	7.632          	0.021
MS.492         	7.617          	0.023
MS.493         	7.602          	0.022
MS.494         	7.587          	0.028
MS.495         	7.572          	0.023
MS.496         	7.557          	0.023
MS.497         	7.543          	0.022
MS.498         	7.527          	0.024
MS.499         	7.512          	0.024
MS.500         	7.497          	0.027
