File:              	C:\Qtrac\Data\Daniel M Sørensen\MScan multicentre study\Data from centres\Ankara\Processed data\IKC10113A.QZD
Name:              	TR.ANK.NC.10.1
Protocol:          	MSCAN-R2
Date:              	13/1/21
Start time:        	15:02:54
Age:               	25
Sex:               	f
Temperature:
S/R sites:         	APB
NC/disease:        	NC
Operator:          	eb
Comments:
M-SCAN DATA (5.3-1m)
Scanpts: 26, 31, 455, 474
Stim. (mA)     	Amp. (mV)
MS.1           	16.5           	6.814
MS.2           	16.5           	6.822
MS.3           	16.5           	6.822
MS.4           	16.5           	6.844
MS.5           	16.5           	6.87
MS.6           	16.5           	6.88
MS.7           	16.5           	6.901
MS.8           	16.5           	7.001
MS.9           	16.5           	6.967
MS.10          	16.5           	6.991
MS.11          	16.5           	6.933
MS.12          	16.5           	6.852
MS.13          	16.5           	6.915
MS.14          	16.5           	6.905
MS.15          	16.5           	7.007
MS.16          	16.5           	6.937
MS.17          	16.5           	7.017
MS.18          	16.5           	7.015
MS.19          	16.5           	7.019
MS.20          	16.5           	7.027
MS.21          	16.5           	7.086
MS.22          	16.5           	7.104
MS.23          	16.5           	7.189
MS.24          	16.467         	7.033
MS.25          	16.435         	7.074
MS.26          	16.403         	7.056
MS.27          	16.368         	7.086
MS.28          	16.335         	7.11
MS.29          	16.302         	7.074
MS.30          	16.27          	7.037
MS.31          	16.237         	7.056
MS.32          	16.205         	7.046
MS.33          	16.172         	7.019
MS.34          	16.14          	6.973
MS.35          	16.108         	6.967
MS.36          	16.077         	6.987
MS.37          	16.045         	6.991
MS.38          	16.012         	6.983
MS.39          	15.98          	6.975
MS.40          	15.947         	6.973
MS.41          	15.917         	6.983
MS.42          	15.885         	6.973
MS.43          	15.852         	7.021
MS.44          	15.822         	7.009
MS.45          	15.79          	7.033
MS.46          	15.757         	7.06
MS.47          	15.727         	7.054
MS.48          	15.695         	7.021
MS.49          	15.665         	7.09
MS.50          	15.632         	7.074
MS.51          	15.602         	6.985
MS.52          	15.57          	7.031
MS.53          	15.54          	7.005
MS.54          	15.507         	7.039
MS.55          	15.477         	7.054
MS.56          	15.445         	7.084
MS.57          	15.415         	7.05
MS.58          	15.385         	7.035
MS.59          	15.355         	7.037
MS.60          	15.322         	7.021
MS.61          	15.292         	7.005
MS.62          	15.262         	6.989
MS.63          	15.233         	7.029
MS.64          	15.2           	7.021
MS.65          	15.17          	7.046
MS.66          	15.14          	7.056
MS.67          	15.11          	7.056
MS.68          	15.08          	7.023
MS.69          	15.05          	7.042
MS.70          	15.02          	6.983
MS.71          	14.99          	7.048
MS.72          	14.96          	7.007
MS.73          	14.93          	7.07
MS.74          	14.9           	7.066
MS.75          	14.87          	7.05
MS.76          	14.84          	6.995
MS.77          	14.81          	6.963
MS.78          	14.782         	6.886
MS.79          	14.752         	6.796
MS.80          	14.722         	6.83
MS.81          	14.693         	6.848
MS.82          	14.662         	6.802
MS.83          	14.635         	6.854
MS.84          	14.605         	6.866
MS.85          	14.575         	6.868
MS.86          	14.547         	6.905
MS.87          	14.517         	6.921
MS.88          	14.487         	6.921
MS.89          	14.46          	6.862
MS.90          	14.43          	6.888
MS.91          	14.403         	6.884
MS.92          	14.372         	6.878
MS.93          	14.345         	6.872
MS.94          	14.315         	6.838
MS.95          	14.287         	6.846
MS.96          	14.257         	6.832
MS.97          	14.23          	6.782
MS.98          	14.202         	6.733
MS.99          	14.172         	6.798
MS.100         	14.145         	6.786
MS.101         	14.117         	6.778
MS.102         	14.087         	6.776
MS.103         	14.06          	6.766
MS.104         	14.032         	6.751
MS.105         	14.005         	6.725
MS.106         	13.977         	6.741
MS.107         	13.947         	6.713
MS.108         	13.92          	6.735
MS.109         	13.892         	6.701
MS.110         	13.865         	6.715
MS.111         	13.837         	6.701
MS.112         	13.81          	6.699
MS.113         	13.782         	6.673
MS.114         	13.755         	6.671
MS.115         	13.727         	6.673
MS.116         	13.7           	6.753
MS.117         	13.672         	6.693
MS.118         	13.645         	6.723
MS.119         	13.617         	6.695
MS.120         	13.59          	6.693
MS.121         	13.562         	6.61
MS.122         	13.535         	6.623
MS.123         	13.51          	6.683
MS.124         	13.483         	6.653
MS.125         	13.455         	6.544
MS.126         	13.427         	6.653
MS.127         	13.403         	6.572
MS.128         	13.375         	6.608
MS.129         	13.347         	6.631
MS.130         	13.32          	6.568
MS.131         	13.295         	6.528
MS.132         	13.267         	6.465
MS.133         	13.242         	6.562
MS.134         	13.215         	6.564
MS.135         	13.188         	6.484
MS.136         	13.162         	6.56
MS.137         	13.135         	6.381
MS.138         	13.11          	6.465
MS.139         	13.082         	6.536
MS.140         	13.057         	6.391
MS.141         	13.032         	6.528
MS.142         	13.005         	6.463
MS.143         	12.98          	6.486
MS.144         	12.952         	6.506
MS.145         	12.927         	6.391
MS.146         	12.903         	6.451
MS.147         	12.875         	6.425
MS.148         	12.85          	6.492
MS.149         	12.825         	6.522
MS.150         	12.8           	6.431
MS.151         	12.773         	6.494
MS.152         	12.747         	6.427
MS.153         	12.722         	6.403
MS.154         	12.697         	6.409
MS.155         	12.672         	6.262
MS.156         	12.645         	6.459
MS.157         	12.62          	6.308
MS.158         	12.595         	6.339
MS.159         	12.57          	6.308
MS.160         	12.545         	6.373
MS.161         	12.52          	6.584
MS.162         	12.495         	6.451
MS.163         	12.47          	6.572
MS.164         	12.445         	6.177
MS.165         	12.42          	6.248
MS.166         	12.395         	6.328
MS.167         	12.37          	6.224
MS.168         	12.347         	6.036
MS.169         	12.322         	6.057
MS.170         	12.297         	6.034
MS.171         	12.273         	6.133
MS.172         	12.247         	5.809
MS.173         	12.222         	5.754
MS.174         	12.2           	5.736
MS.175         	12.175         	5.817
MS.176         	12.15          	5.885
MS.177         	12.125         	5.507
MS.178         	12.102         	5.352
MS.179         	12.077         	5.364
MS.180         	12.052         	5.436
MS.181         	12.03          	5.501
MS.182         	12.005         	5.338
MS.183         	11.983         	5.251
MS.184         	11.957         	5.154
MS.185         	11.932         	4.844
MS.186         	11.91          	5.035
MS.187         	11.885         	5.487
MS.188         	11.863         	5.049
MS.189         	11.837         	5.313
MS.190         	11.815         	4.882
MS.191         	11.792         	4.486
MS.192         	11.767         	4.834
MS.193         	11.745         	4.645
MS.194         	11.72          	4.884
MS.195         	11.697         	4.782
MS.196         	11.675         	4.878
MS.197         	11.65          	4.345
MS.198         	11.627         	4.552
MS.199         	11.605         	4.31
MS.200         	11.58          	4.558
MS.201         	11.557         	4.334
MS.202         	11.535         	4.145
MS.203         	11.512         	4.29
MS.204         	11.488         	4.143
MS.205         	11.465         	4.276
MS.206         	11.443         	4.2
MS.207         	11.42          	3.932
MS.208         	11.398         	4.32
MS.209         	11.375         	3.916
MS.210         	11.352         	4.316
MS.211         	11.33          	3.875
MS.212         	11.307         	3.944
MS.213         	11.282         	4.399
MS.214         	11.26          	4.113
MS.215         	11.238         	3.797
MS.216         	11.215         	3.593
MS.217         	11.195         	3.986
MS.218         	11.172         	3.752
MS.219         	11.15          	3.623
MS.220         	11.127         	3.752
MS.221         	11.105         	3.597
MS.222         	11.082         	3.932
MS.223         	11.06          	4.2
MS.224         	11.037         	3.746
MS.225         	11.015         	3.638
MS.226         	10.995         	3.583
MS.227         	10.972         	3.285
MS.228         	10.95          	3.63
MS.229         	10.927         	3.382
MS.230         	10.907         	3.658
MS.231         	10.885         	3.348
MS.232         	10.863         	2.882
MS.233         	10.842         	3.104
MS.234         	10.82          	2.731
MS.235         	10.797         	3.384
MS.236         	10.778         	3.374
MS.237         	10.755         	2.818
MS.238         	10.733         	2.91
MS.239         	10.712         	2.512
MS.240         	10.69          	2.941
MS.241         	10.67          	3.029
MS.242         	10.648         	2.377
MS.243         	10.627         	2.336
MS.244         	10.605         	2.151
MS.245         	10.585         	2.643
MS.246         	10.562         	2.526
MS.247         	10.542         	2.663
MS.248         	10.52          	2.141
MS.249         	10.5           	2.054
MS.250         	10.48          	2.25
MS.251         	10.457         	2.113
MS.252         	10.438         	1.885
MS.253         	10.415         	2.073
MS.254         	10.395         	1.944
MS.255         	10.375         	2.403
MS.256         	10.355         	2.091
MS.257         	10.332         	2.27
MS.258         	10.312         	2.191
MS.259         	10.292         	1.756
MS.260         	10.273         	1.94
MS.261         	10.25          	1.68
MS.262         	10.23          	1.835
MS.263         	10.21          	2.05
MS.264         	10.19          	1.76
MS.265         	10.17          	1.565
MS.266         	10.15          	1.728
MS.267         	10.127         	1.704
MS.268         	10.108         	1.664
MS.269         	10.087         	1.789
MS.270         	10.068         	1.706
MS.271         	10.047         	1.714
MS.272         	10.028         	1.631
MS.273         	10.007         	1.674
MS.274         	9.988          	1.609
MS.275         	9.967          	1.654
MS.276         	9.948          	1.646
MS.277         	9.927          	1.623
MS.278         	9.907          	1.394
MS.279         	9.887          	1.571
MS.280         	9.867          	1.539
MS.281         	9.85           	1.517
MS.282         	9.83           	1.565
MS.283         	9.81           	1.452
MS.284         	9.79           	1.364
MS.285         	9.77           	1.354
MS.286         	9.75           	1.372
MS.287         	9.733          	1.404
MS.288         	9.712          	1.4
MS.289         	9.693          	1.237
MS.290         	9.672          	1.362
MS.291         	9.655          	1.664
MS.292         	9.635          	1.331
MS.293         	9.615          	1.257
MS.294         	9.595          	1.17
MS.295         	9.577          	1.2
MS.296         	9.557          	1.072
MS.297         	9.537          	1.178
MS.298         	9.52           	1.488
MS.299         	9.5            	1.198
MS.300         	9.483          	1.118
MS.301         	9.462          	1.033
MS.302         	9.445          	1.108
MS.303         	9.425          	1.065
MS.304         	9.405          	1.029
MS.305         	9.387          	1.061
MS.306         	9.367          	1.104
MS.307         	9.35           	1.215
MS.308         	9.33           	0.983
MS.309         	9.312          	0.955
MS.310         	9.295          	1.013
MS.311         	9.275          	0.985
MS.312         	9.257          	0.997
MS.313         	9.238          	1.021
MS.314         	9.22           	1.031
MS.315         	9.202          	1.003
MS.316         	9.182          	0.985
MS.317         	9.165          	0.997
MS.318         	9.148          	0.967
MS.319         	9.127          	0.884
MS.320         	9.11           	0.884
MS.321         	9.092          	0.908
MS.322         	9.073          	0.89
MS.323         	9.055          	0.777
MS.324         	9.037          	0.896
MS.325         	9.02           	0.667
MS.326         	9              	0.773
MS.327         	8.983          	0.914
MS.328         	8.965          	0.896
MS.329         	8.948          	0.8
MS.330         	8.93           	0.842
MS.331         	8.912          	0.755
MS.332         	8.895          	0.699
MS.333         	8.875          	0.685
MS.334         	8.858          	0.717
MS.335         	8.84           	0.683
MS.336         	8.823          	0.719
MS.337         	8.805          	0.717
MS.338         	8.787          	0.411
MS.339         	8.77           	0.641
MS.340         	8.752          	0.8
MS.341         	8.735          	0.626
MS.342         	8.717          	0.55
MS.343         	8.7            	0.518
MS.344         	8.682          	0.322
MS.345         	8.665          	0.556
MS.346         	8.648          	0.81
MS.347         	8.63           	0.361
MS.348         	8.615          	0.336
MS.349         	8.597          	0.56
MS.350         	8.58           	0.31
MS.351         	8.562          	0.439
MS.352         	8.545          	0.528
MS.353         	8.528          	0.636
MS.354         	8.51           	0.409
MS.355         	8.495          	0.483
MS.356         	8.477          	0.32
MS.357         	8.46           	0.306
MS.358         	8.443          	0.298
MS.359         	8.427          	0.326
MS.360         	8.41           	0.262
MS.361         	8.392          	0.481
MS.362         	8.375          	0.506
MS.363         	8.36           	0.294
MS.364         	8.342          	0.516
MS.365         	8.325          	0.318
MS.366         	8.31           	0.274
MS.367         	8.292          	0.282
MS.368         	8.275          	0.485
MS.369         	8.26           	0.292
MS.370         	8.242          	0.459
MS.371         	8.227          	0.28
MS.372         	8.21           	0.278
MS.373         	8.193          	0.481
MS.374         	8.177          	0.262
MS.375         	8.16           	0.262
MS.376         	8.145          	0.298
MS.377         	8.127          	0.232
MS.378         	8.113          	0.228
MS.379         	8.095          	0.276
MS.380         	8.08           	0.266
MS.381         	8.062          	0.252
MS.382         	8.047          	0.264
MS.383         	8.033          	0.234
MS.384         	8.015          	0.27
MS.385         	8              	0.26
MS.386         	7.982          	0.22
MS.387         	7.967          	0.26
MS.388         	7.952          	0.246
MS.389         	7.935          	0.256
MS.390         	7.92           	0.252
MS.391         	7.905          	0.22
MS.392         	7.887          	0.236
MS.393         	7.872          	0.127
MS.394         	7.857          	0.226
MS.395         	7.84           	0.211
MS.396         	7.825          	0.131
MS.397         	7.81           	0.425
MS.398         	7.795          	0.105
MS.399         	7.777          	0.101
MS.400         	7.762          	0.211
MS.401         	7.747          	0.24
MS.402         	7.732          	0.127
MS.403         	7.717          	0.133
MS.404         	7.7            	0.111
MS.405         	7.685          	0.115
MS.406         	7.67           	0.085
MS.407         	7.655          	0.097
MS.408         	7.64           	0.087
MS.409         	7.625          	0.085
MS.410         	7.61           	0.129
MS.411         	7.595          	0.105
MS.412         	7.58           	0.075
MS.413         	7.562          	0.101
MS.414         	7.547          	0.087
MS.415         	7.532          	0.199
MS.416         	7.517          	0.066
MS.417         	7.503          	0.022
MS.418         	7.487          	0.068
MS.419         	7.472          	0.052
MS.420         	7.457          	0.038
MS.421         	7.442          	0.042
MS.422         	7.43           	0.064
MS.423         	7.415          	0.044
MS.424         	7.4            	0.038
MS.425         	7.385          	0.022
MS.426         	7.37           	0.03
MS.427         	7.355          	0.03
MS.428         	7.34           	0.02
MS.429         	7.325          	0.07
MS.430         	7.31           	0.064
MS.431         	7.295          	0.064
MS.432         	7.282          	0.036
MS.433         	7.267          	0.026
MS.434         	7.253          	0.022
MS.435         	7.237          	0.016
MS.436         	7.222          	0.022
MS.437         	7.21           	0.036
MS.438         	7.195          	0.032
MS.439         	7.18           	0.02
MS.440         	7.165          	0.016
MS.441         	7.152          	0.026
MS.442         	7.137          	0.016
MS.443         	7.122          	0.032
MS.444         	7.11           	0.018
MS.445         	7.095          	0.03
MS.446         	7.08           	0.012
MS.447         	7.067          	0.016
MS.448         	7.052          	0.022
MS.449         	7.037          	0.014
MS.450         	7.025          	0.012
MS.451         	7.01           	0.034
MS.452         	6.995          	0.014
MS.453         	6.983          	0.014
MS.454         	6.967          	0.012
MS.455         	6.955          	0.024
MS.456         	6.94           	0.024
MS.457         	6.927          	0.014
MS.458         	6.912          	0.012
MS.459         	6.9            	0.014
MS.460         	6.885          	0.018
MS.461         	6.872          	0.012
MS.462         	6.858          	0.012
MS.463         	6.845          	0.012
MS.464         	6.83           	0.012
MS.465         	6.817          	0.012
MS.466         	6.802          	0.012
MS.467         	6.79           	0.01
MS.468         	6.775          	0.024
MS.469         	6.762          	0.012
MS.470         	6.75           	0.012
MS.471         	6.735          	0.01
MS.472         	6.722          	0.012
MS.473         	6.707          	0.016
MS.474         	6.695          	0.014
DERIVED EXCITABILITY VARIABLES
Program = QTracP 3/4/2020
Threshold method = 6 (optimised for CAP, using data for present condition only)
SR method = 1 (using actual data values)
6.                 	0.000               	Peak response\(mV)
17.                	25                  	Age (years)
18.                	2                   	Sex (M=1, F=2)

EXTRA VARIABLES

MScPeak(mV) = 6.93
MScS5(mA) = 8.35
MScS50(mA) = 10.94
MScS95(mA) = 13.15
MScNSteps = 4
MScSteps(%) = 10.5
MScStepMax(%) = 3.3
MScD50 = 39
MScSlope = 6.39
MSFPeakAmp(mV) = 7.06
MSFNUnits = 81
MSFMeanUnitAmp(uV) = 87.1
MSFHuntTime(m) = 2.08
MSFError(%) = 3.99
MSFNLarge = 16.02
MSFMedianAmp(%) = 0.805
MSFMedianAmp(mV) = 0.0568
MSFHalfAmpAmp(%) = 1.69
MSFHalfAmpAmp(mV) = 0.119
MSFLargestAmp(%) = 5.42
MSFLargestAmp(mV) = 0.382
MSFMeanRS(%) = 1.98
MSFOpts = 10106121
MScDuration(min) = 4.3
MSFTraces = 449
MSFSizeLimit(uV) = 17.6
MSFLimitType = 1
MSFSmallestAmp(uV) = 18.1

EXTRA WAVEFORMS


!MScan Model
!81
	1	7.43	0.36	2
	2	7.59	0.72	2
	3	7.72	0.45	2
	4	7.72	1.71	2
