File:              	C:\Qtrac\Data\Daniel M Sørensen\MScan multicentre study\Data from centres\Ankara\Processed data\IKC10113B.QZD
Name:              	TR.ANK.NC.10.1
Protocol:          	MSCAN-R2
Date:              	13/1/21
Start time:        	15:13:17
Age:               	25
Sex:               	f
Temperature:
S/R sites:         	ADM
NC/disease:        	NC
Operator:          	eb
Comments:
M-SCAN DATA (4.5-1.3m)
Scanpts: 4, 8, 341, 363
Stim. (mA)     	Amp. (mV)
MS.1           	17             	8.778
MS.2           	17             	8.719
MS.3           	17             	8.806
MS.4           	17             	8.768
MS.5           	17             	8.747
MS.6           	17             	8.802
MS.7           	17             	8.762
MS.8           	17             	8.808
MS.9           	17             	8.82
MS.10          	17             	8.804
MS.11          	17             	8.822
MS.12          	17             	8.693
MS.13          	17             	8.832
MS.14          	17             	8.752
MS.15          	17             	8.862
MS.16          	17             	8.786
MS.17          	17             	8.762
MS.18          	17             	8.733
MS.19          	17             	8.758
MS.20          	17             	8.711
MS.21          	17             	8.689
MS.22          	17             	8.683
MS.23          	17             	8.711
MS.24          	16.965         	8.637
MS.25          	16.932         	8.717
MS.26          	16.897         	8.683
MS.27          	16.865         	8.691
MS.28          	16.83          	8.615
MS.29          	16.797         	8.669
MS.30          	16.762         	8.705
MS.31          	16.73          	8.651
MS.32          	16.698         	8.673
MS.33          	16.663         	8.697
MS.34          	16.63          	8.56
MS.35          	16.597         	8.689
MS.36          	16.562         	8.657
MS.37          	16.53          	8.679
MS.38          	16.497         	8.623
MS.39          	16.465         	8.687
MS.40          	16.432         	8.594
MS.41          	16.4           	8.588
MS.42          	16.365         	8.667
MS.43          	16.333         	8.649
MS.44          	16.3           	8.598
MS.45          	16.267         	8.514
MS.46          	16.235         	8.663
MS.47          	16.202         	8.435
MS.48          	16.17          	8.486
MS.49          	16.137         	8.395
MS.50          	16.108         	8.445
MS.51          	16.075         	8.139
MS.52          	16.042         	8.045
MS.53          	16.01          	8.401
MS.54          	15.977         	8.312
MS.55          	15.945         	8.192
MS.56          	15.915         	8.272
MS.57          	15.882         	8.367
MS.58          	15.85          	8.385
MS.59          	15.82          	8.161
MS.60          	15.787         	8.169
MS.61          	15.755         	8.244
MS.62          	15.725         	8.329
MS.63          	15.693         	8.149
MS.64          	15.662         	7.815
MS.65          	15.63          	7.928
MS.66          	15.6           	7.601
MS.67          	15.568         	7.533
MS.68          	15.537         	7.064
MS.69          	15.505         	7.35
MS.70          	15.475         	7.388
MS.71          	15.445         	7.261
MS.72          	15.412         	7.446
MS.73          	15.382         	7.011
MS.74          	15.352         	7.15
MS.75          	15.32          	7.348
MS.76          	15.29          	7.364
MS.77          	15.26          	7.34
MS.78          	15.23          	7.12
MS.79          	15.2           	7.209
MS.80          	15.167         	7.275
MS.81          	15.137         	6.975
MS.82          	15.108         	6.89
MS.83          	15.077         	7.321
MS.84          	15.047         	7.128
MS.85          	15.017         	7.402
MS.86          	14.987         	7.475
MS.87          	14.957         	7.33
MS.88          	14.927         	7.205
MS.89          	14.898         	6.969
MS.90          	14.867         	6.574
MS.91          	14.837         	6.625
MS.92          	14.807         	6.284
MS.93          	14.78          	6.508
MS.94          	14.75          	6.433
MS.95          	14.72          	6.725
MS.96          	14.69          	6.469
MS.97          	14.662         	6.318
MS.98          	14.632         	6.194
MS.99          	14.602         	5.938
MS.100         	14.572         	6.204
MS.101         	14.545         	6.051
MS.102         	14.515         	6.145
MS.103         	14.487         	5.934
MS.104         	14.457         	5.916
MS.105         	14.427         	6.065
MS.106         	14.4           	6.04
MS.107         	14.37          	5.678
MS.108         	14.342         	5.724
MS.109         	14.312         	5.891
MS.110         	14.285         	5.994
MS.111         	14.257         	5.988
MS.112         	14.227         	5.855
MS.113         	14.2           	6.113
MS.114         	14.17          	6.04
MS.115         	14.142         	5.678
MS.116         	14.115         	5.68
MS.117         	14.087         	5.777
MS.118         	14.057         	5.932
MS.119         	14.03          	5.722
MS.120         	14.002         	5.434
MS.121         	13.975         	5.537
MS.122         	13.947         	5.543
MS.123         	13.917         	5.585
MS.124         	13.89          	5.396
MS.125         	13.862         	5.587
MS.126         	13.835         	5.575
MS.127         	13.807         	5.491
MS.128         	13.78          	5.386
MS.129         	13.752         	5.605
MS.130         	13.725         	5.331
MS.131         	13.697         	5.265
MS.132         	13.67          	5.338
MS.133         	13.642         	5.374
MS.134         	13.615         	5.203
MS.135         	13.587         	5.058
MS.136         	13.56          	4.913
MS.137         	13.535         	4.977
MS.138         	13.507         	4.898
MS.139         	13.48          	5.124
MS.140         	13.452         	4.957
MS.141         	13.427         	4.739
MS.142         	13.4           	4.749
MS.143         	13.372         	4.85
MS.144         	13.345         	4.778
MS.145         	13.32          	4.334
MS.146         	13.292         	4.629
MS.147         	13.265         	4.582
MS.148         	13.24          	4.51
MS.149         	13.212         	4.306
MS.150         	13.188         	4.318
MS.151         	13.16          	4.52
MS.152         	13.135         	4.417
MS.153         	13.108         	4.471
MS.154         	13.082         	4.401
MS.155         	13.055         	4.006
MS.156         	13.03          	4.266
MS.157         	13.002         	4.093
MS.158         	12.977         	4.075
MS.159         	12.952         	4.159
MS.160         	12.925         	3.855
MS.161         	12.9           	4.024
MS.162         	12.875         	3.996
MS.163         	12.847         	4.159
MS.164         	12.822         	3.883
MS.165         	12.797         	3.799
MS.166         	12.773         	4.004
MS.167         	12.745         	4.145
MS.168         	12.72          	4.129
MS.169         	12.695         	4.131
MS.170         	12.67          	3.928
MS.171         	12.645         	3.781
MS.172         	12.62          	3.547
MS.173         	12.595         	3.309
MS.174         	12.568         	3.551
MS.175         	12.542         	3.63
MS.176         	12.517         	3.714
MS.177         	12.492         	3.378
MS.178         	12.467         	3.15
MS.179         	12.443         	3.281
MS.180         	12.42          	3.11
MS.181         	12.395         	2.975
MS.182         	12.37          	2.792
MS.183         	12.345         	2.709
MS.184         	12.32          	2.757
MS.185         	12.295         	2.747
MS.186         	12.27          	2.56
MS.187         	12.245         	2.34
MS.188         	12.222         	2.487
MS.189         	12.197         	2.23
MS.190         	12.172         	2.334
MS.191         	12.148         	2.383
MS.192         	12.125         	2.427
MS.193         	12.1           	2.383
MS.194         	12.075         	2.3
MS.195         	12.052         	2.415
MS.196         	12.028         	2.137
MS.197         	12.002         	2.183
MS.198         	11.98          	1.849
MS.199         	11.955         	1.704
MS.200         	11.932         	1.762
MS.201         	11.907         	1.492
MS.202         	11.885         	1.627
MS.203         	11.86          	1.855
MS.204         	11.837         	1.553
MS.205         	11.812         	1.529
MS.206         	11.79          	1.678
MS.207         	11.765         	1.738
MS.208         	11.742         	1.43
MS.209         	11.72          	1.293
MS.210         	11.695         	1.378
MS.211         	11.672         	1.39
MS.212         	11.65          	1.172
MS.213         	11.625         	1.086
MS.214         	11.602         	1.138
MS.215         	11.58          	1.178
MS.216         	11.555         	0.975
MS.217         	11.532         	1.233
MS.218         	11.51          	1.162
MS.219         	11.488         	1.003
MS.220         	11.465         	1.076
MS.221         	11.44          	0.836
MS.222         	11.417         	0.939
MS.223         	11.395         	1.031
MS.224         	11.372         	0.884
MS.225         	11.35          	0.808
MS.226         	11.327         	0.777
MS.227         	11.305         	0.741
MS.228         	11.282         	0.796
MS.229         	11.26          	0.741
MS.230         	11.238         	0.848
MS.231         	11.215         	0.608
MS.232         	11.193         	0.737
MS.233         	11.17          	0.667
MS.234         	11.148         	0.671
MS.235         	11.125         	0.677
MS.236         	11.102         	0.6
MS.237         	11.08          	0.602
MS.238         	11.057         	0.645
MS.239         	11.037         	0.6
MS.240         	11.015         	0.548
MS.241         	10.992         	0.542
MS.242         	10.97          	0.502
MS.243         	10.948         	0.586
MS.244         	10.927         	0.554
MS.245         	10.905         	0.532
MS.246         	10.882         	0.54
MS.247         	10.863         	0.471
MS.248         	10.84          	0.524
MS.249         	10.818         	0.431
MS.250         	10.797         	0.276
MS.251         	10.775         	0.493
MS.252         	10.752         	0.542
MS.253         	10.733         	0.441
MS.254         	10.71          	0.381
MS.255         	10.69          	0.409
MS.256         	10.667         	0.298
MS.257         	10.648         	0.431
MS.258         	10.625         	0.449
MS.259         	10.605         	0.487
MS.260         	10.582         	0.451
MS.261         	10.562         	0.475
MS.262         	10.54          	0.421
MS.263         	10.52          	0.183
MS.264         	10.497         	0.191
MS.265         	10.477         	0.222
MS.266         	10.457         	0.195
MS.267         	10.435         	0.411
MS.268         	10.415         	0.467
MS.269         	10.395         	0.211
MS.270         	10.372         	0.218
MS.271         	10.352         	0.123
MS.272         	10.332         	0.135
MS.273         	10.31          	0.103
MS.274         	10.29          	0.085
MS.275         	10.27          	0.081
MS.276         	10.25          	0.064
MS.277         	10.23          	0.081
MS.278         	10.207         	0.107
MS.279         	10.188         	0.113
MS.280         	10.167         	0.091
MS.281         	10.148         	0.073
MS.282         	10.127         	0.127
MS.283         	10.108         	0.103
MS.284         	10.087         	0.093
MS.285         	10.068         	0.073
MS.286         	10.047         	0.048
MS.287         	10.028         	0.091
MS.288         	10.007         	0.103
MS.289         	9.988          	0.093
MS.290         	9.967          	0.066
MS.291         	9.948          	0.083
MS.292         	9.927          	0.077
MS.293         	9.907          	0.052
MS.294         	9.887          	0.044
MS.295         	9.867          	0.06
MS.296         	9.847          	0.054
MS.297         	9.827          	0.052
MS.298         	9.807          	0.03
MS.299         	9.787          	0.014
MS.300         	9.77           	0.02
MS.301         	9.75           	0.018
MS.302         	9.73           	0.018
MS.303         	9.71           	0.073
MS.304         	9.69           	0.02
MS.305         	9.672          	0.03
MS.306         	9.653          	0.03
MS.307         	9.632          	0.03
MS.308         	9.615          	0.04
MS.309         	9.595          	0.028
MS.310         	9.575          	0.022
MS.311         	9.557          	0.034
MS.312         	9.537          	0.04
MS.313         	9.517          	0.028
MS.314         	9.5            	0.014
MS.315         	9.48           	0.000
MS.316         	9.462          	0.02
MS.317         	9.443          	0.01
MS.318         	9.422          	0.008
MS.319         	9.405          	0.006
MS.320         	9.385          	0.022
MS.321         	9.367          	0.016
MS.322         	9.347          	0.034
MS.323         	9.33           	0.004
MS.324         	9.31           	0.002
MS.325         	9.292          	-0.002
MS.326         	9.275          	0.008
MS.327         	9.255          	-0.008
MS.328         	9.238          	-0.006
MS.329         	9.217          	-0.002
MS.330         	9.2            	0.004
MS.331         	9.182          	0.000
MS.332         	9.162          	-0.006
MS.333         	9.145          	0.004
MS.334         	9.127          	-0.002
MS.335         	9.108          	-0.016
MS.336         	9.09           	-0.014
MS.337         	9.073          	-0.01
MS.338         	9.055          	-0.002
MS.339         	9.035          	-0.008
MS.340         	9.017          	-0.014
MS.341         	9              	-0.01
MS.342         	8.983          	-0.008
MS.343         	8.965          	-0.018
MS.344         	8.945          	-0.014
MS.345         	8.927          	-0.018
MS.346         	8.91           	-0.016
MS.347         	8.892          	-0.012
MS.348         	8.875          	-0.012
MS.349         	8.858          	-0.004
MS.350         	8.84           	-0.012
MS.351         	8.823          	-0.006
MS.352         	8.805          	-0.006
MS.353         	8.787          	-0.016
MS.354         	8.77           	-0.018
MS.355         	8.752          	-0.008
MS.356         	8.735          	-0.018
MS.357         	8.717          	-0.012
MS.358         	8.7            	-0.014
MS.359         	8.682          	-0.014
MS.360         	8.665          	-0.01
MS.361         	8.648          	-0.02
MS.362         	8.63           	-0.014
MS.363         	8.613          	-0.02
DERIVED EXCITABILITY VARIABLES
Program = QTracP 3/4/2020
Threshold method = 6 (optimised for CAP, using data for present condition only)
SR method = 1 (using actual data values)
6.                 	0.000               	Peak response\(mV)
17.                	25                  	Age (years)
18.                	2                   	Sex (M=1, F=2)

EXTRA VARIABLES

MScPeak(mV) = 8.78
MScS5(mA) = 10.62
MScS50(mA) = 13.22
MScS95(mA) = 15.97
MScNSteps = 2
MScSteps(%) = 5.3
MScStepMax(%) = 3.2
MScD50 = 48
MScSlope = 4.78
MSFPeakAmp(mV) = 8.79
MSFNUnits = 109
MSFMeanUnitAmp(uV) = 80.6
MSFHuntTime(m) = 1.85
MSFError(%) = 6.97
MSFNLarge = 26.82
MSFMedianAmp(%) = 0.72
MSFMedianAmp(mV) = 0.0633
MSFHalfAmpAmp(%) = 1.12
MSFHalfAmpAmp(mV) = 0.0986
MSFLargestAmp(%) = 4.11
MSFLargestAmp(mV) = 0.362
MSFMeanRS(%) = 2
MSFOpts = 10106121
MScDuration(min) = 3.2
MSFTraces = 360
MSFSizeLimit(uV) = 22
MSFLimitType = 1
MSFSmallestAmp(uV) = 22.4

EXTRA WAVEFORMS


!MScan Model
!109
	1	9.39	0.36	2
	2	9.96	0.6	2
	3	10.23	0.58	2
	4	10.4	1.03	2
	5	10.59	2.46	2
	6	10.84	0.74	2
	7	10.94	0.59	2
	8	10.97	0.26	2
	9	11.04	0.41	2
	10	11.08	0.25	2
	11	11.11	0.32	2
	12	11.15	0.33	2
	13	11.19	0.34	2
	14	11.23	0.39	2
	15	11.26	0.35	2
	16	11.29	0.3	2
	17	11.32	0.42	2
	18	11.37	0.63	2
	19	11.41	0.52	2
	20	11.46	0.64	2
	21	11.51	0.83	2
	22	11.56	0.85	2
	23	11.59	0.51	2
	24	11.63	0.69	2
	25	11.66	0.93	2
	26	11.7	0.82	2
	27	11.77	1.12	2
	28	11.82	0.98	2
	29	11.87	1.4	2
	30	11.91	1.53	2
	31	11.95	1.18	2
	32	11.99	0.7	2
	33	12.03	0.97	2
	34	12.08	1.56	2
	35	12.13	1.58	2
	36	12.18	0.83	2
	37	12.19	0.29	2
	38	12.21	0.32	2
	39	12.22	0.34	2
	40	12.23	0.46	2
	41	12.25	0.47	2
	42	12.26	0.43	2
	43	12.28	0.35	2
	44	12.29	0.3	2
	45	12.3	0.3	2
	46	12.31	0.28	2
	47	12.32	0.28	2
	48	12.33	0.3	2
	49	12.34	0.31	2
	50	12.35	0.34	2
	51	12.36	0.45	2
	52	12.37	0.45	2
	53	12.38	0.72	2
	54	12.4	0.82	2
	55	12.42	0.8	2
	56	12.44	0.59	2
	57	12.46	0.51	2
	58	12.48	0.62	2
	59	12.5	0.72	2
	60	12.51	0.72	2
	61	12.57	2.25	2
	62	12.66	2.17	2
	63	12.89	3.47	2
	64	12.96	0.45	2
	65	13.03	1.13	2
	66	13.11	1.29	2
	67	13.18	0.98	2
	68	13.23	1.4	2
	69	13.29	1.1	2
	70	13.33	0.63	2
	71	13.37	0.4	2
	72	13.41	0.76	2
	73	13.44	0.63	2
	74	13.47	0.75	2
	75	13.5	0.87	2
	76	13.53	0.71	2
	77	13.56	0.63	2
	78	13.6	0.79	2
	79	13.64	0.62	2
	80	13.69	0.99	2
	81	13.83	2.01	2
	82	13.96	1.76	2
	83	14.03	0.63	2
	84	14.1	0.97	2
	85	14.49	3.22	2
	86	14.55	1.11	2
	87	14.6	0.87	2
	88	14.66	1.03	2
	89	14.71	1.16	2
	90	14.76	1.51	2
	91	14.82	2.11	2
	92	14.95	1.91	2
	93	15.34	2.61	2
	94	15.34	1.74	2
	95	15.43	1	2
	96	15.46	0.71	2
	97	15.53	0.9	2
	98	15.57	0.67	2
	99	15.57	0.44	2
	100	15.6	1.15	2
	101	15.65	1.21	2
	102	15.65	0.39	2
	103	15.73	4.11	2
	104	16.06	1.76	2
	105	16.08	1.41	2
	106	16.16	0.53	2
	107	16.26	1.04	2
	108	17.02	0.49	2
	109	17.15	0.33	2

