File:              	C:\Qtrac\Data\Daniel M Sørensen\MScan multicentre study\Data from centres\Roskilde\Folders with NC-examinations\ROS_N7b\MBC00505C.QZD
Name:              	DK.ROS.NC.7.2
Protocol:          	MSCAN-R2
Date:              	5/5/20
Start time:        	14:02:32
Age:               	66
Sex:               	m
Temperature:       	34.8
S/R sites:         	Peroneal-TA
NC/disease:        	NC
Operator:          	MB
Comments:
M-SCAN DATA (Repeat 2/2, 17.5-9.4m)
Scanpts: 11, 18, 835, 856
Stim. (mA)     	Amp. (mV)
MS.1           	28.5           	6.985
MS.2           	28.5           	6.993
MS.3           	28.5           	7.023
MS.4           	28.5           	6.955
MS.5           	28.5           	6.957
MS.6           	28.5           	6.937
MS.7           	28.5           	6.915
MS.8           	28.5           	6.915
MS.9           	28.5           	6.927
MS.10          	28.5           	6.919
MS.11          	28.5           	6.911
MS.12          	28.5           	6.911
MS.13          	28.5           	6.915
MS.14          	28.5           	6.937
MS.15          	28.5           	6.935
MS.16          	28.5           	6.931
MS.17          	28.5           	6.953
MS.18          	28.5           	6.947
MS.19          	28.5           	6.84
MS.20          	28.5           	6.933
MS.21          	28.5           	6.923
MS.22          	28.5           	6.935
MS.23          	28.5           	6.913
MS.24          	28.442         	6.947
MS.25          	28.385         	6.951
MS.26          	28.33          	6.925
MS.27          	28.272         	6.901
MS.28          	28.217         	6.903
MS.29          	28.16          	6.913
MS.30          	28.105         	6.935
MS.31          	28.047         	6.989
MS.32          	27.993         	6.939
MS.33          	27.935         	6.882
MS.34          	27.88          	6.909
MS.35          	27.825         	6.993
MS.36          	27.767         	6.935
MS.37          	27.712         	6.921
MS.38          	27.657         	6.977
MS.39          	27.602         	6.927
MS.40          	27.547         	6.939
MS.41          	27.493         	6.931
MS.42          	27.438         	6.985
MS.43          	27.382         	6.911
MS.44          	27.327         	6.903
MS.45          	27.272         	6.941
MS.46          	27.217         	6.927
MS.47          	27.165         	6.947
MS.48          	27.11          	6.915
MS.49          	27.055         	6.925
MS.50          	27.002         	6.941
MS.51          	26.948         	6.973
MS.52          	26.895         	6.911
MS.53          	26.84          	6.89
MS.54          	26.787         	6.967
MS.55          	26.733         	6.989
MS.56          	26.68          	6.939
MS.57          	26.627         	6.937
MS.58          	26.573         	6.943
MS.59          	26.52          	6.943
MS.60          	26.467         	6.898
MS.61          	26.415         	6.907
MS.62          	26.362         	6.933
MS.63          	26.31          	6.882
MS.64          	26.257         	6.917
MS.65          	26.205         	6.905
MS.66          	26.153         	6.896
MS.67          	26.1           	6.901
MS.68          	26.047         	6.88
MS.69          	25.995         	6.886
MS.70          	25.942         	6.888
MS.71          	25.89          	6.892
MS.72          	25.84          	6.896
MS.73          	25.787         	6.917
MS.74          	25.737         	6.868
MS.75          	25.685         	6.87
MS.76          	25.632         	6.862
MS.77          	25.582         	6.886
MS.78          	25.532         	6.913
MS.79          	25.48          	6.87
MS.80          	25.43          	6.909
MS.81          	25.377         	6.886
MS.82          	25.327         	6.888
MS.83          	25.278         	6.898
MS.84          	25.227         	6.903
MS.85          	25.177         	6.917
MS.86          	25.125         	6.882
MS.87          	25.075         	6.788
MS.88          	25.025         	6.89
MS.89          	24.975         	6.882
MS.90          	24.925         	6.828
MS.91          	24.875         	6.703
MS.92          	24.827         	6.816
MS.93          	24.778         	6.804
MS.94          	24.727         	6.82
MS.95          	24.677         	6.792
MS.96          	24.627         	6.786
MS.97          	24.58          	6.812
MS.98          	24.53          	6.79
MS.99          	24.48          	6.82
MS.100         	24.432         	6.854
MS.101         	24.382         	6.808
MS.102         	24.335         	6.667
MS.103         	24.285         	6.782
MS.104         	24.237         	6.617
MS.105         	24.19          	6.776
MS.106         	24.14          	6.802
MS.107         	24.092         	6.772
MS.108         	24.045         	6.816
MS.109         	23.997         	6.794
MS.110         	23.948         	6.647
MS.111         	23.9           	6.615
MS.112         	23.852         	6.61
MS.113         	23.805         	6.655
MS.114         	23.757         	6.635
MS.115         	23.71          	6.621
MS.116         	23.663         	6.794
MS.117         	23.615         	6.588
MS.118         	23.567         	6.667
MS.119         	23.52          	6.615
MS.120         	23.475         	6.77
MS.121         	23.427         	6.834
MS.122         	23.38          	6.606
MS.123         	23.335         	6.619
MS.124         	23.288         	6.625
MS.125         	23.24          	6.604
MS.126         	23.195         	6.671
MS.127         	23.147         	6.615
MS.128         	23.102         	6.621
MS.129         	23.055         	6.608
MS.130         	23.01          	6.633
MS.131         	22.962         	6.598
MS.132         	22.917         	6.619
MS.133         	22.872         	6.629
MS.134         	22.825         	6.619
MS.135         	22.78          	6.623
MS.136         	22.735         	6.627
MS.137         	22.69          	6.633
MS.138         	22.645         	6.625
MS.139         	22.6           	6.629
MS.140         	22.555         	6.582
MS.141         	22.507         	6.598
MS.142         	22.465         	6.57
MS.143         	22.42          	6.6
MS.144         	22.375         	6.556
MS.145         	22.33          	6.604
MS.146         	22.285         	6.631
MS.147         	22.24          	6.59
MS.148         	22.195         	6.594
MS.149         	22.153         	6.639
MS.150         	22.108         	6.55
MS.151         	22.062         	6.645
MS.152         	22.02          	6.596
MS.153         	21.975         	6.578
MS.154         	21.93          	6.604
MS.155         	21.887         	6.617
MS.156         	21.842         	6.631
MS.157         	21.8           	6.584
MS.158         	21.757         	6.574
MS.159         	21.712         	6.568
MS.160         	21.67          	6.584
MS.161         	21.625         	6.572
MS.162         	21.583         	6.604
MS.163         	21.54          	6.538
MS.164         	21.497         	6.467
MS.165         	21.455         	6.512
MS.166         	21.41          	6.57
MS.167         	21.368         	6.56
MS.168         	21.325         	6.538
MS.169         	21.282         	6.57
MS.170         	21.24          	6.556
MS.171         	21.198         	6.457
MS.172         	21.155         	6.471
MS.173         	21.112         	6.419
MS.174         	21.07          	6.526
MS.175         	21.03          	6.365
MS.176         	20.987         	6.421
MS.177         	20.945         	6.461
MS.178         	20.903         	6.437
MS.179         	20.862         	6.375
MS.180         	20.82          	6.467
MS.181         	20.778         	6.461
MS.182         	20.737         	6.351
MS.183         	20.695         	6.335
MS.184         	20.655         	6.252
MS.185         	20.612         	6.236
MS.186         	20.573         	6.363
MS.187         	20.53          	6.188
MS.188         	20.49          	6.139
MS.189         	20.448         	6.238
MS.190         	20.407         	6.244
MS.191         	20.368         	6.286
MS.192         	20.325         	6.121
MS.193         	20.285         	6.153
MS.194         	20.245         	6.161
MS.195         	20.205         	6.304
MS.196         	20.165         	6.222
MS.197         	20.125         	6.123
MS.198         	20.083         	6.292
MS.199         	20.042         	6.135
MS.200         	20.002         	6.117
MS.201         	19.962         	6.183
MS.202         	19.922         	6.139
MS.203         	19.885         	6.167
MS.204         	19.845         	6.113
MS.205         	19.805         	6.081
MS.206         	19.765         	6.137
MS.207         	19.725         	6.141
MS.208         	19.685         	6.169
MS.209         	19.647         	6.123
MS.210         	19.608         	6.049
MS.211         	19.567         	6.008
MS.212         	19.53          	6.075
MS.213         	19.49          	5.926
MS.214         	19.45          	6
MS.215         	19.413         	5.976
MS.216         	19.372         	5.883
MS.217         	19.335         	5.944
MS.218         	19.295         	5.956
MS.219         	19.257         	5.809
MS.220         	19.22          	6.004
MS.221         	19.18          	6.002
MS.222         	19.142         	5.99
MS.223         	19.105         	6.061
MS.224         	19.065         	5.773
MS.225         	19.028         	5.901
MS.226         	18.99          	5.821
MS.227         	18.952         	5.785
MS.228         	18.915         	5.893
MS.229         	18.875         	5.706
MS.230         	18.837         	5.934
MS.231         	18.8           	5.785
MS.232         	18.762         	5.702
MS.233         	18.725         	5.73
MS.234         	18.688         	5.795
MS.235         	18.65          	5.841
MS.236         	18.615         	5.805
MS.237         	18.577         	5.708
MS.238         	18.54          	5.829
MS.239         	18.503         	5.738
MS.240         	18.465         	5.714
MS.241         	18.427         	5.769
MS.242         	18.392         	5.597
MS.243         	18.355         	5.585
MS.244         	18.317         	5.485
MS.245         	18.282         	5.654
MS.246         	18.245         	5.577
MS.247         	18.21          	5.636
MS.248         	18.172         	5.511
MS.249         	18.135         	5.557
MS.250         	18.1           	5.531
MS.251         	18.062         	5.585
MS.252         	18.028         	5.446
MS.253         	17.993         	5.472
MS.254         	17.955         	5.44
MS.255         	17.92          	5.505
MS.256         	17.885         	5.388
MS.257         	17.847         	5.493
MS.258         	17.812         	5.327
MS.259         	17.778         	5.428
MS.260         	17.743         	5.203
MS.261         	17.705         	5.247
MS.262         	17.67          	5.233
MS.263         	17.635         	5.356
MS.264         	17.6           	5.148
MS.265         	17.565         	5.233
MS.266         	17.53          	5.18
MS.267         	17.495         	5.08
MS.268         	17.46          	5.11
MS.269         	17.425         	5.086
MS.270         	17.39          	5.203
MS.271         	17.355         	5.078
MS.272         	17.32          	5.146
MS.273         	17.285         	4.977
MS.274         	17.253         	5.029
MS.275         	17.217         	5.114
MS.276         	17.182         	5.031
MS.277         	17.147         	4.993
MS.278         	17.115         	4.971
MS.279         	17.08          	4.987
MS.280         	17.045         	4.997
MS.281         	17.012         	4.826
MS.282         	16.977         	4.906
MS.283         	16.945         	4.939
MS.284         	16.91          	4.761
MS.285         	16.875         	4.82
MS.286         	16.842         	4.87
MS.287         	16.81          	4.846
MS.288         	16.775         	4.675
MS.289         	16.743         	4.864
MS.290         	16.708         	4.709
MS.291         	16.675         	4.703
MS.292         	16.642         	4.639
MS.293         	16.608         	4.449
MS.294         	16.575         	4.596
MS.295         	16.542         	4.508
MS.296         	16.51          	4.385
MS.297         	16.475         	4.23
MS.298         	16.442         	4.314
MS.299         	16.41          	4.318
MS.300         	16.378         	4.185
MS.301         	16.345         	4.179
MS.302         	16.312         	4.2
MS.303         	16.28          	4
MS.304         	16.247         	4.03
MS.305         	16.215         	4.093
MS.306         	16.182         	4.079
MS.307         	16.15          	4.014
MS.308         	16.118         	3.883
MS.309         	16.085         	3.928
MS.310         	16.052         	4.002
MS.311         	16.02          	3.811
MS.312         	15.99          	3.793
MS.313         	15.957         	3.857
MS.314         	15.925         	3.817
MS.315         	15.892         	3.895
MS.316         	15.862         	3.779
MS.317         	15.83          	3.732
MS.318         	15.797         	3.706
MS.319         	15.767         	3.702
MS.320         	15.735         	3.64
MS.321         	15.705         	3.726
MS.322         	15.672         	3.712
MS.323         	15.64          	3.646
MS.324         	15.61          	3.74
MS.325         	15.577         	3.621
MS.326         	15.547         	3.597
MS.327         	15.517         	3.525
MS.328         	15.485         	3.547
MS.329         	15.455         	3.458
MS.330         	15.422         	3.634
MS.331         	15.392         	3.541
MS.332         	15.362         	3.422
MS.333         	15.332         	3.581
MS.334         	15.3           	3.484
MS.335         	15.27          	3.476
MS.336         	15.24          	3.446
MS.337         	15.21          	3.422
MS.338         	15.18          	3.378
MS.339         	15.148         	3.35
MS.340         	15.117         	3.376
MS.341         	15.087         	3.291
MS.342         	15.057         	3.331
MS.343         	15.027         	3.247
MS.344         	14.997         	3.219
MS.345         	14.967         	3.279
MS.346         	14.938         	3.146
MS.347         	14.907         	3.158
MS.348         	14.877         	3.192
MS.349         	14.847         	3.06
MS.350         	14.82          	3.094
MS.351         	14.79          	3.1
MS.352         	14.76          	3.08
MS.353         	14.73          	3.062
MS.354         	14.7           	3.086
MS.355         	14.672         	3.092
MS.356         	14.642         	2.999
MS.357         	14.612         	2.898
MS.358         	14.582         	2.858
MS.359         	14.555         	2.79
MS.360         	14.525         	2.933
MS.361         	14.497         	2.953
MS.362         	14.467         	2.864
MS.363         	14.438         	2.959
MS.364         	14.41          	2.769
MS.365         	14.38          	2.872
MS.366         	14.352         	2.741
MS.367         	14.322         	2.874
MS.368         	14.295         	2.743
MS.369         	14.267         	2.725
MS.370         	14.237         	2.745
MS.371         	14.21          	2.741
MS.372         	14.18          	2.669
MS.373         	14.153         	2.665
MS.374         	14.125         	2.667
MS.375         	14.095         	2.667
MS.376         	14.068         	2.655
MS.377         	14.04          	2.614
MS.378         	14.012         	2.574
MS.379         	13.985         	2.608
MS.380         	13.955         	2.584
MS.381         	13.927         	2.532
MS.382         	13.9           	2.498
MS.383         	13.872         	2.534
MS.384         	13.845         	2.53
MS.385         	13.818         	2.57
MS.386         	13.79          	2.487
MS.387         	13.762         	2.447
MS.388         	13.735         	2.425
MS.389         	13.707         	2.51
MS.390         	13.68          	2.502
MS.391         	13.653         	2.373
MS.392         	13.625         	2.429
MS.393         	13.597         	2.342
MS.394         	13.57          	2.324
MS.395         	13.542         	2.395
MS.396         	13.517         	2.284
MS.397         	13.49          	2.346
MS.398         	13.462         	2.296
MS.399         	13.435         	2.248
MS.400         	13.407         	2.306
MS.401         	13.382         	2.28
MS.402         	13.355         	2.28
MS.403         	13.327         	2.234
MS.404         	13.302         	2.24
MS.405         	13.275         	2.22
MS.406         	13.25          	2.224
MS.407         	13.222         	2.171
MS.408         	13.195         	2.199
MS.409         	13.17          	2.212
MS.410         	13.142         	2.248
MS.411         	13.117         	2.089
MS.412         	13.09          	2.151
MS.413         	13.065         	2.155
MS.414         	13.037         	2.218
MS.415         	13.012         	2.01
MS.416         	12.987         	2.026
MS.417         	12.96          	2.018
MS.418         	12.935         	2.117
MS.419         	12.907         	2.097
MS.420         	12.882         	2.056
MS.421         	12.858         	1.936
MS.422         	12.832         	1.988
MS.423         	12.805         	1.972
MS.424         	12.78          	1.911
MS.425         	12.755         	1.95
MS.426         	12.73          	1.889
MS.427         	12.705         	1.805
MS.428         	12.677         	1.861
MS.429         	12.653         	1.841
MS.430         	12.627         	1.847
MS.431         	12.602         	1.74
MS.432         	12.577         	1.839
MS.433         	12.552         	1.847
MS.434         	12.528         	1.762
MS.435         	12.502         	1.686
MS.436         	12.477         	1.793
MS.437         	12.452         	1.674
MS.438         	12.427         	1.599
MS.439         	12.403         	1.607
MS.440         	12.377         	1.575
MS.441         	12.352         	1.523
MS.442         	12.327         	1.513
MS.443         	12.302         	1.615
MS.444         	12.28          	1.49
MS.445         	12.255         	1.551
MS.446         	12.23          	1.402
MS.447         	12.205         	1.507
MS.448         	12.182         	1.468
MS.449         	12.157         	1.527
MS.450         	12.132         	1.478
MS.451         	12.108         	1.386
MS.452         	12.085         	1.505
MS.453         	12.06          	1.424
MS.454         	12.035         	1.583
MS.455         	12.012         	1.486
MS.456         	11.988         	1.513
MS.457         	11.965         	1.482
MS.458         	11.94          	1.335
MS.459         	11.917         	1.384
MS.460         	11.892         	1.356
MS.461         	11.867         	1.347
MS.462         	11.845         	1.305
MS.463         	11.822         	1.317
MS.464         	11.797         	1.374
MS.465         	11.775         	1.354
MS.466         	11.75          	1.237
MS.467         	11.727         	1.267
MS.468         	11.702         	1.271
MS.469         	11.68          	1.15
MS.470         	11.657         	1.168
MS.471         	11.632         	1.194
MS.472         	11.61          	1.164
MS.473         	11.587         	1.162
MS.474         	11.565         	1.037
MS.475         	11.54          	1.063
MS.476         	11.517         	1.08
MS.477         	11.495         	1.124
MS.478         	11.472         	1.082
MS.479         	11.45          	1.068
MS.480         	11.425         	1.051
MS.481         	11.403         	1.025
MS.482         	11.38          	0.991
MS.483         	11.358         	1.055
MS.484         	11.335         	1.015
MS.485         	11.312         	0.997
MS.486         	11.29          	1.007
MS.487         	11.267         	0.967
MS.488         	11.245         	0.993
MS.489         	11.222         	0.985
MS.490         	11.2           	0.908
MS.491         	11.177         	0.892
MS.492         	11.155         	0.9
MS.493         	11.132         	0.91
MS.494         	11.11          	0.88
MS.495         	11.087         	0.918
MS.496         	11.068         	0.858
MS.497         	11.045         	0.868
MS.498         	11.023         	0.88
MS.499         	11             	0.866
MS.500         	10.977         	0.872
