File:              	C:\Qtrac\Data\Daniel M Sørensen\MScan multicentre study\Data from centres\Roskilde\Folders with NC-examinations\ROS_N7a\MBC00423C.QZD
Name:              	DK.ROS.NC.7.1
Protocol:          	MSCAN-R2
Date:              	23/4/20
Start time:        	13:51:30
Age:               	66
Sex:               	M
Temperature:       	34.6
S/R sites:         	Peroneal-TA
NC/disease:        	NC
Operator:          	MB
Comments:
M-SCAN DATA (10.8-1.3m)
Scanpts: 107, 112, 971, 993
Stim. (mA)     	Amp. (mV)
MS.1           	27.5           	5.98
MS.2           	27.5           	5.976
MS.3           	27.5           	5.962
MS.4           	27.5           	5.91
MS.5           	27.5           	5.879
MS.6           	27.5           	5.873
MS.7           	27.5           	5.869
MS.8           	27.5           	5.879
MS.9           	27.5           	5.914
MS.10          	27.5           	5.865
MS.11          	27.5           	5.861
MS.12          	27.5           	5.867
MS.13          	27.5           	5.873
MS.14          	27.5           	5.897
MS.15          	27.5           	5.887
MS.16          	27.5           	5.889
MS.17          	27.5           	5.863
MS.18          	27.5           	5.885
MS.19          	27.5           	5.883
MS.20          	27.5           	5.853
MS.21          	27.5           	5.859
MS.22          	27.5           	5.869
MS.23          	27.5           	5.875
MS.24          	27.39          	5.843
MS.25          	27.335         	5.885
MS.26          	27.28          	5.875
MS.27          	27.227         	5.91
MS.28          	27.172         	5.879
MS.29          	27.118         	5.908
MS.30          	27.062         	5.899
MS.31          	27.01          	5.901
MS.32          	26.955         	5.928
MS.33          	26.903         	5.887
MS.34          	26.847         	5.942
MS.35          	26.795         	5.942
MS.36          	26.74          	5.934
MS.37          	26.688         	5.916
MS.38          	26.635         	5.92
MS.39          	26.58          	5.944
MS.40          	26.528         	5.94
MS.41          	26.475         	5.952
MS.42          	26.422         	5.966
MS.43          	26.37          	5.968
MS.44          	26.315         	5.968
MS.45          	26.262         	5.988
MS.46          	26.21          	5.946
MS.47          	26.157         	5.986
MS.48          	26.108         	6.008
MS.49          	26.055         	5.984
MS.50          	26.002         	6.008
MS.51          	25.95          	6.004
MS.52          	25.897         	6.02
MS.53          	25.847         	6
MS.54          	25.795         	5.962
MS.55          	25.743         	6.002
MS.56          	25.692         	6.01
MS.57          	25.64          	6.01
MS.58          	25.59          	6.006
MS.59          	25.538         	5.988
MS.60          	25.487         	6.042
MS.61          	25.438         	6.03
MS.62          	25.385         	6.02
MS.63          	25.335         	6.012
MS.64          	25.285         	6.024
MS.65          	25.233         	6.024
MS.66          	25.182         	6.01
MS.67          	25.132         	6.028
MS.68          	25.082         	6.018
MS.69          	25.032         	6.022
MS.70          	24.983         	6.04
MS.71          	24.932         	6.059
MS.72          	24.882         	6.051
MS.73          	24.832         	6.028
MS.74          	24.782         	6.063
MS.75          	24.735         	6.051
MS.76          	24.685         	6.069
MS.77          	24.635         	6.093
MS.78          	24.585         	6.069
MS.79          	24.538         	6.055
MS.80          	24.487         	6.268
MS.81          	24.44          	6.059
MS.82          	24.39          	6.075
MS.83          	24.342         	6.083
MS.84          	24.292         	6.065
MS.85          	24.245         	6.057
MS.86          	24.195         	6.087
MS.87          	24.147         	6.121
MS.88          	24.1           	6.099
MS.89          	24.05          	6.067
MS.90          	24.002         	6.093
MS.91          	23.955         	6.063
MS.92          	23.907         	6.087
MS.93          	23.86          	6.113
MS.94          	23.812         	6.091
MS.95          	23.765         	6.077
MS.96          	23.717         	6.105
MS.97          	23.67          	6.091
MS.98          	23.622         	6.101
MS.99          	23.575         	6.117
MS.100         	23.528         	6.107
MS.101         	23.48          	6.115
MS.102         	23.435         	6.101
MS.103         	23.387         	6.127
MS.104         	23.34          	6.145
MS.105         	23.292         	6.121
MS.106         	23.247         	6.143
MS.107         	23.2           	6.157
MS.108         	23.155         	6.137
MS.109         	23.108         	6.139
MS.110         	23.062         	6.153
MS.111         	23.015         	6.157
MS.112         	22.97          	6.147
MS.113         	22.925         	6.159
MS.114         	22.877         	6.155
MS.115         	22.832         	6.153
MS.116         	22.788         	6.147
MS.117         	22.743         	6.149
MS.118         	22.695         	6.159
MS.119         	22.65          	6.188
MS.120         	22.605         	6.192
MS.121         	22.56          	6.167
MS.122         	22.515         	6.185
MS.123         	22.47          	6.198
MS.124         	22.425         	6.202
MS.125         	22.38          	6.188
MS.126         	22.335         	6.196
MS.127         	22.29          	6.206
MS.128         	22.247         	6.218
MS.129         	22.202         	6.202
MS.130         	22.157         	6.204
MS.131         	22.112         	6.25
MS.132         	22.07          	6.198
MS.133         	22.025         	6.202
MS.134         	21.98          	6.167
MS.135         	21.938         	6.202
MS.136         	21.892         	6.181
MS.137         	21.85          	6.196
MS.138         	21.805         	6.163
MS.139         	21.762         	6.185
MS.140         	21.72          	6.177
MS.141         	21.675         	6.218
MS.142         	21.632         	6.232
MS.143         	21.59          	6.214
MS.144         	21.545         	6.244
MS.145         	21.502         	6.234
MS.146         	21.46          	6.26
MS.147         	21.417         	6.175
MS.148         	21.375         	6.278
MS.149         	21.333         	6.284
MS.150         	21.29          	6.26
MS.151         	21.247         	6.183
MS.152         	21.205         	6.272
MS.153         	21.163         	6.21
MS.154         	21.12          	6.101
MS.155         	21.077         	6.236
MS.156         	21.035         	6.236
MS.157         	20.993         	6.224
MS.158         	20.95          	6.113
MS.159         	20.91          	6.171
MS.160         	20.868         	6.093
MS.161         	20.825         	6.228
MS.162         	20.785         	6.196
MS.163         	20.743         	6.188
MS.164         	20.7           	6.224
MS.165         	20.66          	6.21
MS.166         	20.618         	6.055
MS.167         	20.577         	6.067
MS.168         	20.535         	6.065
MS.169         	20.495         	6.038
MS.170         	20.455         	6.069
MS.171         	20.413         	6.036
MS.172         	20.372         	6.049
MS.173         	20.333         	6.089
MS.174         	20.29          	6.095
MS.175         	20.25          	6.042
MS.176         	20.21          	6.111
MS.177         	20.17          	6.04
MS.178         	20.13          	6.034
MS.179         	20.09          	6.047
MS.180         	20.05          	6.055
MS.181         	20.01          	6.063
MS.182         	19.97          	6.042
MS.183         	19.93          	6.03
MS.184         	19.89          	6.044
MS.185         	19.85          	6.059
MS.186         	19.81          	6.059
MS.187         	19.77          	6.073
MS.188         	19.73          	6.083
MS.189         	19.692         	6.036
MS.190         	19.653         	6.063
MS.191         	19.612         	6.063
MS.192         	19.573         	6.04
MS.193         	19.535         	6.008
MS.194         	19.495         	6.095
MS.195         	19.458         	6.049
MS.196         	19.417         	6.008
MS.197         	19.38          	6.022
MS.198         	19.34          	6.036
MS.199         	19.302         	6.044
MS.200         	19.262         	6.044
MS.201         	19.225         	6.047
MS.202         	19.185         	6.081
MS.203         	19.147         	6.014
MS.204         	19.11          	5.964
MS.205         	19.07          	6.047
MS.206         	19.032         	6.01
MS.207         	18.995         	5.986
MS.208         	18.958         	5.964
MS.209         	18.92          	6.016
MS.210         	18.882         	6.008
MS.211         	18.845         	6.024
MS.212         	18.805         	5.924
MS.213         	18.767         	5.996
MS.214         	18.73          	5.91
MS.215         	18.692         	5.984
MS.216         	18.657         	6.02
MS.217         	18.62          	5.964
MS.218         	18.583         	5.984
MS.219         	18.545         	5.946
MS.220         	18.507         	5.91
MS.221         	18.47          	5.938
MS.222         	18.432         	6.01
MS.223         	18.397         	5.964
MS.224         	18.36          	5.879
MS.225         	18.323         	5.934
MS.226         	18.288         	5.964
MS.227         	18.25          	5.881
MS.228         	18.215         	5.837
MS.229         	18.177         	5.918
MS.230         	18.14          	5.928
MS.231         	18.105         	5.932
MS.232         	18.067         	5.899
MS.233         	18.032         	5.843
MS.234         	17.997         	5.779
MS.235         	17.96          	6.032
MS.236         	17.925         	5.883
MS.237         	17.89          	5.827
MS.238         	17.852         	5.996
MS.239         	17.817         	5.966
MS.240         	17.782         	5.887
MS.241         	17.747         	5.912
MS.242         	17.71          	5.833
MS.243         	17.675         	5.865
MS.244         	17.64          	5.845
MS.245         	17.605         	5.785
MS.246         	17.57          	5.805
MS.247         	17.535         	5.803
MS.248         	17.5           	5.851
MS.249         	17.465         	5.775
MS.250         	17.43          	5.839
MS.251         	17.395         	5.756
MS.252         	17.36          	5.815
MS.253         	17.325         	5.769
MS.254         	17.29          	5.845
MS.255         	17.257         	5.958
MS.256         	17.222         	5.779
MS.257         	17.188         	5.837
MS.258         	17.153         	5.873
MS.259         	17.12          	5.801
MS.260         	17.085         	5.789
MS.261         	17.05          	5.674
MS.262         	17.017         	5.728
MS.263         	16.983         	5.724
MS.264         	16.948         	5.791
MS.265         	16.915         	5.72
MS.266         	16.88          	5.726
MS.267         	16.847         	5.686
MS.268         	16.812         	5.801
MS.269         	16.78          	5.74
MS.270         	16.747         	5.883
MS.271         	16.712         	5.754
MS.272         	16.68          	5.7
MS.273         	16.645         	5.736
MS.274         	16.612         	5.607
MS.275         	16.58          	5.694
MS.276         	16.547         	5.628
MS.277         	16.512         	5.692
MS.278         	16.48          	5.736
MS.279         	16.448         	5.728
MS.280         	16.415         	5.763
MS.281         	16.382         	5.704
MS.282         	16.35          	5.686
MS.283         	16.317         	5.698
MS.284         	16.285         	5.624
MS.285         	16.253         	5.718
MS.286         	16.22          	5.746
MS.287         	16.188         	5.67
MS.288         	16.155         	5.688
MS.289         	16.122         	5.67
MS.290         	16.09          	5.694
MS.291         	16.057         	5.706
MS.292         	16.025         	5.646
MS.293         	15.992         	5.652
MS.294         	15.962         	5.652
MS.295         	15.93          	5.644
MS.296         	15.898         	5.722
MS.297         	15.865         	5.605
MS.298         	15.835         	5.579
MS.299         	15.802         	5.652
MS.300         	15.77          	5.374
MS.301         	15.74          	5.553
MS.302         	15.707         	5.617
MS.303         	15.677         	5.529
MS.304         	15.645         	5.603
MS.305         	15.615         	5.575
MS.306         	15.582         	5.63
MS.307         	15.552         	5.541
MS.308         	15.52          	5.45
MS.309         	15.49          	5.527
MS.310         	15.46          	5.436
MS.311         	15.427         	5.545
MS.312         	15.398         	5.438
MS.313         	15.367         	5.474
MS.314         	15.335         	5.424
MS.315         	15.305         	5.45
MS.316         	15.275         	5.418
MS.317         	15.245         	5.422
MS.318         	15.212         	5.436
MS.319         	15.182         	5.444
MS.320         	15.152         	5.366
MS.321         	15.122         	5.509
MS.322         	15.092         	5.299
MS.323         	15.062         	5.366
MS.324         	15.032         	5.285
MS.325         	15.002         	5.406
MS.326         	14.972         	5.333
MS.327         	14.943         	5.352
MS.328         	14.912         	5.241
MS.329         	14.882         	5.333
MS.330         	14.852         	5.313
MS.331         	14.822         	5.287
MS.332         	14.792         	5.279
MS.333         	14.765         	5.311
MS.334         	14.735         	5.291
MS.335         	14.705         	5.295
MS.336         	14.675         	5.331
MS.337         	14.645         	5.285
MS.338         	14.617         	5.346
MS.339         	14.587         	5.295
MS.340         	14.557         	5.146
MS.341         	14.53          	5.265
MS.342         	14.5           	5.17
MS.343         	14.472         	5.174
MS.344         	14.443         	5.213
MS.345         	14.412         	5.327
MS.346         	14.385         	5.174
MS.347         	14.355         	5.182
MS.348         	14.327         	5.16
MS.349         	14.3           	5.138
MS.350         	14.27          	5.118
MS.351         	14.242         	5.104
MS.352         	14.212         	5.184
MS.353         	14.185         	5.193
MS.354         	14.157         	5.104
MS.355         	14.127         	5.035
MS.356         	14.1           	4.989
MS.357         	14.072         	5.078
MS.358         	14.045         	5.102
MS.359         	14.015         	4.987
MS.360         	13.987         	4.971
MS.361         	13.96          	4.951
MS.362         	13.932         	4.989
MS.363         	13.905         	4.874
MS.364         	13.877         	4.808
MS.365         	13.847         	4.874
MS.366         	13.82          	4.796
MS.367         	13.792         	4.757
MS.368         	13.765         	4.846
MS.369         	13.737         	4.794
MS.370         	13.71          	4.737
MS.371         	13.682         	4.834
MS.372         	13.655         	4.763
MS.373         	13.63          	4.677
MS.374         	13.602         	4.856
MS.375         	13.575         	4.735
MS.376         	13.547         	4.693
MS.377         	13.52          	4.725
MS.378         	13.492         	4.594
MS.379         	13.465         	4.594
MS.380         	13.44          	4.691
MS.381         	13.412         	4.546
MS.382         	13.385         	4.794
MS.383         	13.36          	4.663
MS.384         	13.332         	4.627
MS.385         	13.305         	4.54
MS.386         	13.28          	4.625
MS.387         	13.252         	4.498
MS.388         	13.225         	4.602
MS.389         	13.2           	4.473
MS.390         	13.172         	4.449
MS.391         	13.148         	4.552
MS.392         	13.12          	4.433
MS.393         	13.095         	4.425
MS.394         	13.068         	4.361
MS.395         	13.042         	4.379
MS.396         	13.015         	4.421
MS.397         	12.99          	4.248
MS.398         	12.965         	4.339
MS.399         	12.938         	4.236
MS.400         	12.912         	4.298
MS.401         	12.887         	4.334
MS.402         	12.86          	4.123
MS.403         	12.835         	4.179
MS.404         	12.81          	4.103
MS.405         	12.785         	4.171
MS.406         	12.757         	4.365
MS.407         	12.733         	4.26
MS.408         	12.707         	4.151
MS.409         	12.682         	4.226
MS.410         	12.657         	4.032
MS.411         	12.632         	3.996
MS.412         	12.605         	4.008
MS.413         	12.58          	3.996
MS.414         	12.555         	4.032
MS.415         	12.53          	3.992
MS.416         	12.505         	3.99
MS.417         	12.48          	4.036
MS.418         	12.455         	3.922
MS.419         	12.43          	3.827
MS.420         	12.405         	3.825
MS.421         	12.38          	3.885
MS.422         	12.358         	3.754
MS.423         	12.332         	3.716
MS.424         	12.307         	3.893
MS.425         	12.282         	3.714
MS.426         	12.257         	3.724
MS.427         	12.233         	3.726
MS.428         	12.21          	3.746
MS.429         	12.185         	3.658
MS.430         	12.16          	3.764
MS.431         	12.135         	3.644
MS.432         	12.113         	3.68
MS.433         	12.087         	3.706
MS.434         	12.062         	3.511
MS.435         	12.04          	3.634
MS.436         	12.015         	3.636
MS.437         	11.992         	3.65
MS.438         	11.967         	3.527
MS.439         	11.943         	3.507
MS.440         	11.92          	3.646
MS.441         	11.895         	3.503
MS.442         	11.872         	3.484
MS.443         	11.847         	3.414
MS.444         	11.825         	3.545
MS.445         	11.8           	3.442
MS.446         	11.778         	3.317
MS.447         	11.755         	3.311
MS.448         	11.73          	3.474
MS.449         	11.707         	3.426
MS.450         	11.682         	3.178
MS.451         	11.66          	3.213
MS.452         	11.637         	3.323
MS.453         	11.613         	3.265
MS.454         	11.59          	3.217
MS.455         	11.568         	3.164
MS.456         	11.545         	3.009
MS.457         	11.52          	3.041
MS.458         	11.497         	3.037
MS.459         	11.475         	2.917
MS.460         	11.452         	3.019
MS.461         	11.43          	3.074
MS.462         	11.407         	2.969
MS.463         	11.382         	2.943
MS.464         	11.36          	2.88
MS.465         	11.337         	2.78
MS.466         	11.315         	2.848
MS.467         	11.292         	2.681
MS.468         	11.27          	2.83
MS.469         	11.247         	2.735
MS.470         	11.225         	2.622
MS.471         	11.202         	2.977
MS.472         	11.18          	2.788
MS.473         	11.157         	2.58
MS.474         	11.135         	2.534
MS.475         	11.113         	2.578
MS.476         	11.092         	2.592
MS.477         	11.07          	2.574
MS.478         	11.047         	2.639
MS.479         	11.025         	2.614
MS.480         	11.002         	2.628
MS.481         	10.98          	2.566
MS.482         	10.96          	2.395
MS.483         	10.938         	2.496
MS.484         	10.915         	2.477
MS.485         	10.892         	2.393
MS.486         	10.872         	2.439
MS.487         	10.85          	2.389
MS.488         	10.827         	2.268
MS.489         	10.807         	2.234
MS.490         	10.785         	2.29
MS.491         	10.762         	2.27
MS.492         	10.742         	2.157
MS.493         	10.72          	2.147
MS.494         	10.7           	2.109
MS.495         	10.677         	2.147
MS.496         	10.657         	2.127
MS.497         	10.635         	2.101
MS.498         	10.615         	2.199
MS.499         	10.592         	1.986
MS.500         	10.573         	1.924
