File:              	C:\Qtrac\Data\Daniel M Sørensen\MScan multicentre study\Data from centres\Roskilde\Folders with NC-examinations\ROS_N4a\MBC00331D.QZD
Name:              	DK.ROS.NC.4.1
Protocol:          	MSCAN-R2
Date:              	31/3/20
Start time:        	13:12:10
Age:               	40
Sex:               	f
Temperature:       	39.4
S/R sites:         	Peron Wr-TA
NC/disease:        	NC
Operator:          	MB
Comments:
M-SCAN DATA (11.4-1.5m)
Scanpts: 198, 207, 872, 895
Stim. (mA)     	Amp. (mV)
MS.1           	29             	5.114
MS.2           	29             	5.118
MS.3           	29             	5.122
MS.4           	29             	5.12
MS.5           	29             	5.084
MS.6           	29             	5.11
MS.7           	29             	5.082
MS.8           	29             	5.104
MS.9           	29             	5.066
MS.10          	29             	5.106
MS.11          	29             	5.088
MS.12          	29             	5.07
MS.13          	29             	5.08
MS.14          	29             	5.064
MS.15          	29             	5.078
MS.16          	29             	5.098
MS.17          	29             	5.092
MS.18          	29             	5.041
MS.19          	29             	5.086
MS.20          	29             	5.094
MS.21          	29             	5.078
MS.22          	29             	5.068
MS.23          	29             	5.052
MS.24          	28.885         	5.062
MS.25          	28.827         	5.052
MS.26          	28.77          	5.078
MS.27          	28.712         	5.049
MS.28          	28.655         	5.029
MS.29          	28.597         	5.064
MS.30          	28.54          	5.031
MS.31          	28.483         	5.037
MS.32          	28.425         	5.06
MS.33          	28.37          	5.043
MS.34          	28.312         	5.045
MS.35          	28.255         	5.033
MS.36          	28.2           	5.025
MS.37          	28.142         	5.033
MS.38          	28.087         	5.031
MS.39          	28.03          	5.058
MS.40          	27.975         	5.045
MS.41          	27.917         	5.025
MS.42          	27.862         	5.027
MS.43          	27.807         	5.019
MS.44          	27.752         	5.019
MS.45          	27.695         	5.011
MS.46          	27.64          	5.007
MS.47          	27.585         	5.027
MS.48          	27.53          	5.033
MS.49          	27.475         	5.011
MS.50          	27.42          	5.013
MS.51          	27.365         	5.031
MS.52          	27.31          	5.019
MS.53          	27.257         	5.021
MS.54          	27.202         	4.949
MS.55          	27.147         	4.977
MS.56          	27.092         	4.983
MS.57          	27.04          	4.993
MS.58          	26.985         	4.997
MS.59          	26.932         	5.003
MS.60          	26.877         	5.015
MS.61          	26.825         	4.989
MS.62          	26.77          	4.963
MS.63          	26.717         	4.977
MS.64          	26.662         	4.991
MS.65          	26.61          	4.961
MS.66          	26.557         	4.925
MS.67          	26.505         	4.961
MS.68          	26.45          	4.955
MS.69          	26.397         	4.969
MS.70          	26.345         	4.941
MS.71          	26.292         	4.949
MS.72          	26.24          	4.935
MS.73          	26.188         	4.941
MS.74          	26.135         	4.941
MS.75          	26.082         	4.943
MS.76          	26.03          	4.943
MS.77          	25.98          	4.947
MS.78          	25.927         	4.941
MS.79          	25.875         	4.943
MS.80          	25.823         	4.937
MS.81          	25.772         	4.939
MS.82          	25.72          	4.957
MS.83          	25.67          	4.931
MS.84          	25.618         	4.933
MS.85          	25.567         	4.919
MS.86          	25.515         	4.933
MS.87          	25.465         	4.929
MS.88          	25.415         	4.909
MS.89          	25.362         	4.959
MS.90          	25.312         	4.917
MS.91          	25.262         	4.902
MS.92          	25.212         	4.909
MS.93          	25.16          	4.915
MS.94          	25.11          	4.935
MS.95          	25.06          	4.927
MS.96          	25.01          	4.923
MS.97          	24.96          	4.949
MS.98          	24.91          	4.943
MS.99          	24.86          	4.953
MS.100         	24.81          	4.921
MS.101         	24.762         	4.935
MS.102         	24.712         	4.915
MS.103         	24.663         	4.941
MS.104         	24.612         	4.943
MS.105         	24.565         	4.943
MS.106         	24.515         	4.949
MS.107         	24.465         	4.951
MS.108         	24.417         	4.927
MS.109         	24.368         	4.937
MS.110         	24.32          	4.929
MS.111         	24.27          	4.945
MS.112         	24.222         	4.951
MS.113         	24.175         	4.929
MS.114         	24.125         	4.939
MS.115         	24.077         	4.929
MS.116         	24.03          	4.949
MS.117         	23.983         	4.955
MS.118         	23.935         	4.941
MS.119         	23.885         	4.941
MS.120         	23.837         	4.967
MS.121         	23.79          	4.937
MS.122         	23.743         	4.953
MS.123         	23.695         	4.949
MS.124         	23.647         	4.955
MS.125         	23.6           	4.929
MS.126         	23.555         	4.961
MS.127         	23.507         	4.969
MS.128         	23.46          	4.961
MS.129         	23.413         	4.941
MS.130         	23.365         	4.963
MS.131         	23.32          	4.989
MS.132         	23.272         	4.965
MS.133         	23.227         	4.981
MS.134         	23.18          	4.995
MS.135         	23.132         	4.959
MS.136         	23.087         	4.979
MS.137         	23.042         	4.995
MS.138         	22.995         	4.991
MS.139         	22.95          	4.989
MS.140         	22.903         	4.985
MS.141         	22.858         	4.993
MS.142         	22.812         	4.997
MS.143         	22.767         	4.999
MS.144         	22.72          	4.999
MS.145         	22.675         	4.997
MS.146         	22.63          	5.009
MS.147         	22.585         	5.009
MS.148         	22.54          	4.999
MS.149         	22.495         	4.993
MS.150         	22.45          	5.009
MS.151         	22.405         	5.007
MS.152         	22.36          	5.001
MS.153         	22.315         	5.005
MS.154         	22.27          	4.995
MS.155         	22.227         	4.913
MS.156         	22.182         	4.999
MS.157         	22.137         	5.003
MS.158         	22.092         	5.003
MS.159         	22.05          	5.039
MS.160         	22.005         	5.007
MS.161         	21.962         	5.005
MS.162         	21.917         	5.023
MS.163         	21.875         	5.043
MS.164         	21.83          	5.031
MS.165         	21.788         	5.033
MS.166         	21.743         	5.017
MS.167         	21.7           	5.039
MS.168         	21.655         	5.052
MS.169         	21.612         	5.066
MS.170         	21.57          	5.047
MS.171         	21.528         	5.047
MS.172         	21.483         	5.064
MS.173         	21.44          	5.068
MS.174         	21.397         	5.06
MS.175         	21.355         	5.068
MS.176         	21.312         	5.072
MS.177         	21.27          	5.062
MS.178         	21.227         	5.066
MS.179         	21.185         	5.078
MS.180         	21.142         	5.078
MS.181         	21.1           	5.08
MS.182         	21.057         	5.07
MS.183         	21.015         	5.064
MS.184         	20.975         	5.066
MS.185         	20.932         	5.08
MS.186         	20.89          	5.082
MS.187         	20.847         	5.08
MS.188         	20.807         	5.082
MS.189         	20.765         	5.102
MS.190         	20.725         	5.076
MS.191         	20.682         	5.092
MS.192         	20.642         	5.108
MS.193         	20.6           	5.09
MS.194         	20.56          	5.106
MS.195         	20.517         	5.09
MS.196         	20.477         	5.09
MS.197         	20.435         	5.082
MS.198         	20.395         	5.086
MS.199         	20.355         	5.104
MS.200         	20.312         	5.1
MS.201         	20.272         	5.096
MS.202         	20.233         	5.1
MS.203         	20.192         	5.102
MS.204         	20.153         	5.092
MS.205         	20.112         	5.104
MS.206         	20.073         	5.09
MS.207         	20.03          	5.116
MS.208         	19.99          	5.11
MS.209         	19.952         	5.108
MS.210         	19.913         	5.108
MS.211         	19.872         	5.082
MS.212         	19.833         	5.12
MS.213         	19.792         	5.104
MS.214         	19.752         	5.094
MS.215         	19.712         	5.128
MS.216         	19.675         	5.114
MS.217         	19.635         	5.108
MS.218         	19.595         	5.132
MS.219         	19.555         	5.068
MS.220         	19.517         	5.074
MS.221         	19.477         	5.108
MS.222         	19.44          	5.106
MS.223         	19.4           	5.124
MS.224         	19.362         	5.094
MS.225         	19.323         	5.116
MS.226         	19.285         	5.094
MS.227         	19.245         	5.068
MS.228         	19.208         	5.122
MS.229         	19.17          	5.128
MS.230         	19.13          	5.126
MS.231         	19.092         	5.136
MS.232         	19.055         	5.15
MS.233         	19.015         	5.122
MS.234         	18.977         	5.094
MS.235         	18.94          	5.096
MS.236         	18.903         	5.09
MS.237         	18.865         	5.116
MS.238         	18.827         	5.09
MS.239         	18.79          	5.164
MS.240         	18.753         	5.08
MS.241         	18.715         	5.088
MS.242         	18.677         	5.088
MS.243         	18.64          	5.112
MS.244         	18.602         	5.122
MS.245         	18.565         	5.1
MS.246         	18.528         	5.102
MS.247         	18.49          	5.096
MS.248         	18.455         	5.1
MS.249         	18.417         	5.082
MS.250         	18.38          	5.118
MS.251         	18.345         	5.134
MS.252         	18.307         	5.106
MS.253         	18.27          	5.072
MS.254         	18.235         	5.106
MS.255         	18.198         	5.098
MS.256         	18.163         	5.098
MS.257         	18.125         	5.066
MS.258         	18.09          	5.08
MS.259         	18.052         	5.08
MS.260         	18.017         	5.108
MS.261         	17.98          	5.09
MS.262         	17.945         	5.088
MS.263         	17.91          	5.1
MS.264         	17.872         	5.084
MS.265         	17.837         	5.094
MS.266         	17.802         	5.112
MS.267         	17.765         	5.094
MS.268         	17.73          	5.068
MS.269         	17.695         	5.112
MS.270         	17.66          	5.098
MS.271         	17.625         	5.104
MS.272         	17.59          	5.09
MS.273         	17.555         	5.06
MS.274         	17.52          	5.062
MS.275         	17.485         	5.064
MS.276         	17.45          	5.003
MS.277         	17.415         	5.068
MS.278         	17.38          	5.07
MS.279         	17.345         	5.086
MS.280         	17.31          	5.078
MS.281         	17.275         	5.074
MS.282         	17.24          	5.041
MS.283         	17.208         	5.058
MS.284         	17.172         	5.049
MS.285         	17.137         	5.06
MS.286         	17.102         	5.088
MS.287         	17.07          	5.07
MS.288         	17.035         	5.054
MS.289         	17.003         	5.08
MS.290         	16.967         	5.108
MS.291         	16.932         	5.072
MS.292         	16.9           	5.088
MS.293         	16.865         	5.031
MS.294         	16.833         	5.074
MS.295         	16.797         	5.052
MS.296         	16.765         	5.043
MS.297         	16.733         	5.037
MS.298         	16.698         	5.06
MS.299         	16.665         	5.068
MS.300         	16.632         	5.033
MS.301         	16.597         	5.064
MS.302         	16.565         	5.084
MS.303         	16.532         	5.094
MS.304         	16.5           	5.094
MS.305         	16.465         	5.043
MS.306         	16.432         	5.132
MS.307         	16.4           	5.066
MS.308         	16.368         	5.021
MS.309         	16.335         	5.07
MS.310         	16.302         	5.062
MS.311         	16.27          	5.082
MS.312         	16.237         	5.082
MS.313         	16.205         	5.07
MS.314         	16.172         	5.003
MS.315         	16.14          	5.049
MS.316         	16.108         	5.039
MS.317         	16.075         	4.959
MS.318         	16.042         	5.056
MS.319         	16.012         	4.965
MS.320         	15.98          	5.056
MS.321         	15.947         	5.017
MS.322         	15.915         	4.995
MS.323         	15.882         	5.003
MS.324         	15.852         	4.997
MS.325         	15.82          	4.896
MS.326         	15.787         	4.925
MS.327         	15.757         	4.892
MS.328         	15.725         	5.003
MS.329         	15.695         	4.943
MS.330         	15.662         	5.039
MS.331         	15.632         	5.017
MS.332         	15.6           	4.971
MS.333         	15.57          	4.911
MS.334         	15.537         	4.939
MS.335         	15.507         	4.995
MS.336         	15.475         	4.935
MS.337         	15.445         	4.933
MS.338         	15.415         	4.945
MS.339         	15.382         	4.913
MS.340         	15.352         	4.937
MS.341         	15.322         	4.927
MS.342         	15.292         	4.941
MS.343         	15.26          	4.886
MS.344         	15.23          	4.896
MS.345         	15.2           	4.957
MS.346         	15.17          	4.884
MS.347         	15.14          	4.947
MS.348         	15.11          	4.929
MS.349         	15.08          	4.866
MS.350         	15.047         	4.886
MS.351         	15.017         	4.868
MS.352         	14.987         	4.906
MS.353         	14.957         	4.911
MS.354         	14.93          	4.864
MS.355         	14.9           	4.89
MS.356         	14.87          	4.927
MS.357         	14.84          	4.909
MS.358         	14.81          	4.808
MS.359         	14.78          	4.904
MS.360         	14.75          	4.937
MS.361         	14.722         	4.896
MS.362         	14.693         	4.824
MS.363         	14.662         	4.904
MS.364         	14.632         	4.824
MS.365         	14.605         	4.941
MS.366         	14.575         	4.848
MS.367         	14.545         	4.856
MS.368         	14.517         	4.862
MS.369         	14.487         	4.842
MS.370         	14.457         	4.884
MS.371         	14.43          	4.85
MS.372         	14.4           	4.86
MS.373         	14.372         	4.743
MS.374         	14.342         	4.834
MS.375         	14.315         	4.822
MS.376         	14.285         	4.776
MS.377         	14.257         	4.685
MS.378         	14.23          	4.802
MS.379         	14.2           	4.761
MS.380         	14.172         	4.774
MS.381         	14.145         	4.729
MS.382         	14.115         	4.713
MS.383         	14.087         	4.761
MS.384         	14.06          	4.747
MS.385         	14.032         	4.671
MS.386         	14.002         	4.675
MS.387         	13.975         	4.693
MS.388         	13.947         	4.687
MS.389         	13.92          	4.703
MS.390         	13.892         	4.669
MS.391         	13.865         	4.633
MS.392         	13.837         	4.602
MS.393         	13.807         	4.616
MS.394         	13.78          	4.594
MS.395         	13.752         	4.653
MS.396         	13.725         	4.59
MS.397         	13.697         	4.677
MS.398         	13.67          	4.544
MS.399         	13.645         	4.695
MS.400         	13.617         	4.614
MS.401         	13.59          	4.564
MS.402         	13.562         	4.5
MS.403         	13.535         	4.457
MS.404         	13.507         	4.633
MS.405         	13.48          	4.49
MS.406         	13.455         	4.588
MS.407         	13.427         	4.538
MS.408         	13.4           	4.516
MS.409         	13.372         	4.552
MS.410         	13.347         	4.57
MS.411         	13.32          	4.52
MS.412         	13.292         	4.429
MS.413         	13.267         	4.504
MS.414         	13.24          	4.486
MS.415         	13.215         	4.425
MS.416         	13.188         	4.465
MS.417         	13.162         	4.381
MS.418         	13.135         	4.395
MS.419         	13.11          	4.411
MS.420         	13.082         	4.403
MS.421         	13.057         	4.439
MS.422         	13.03          	4.359
MS.423         	13.005         	4.294
MS.424         	12.977         	4.306
MS.425         	12.952         	4.399
MS.426         	12.927         	4.326
MS.427         	12.9           	4.304
MS.428         	12.875         	4.286
MS.429         	12.85          	4.27
MS.430         	12.822         	4.284
MS.431         	12.797         	4.29
MS.432         	12.773         	4.244
MS.433         	12.747         	4.308
MS.434         	12.722         	4.222
MS.435         	12.695         	4.258
MS.436         	12.67          	4.252
MS.437         	12.645         	4.195
MS.438         	12.62          	4.167
MS.439         	12.595         	4.195
MS.440         	12.57          	4.204
MS.441         	12.545         	4.147
MS.442         	12.52          	4.224
MS.443         	12.495         	4.067
MS.444         	12.47          	4.139
MS.445         	12.445         	4.099
MS.446         	12.42          	4.127
MS.447         	12.395         	4.141
MS.448         	12.37          	4.022
MS.449         	12.345         	4
MS.450         	12.32          	3.789
MS.451         	12.295         	4.022
MS.452         	12.273         	4.016
MS.453         	12.247         	3.966
MS.454         	12.222         	3.996
MS.455         	12.197         	4.133
MS.456         	12.175         	3.841
MS.457         	12.15          	3.911
MS.458         	12.125         	3.944
MS.459         	12.1           	3.726
MS.460         	12.077         	3.738
MS.461         	12.052         	3.777
MS.462         	12.028         	3.682
MS.463         	12.005         	3.734
MS.464         	11.98          	3.74
MS.465         	11.957         	3.599
MS.466         	11.932         	3.69
MS.467         	11.91          	3.686
MS.468         	11.885         	3.628
MS.469         	11.863         	3.636
MS.470         	11.837         	3.581
MS.471         	11.815         	3.569
MS.472         	11.79          	3.444
MS.473         	11.767         	3.603
MS.474         	11.742         	3.466
MS.475         	11.72          	3.46
MS.476         	11.697         	3.408
MS.477         	11.672         	3.442
MS.478         	11.65          	3.396
MS.479         	11.627         	3.489
MS.480         	11.602         	3.356
MS.481         	11.58          	3.354
MS.482         	11.557         	3.249
MS.483         	11.535         	3.259
MS.484         	11.51          	3.265
MS.485         	11.488         	3.263
MS.486         	11.465         	3.335
MS.487         	11.443         	3.247
MS.488         	11.42          	3.243
MS.489         	11.398         	3.263
MS.490         	11.372         	3.196
MS.491         	11.35          	3.168
MS.492         	11.327         	3.124
MS.493         	11.305         	3.136
MS.494         	11.282         	3.051
MS.495         	11.26          	3.023
MS.496         	11.238         	3.023
MS.497         	11.215         	3.033
MS.498         	11.193         	3.068
MS.499         	11.17          	2.977
MS.500         	11.148         	2.981
