File:              	C:\Qtrac\Data\Daniel M Sørensen\MScan multicentre study\Data from centres\Roskilde\Folders with NC-examinations\ROS_N3a\MBC00304A.QZD
Name:              	DK.ROS.NC.3.1
Protocol:          	MSCAN-R2
Date:              	4/3/20
Start time:        	13:46:07
Age:               	22
Sex:               	f
Temperature:       	39.8
S/R sites:         	Median Wr-APB
NC/disease:        	NC
Operator:          	MB
Comments:
M-SCAN DATA (Repeat 2/2, 18-11m)
Scanpts: 132, 142, 723, 745
Stim. (mA)     	Amp. (mV)
MS.1           	16.5           	8.854
MS.2           	16.5           	8.854
MS.3           	16.5           	8.834
MS.4           	16.5           	8.814
MS.5           	16.5           	8.8
MS.6           	16.5           	8.8
MS.7           	16.5           	8.784
MS.8           	16.5           	8.758
MS.9           	16.5           	8.752
MS.10          	16.5           	8.764
MS.11          	16.5           	8.754
MS.12          	16.5           	8.772
MS.13          	16.5           	8.76
MS.14          	16.5           	8.745
MS.15          	16.5           	8.745
MS.16          	16.5           	8.737
MS.17          	16.5           	8.737
MS.18          	16.5           	8.721
MS.19          	16.5           	8.725
MS.20          	16.5           	8.725
MS.21          	16.5           	8.729
MS.22          	16.5           	8.707
MS.23          	16.5           	8.717
MS.24          	16.467         	8.713
MS.25          	16.435         	8.703
MS.26          	16.403         	8.691
MS.27          	16.368         	8.697
MS.28          	16.335         	8.707
MS.29          	16.302         	8.693
MS.30          	16.27          	8.707
MS.31          	16.237         	8.707
MS.32          	16.205         	8.707
MS.33          	16.172         	8.707
MS.34          	16.14          	8.703
MS.35          	16.108         	8.707
MS.36          	16.077         	8.701
MS.37          	16.045         	8.691
MS.38          	16.012         	8.701
MS.39          	15.98          	8.697
MS.40          	15.947         	8.703
MS.41          	15.917         	8.707
MS.42          	15.885         	8.695
MS.43          	15.852         	8.717
MS.44          	15.822         	8.711
MS.45          	15.79          	8.731
MS.46          	15.757         	8.752
MS.47          	15.727         	8.766
MS.48          	15.695         	8.782
MS.49          	15.665         	8.83
MS.50          	15.632         	8.862
MS.51          	15.602         	8.878
MS.52          	15.57          	8.911
MS.53          	15.54          	8.899
MS.54          	15.507         	8.905
MS.55          	15.477         	8.911
MS.56          	15.445         	8.911
MS.57          	15.415         	8.909
MS.58          	15.385         	8.899
MS.59          	15.355         	8.911
MS.60          	15.322         	8.925
MS.61          	15.292         	8.943
MS.62          	15.262         	8.943
MS.63          	15.233         	8.945
MS.64          	15.2           	8.951
MS.65          	15.17          	8.941
MS.66          	15.14          	8.945
MS.67          	15.11          	8.925
MS.68          	15.08          	8.923
MS.69          	15.05          	8.931
MS.70          	15.02          	8.901
MS.71          	14.99          	8.893
MS.72          	14.96          	8.888
MS.73          	14.93          	8.895
MS.74          	14.9           	8.88
MS.75          	14.87          	8.882
MS.76          	14.84          	8.878
MS.77          	14.81          	8.88
MS.78          	14.782         	8.87
MS.79          	14.752         	8.874
MS.80          	14.722         	8.884
MS.81          	14.693         	8.878
MS.82          	14.662         	8.876
MS.83          	14.635         	8.872
MS.84          	14.605         	8.884
MS.85          	14.575         	8.886
MS.86          	14.547         	8.888
MS.87          	14.517         	8.866
MS.88          	14.487         	8.866
MS.89          	14.46          	8.858
MS.90          	14.43          	8.864
MS.91          	14.403         	8.856
MS.92          	14.372         	8.86
MS.93          	14.345         	8.864
MS.94          	14.315         	8.864
MS.95          	14.287         	8.882
MS.96          	14.257         	8.874
MS.97          	14.23          	8.866
MS.98          	14.202         	8.862
MS.99          	14.172         	8.86
MS.100         	14.145         	8.874
MS.101         	14.117         	8.858
MS.102         	14.087         	8.868
MS.103         	14.06          	8.854
MS.104         	14.032         	8.866
MS.105         	14.005         	8.86
MS.106         	13.977         	8.852
MS.107         	13.947         	8.858
MS.108         	13.92          	8.85
MS.109         	13.892         	8.854
MS.110         	13.865         	8.864
MS.111         	13.837         	8.87
MS.112         	13.81          	8.864
MS.113         	13.782         	8.86
MS.114         	13.755         	8.852
MS.115         	13.727         	8.856
MS.116         	13.7           	8.866
MS.117         	13.672         	8.866
MS.118         	13.645         	8.884
MS.119         	13.617         	8.886
MS.120         	13.59          	8.895
MS.121         	13.562         	8.897
MS.122         	13.535         	8.862
MS.123         	13.51          	8.868
MS.124         	13.483         	8.858
MS.125         	13.455         	8.87
MS.126         	13.427         	8.87
MS.127         	13.403         	8.866
MS.128         	13.375         	8.864
MS.129         	13.347         	8.876
MS.130         	13.32          	8.862
MS.131         	13.295         	8.862
MS.132         	13.267         	8.866
MS.133         	13.242         	8.87
MS.134         	13.215         	8.864
MS.135         	13.188         	8.86
MS.136         	13.162         	8.86
MS.137         	13.135         	8.858
MS.138         	13.11          	8.862
MS.139         	13.082         	8.858
MS.140         	13.057         	8.866
MS.141         	13.032         	8.862
MS.142         	13.005         	8.866
MS.143         	12.98          	8.862
MS.144         	12.952         	8.862
MS.145         	12.927         	8.854
MS.146         	12.903         	8.868
MS.147         	12.875         	8.866
MS.148         	12.85          	8.862
MS.149         	12.825         	8.876
MS.150         	12.8           	8.897
MS.151         	12.773         	8.901
MS.152         	12.747         	8.895
MS.153         	12.722         	8.874
MS.154         	12.697         	8.862
MS.155         	12.672         	8.874
MS.156         	12.645         	8.907
MS.157         	12.62          	8.905
MS.158         	12.595         	8.903
MS.159         	12.57          	8.884
MS.160         	12.545         	8.905
MS.161         	12.52          	8.901
MS.162         	12.495         	8.895
MS.163         	12.47          	8.923
MS.164         	12.445         	8.874
MS.165         	12.42          	8.876
MS.166         	12.395         	8.909
MS.167         	12.37          	8.895
MS.168         	12.347         	8.886
MS.169         	12.322         	8.884
MS.170         	12.297         	8.878
MS.171         	12.273         	8.911
MS.172         	12.247         	8.878
MS.173         	12.222         	8.88
MS.174         	12.2           	8.88
MS.175         	12.175         	8.88
MS.176         	12.15          	8.872
MS.177         	12.125         	8.874
MS.178         	12.102         	8.878
MS.179         	12.077         	8.893
MS.180         	12.052         	8.882
MS.181         	12.03          	8.888
MS.182         	12.005         	8.909
MS.183         	11.983         	8.949
MS.184         	11.957         	8.919
MS.185         	11.932         	8.925
MS.186         	11.91          	8.915
MS.187         	11.885         	8.925
MS.188         	11.863         	8.921
MS.189         	11.837         	8.937
MS.190         	11.815         	8.735
MS.191         	11.792         	8.915
MS.192         	11.767         	8.864
MS.193         	11.745         	8.858
MS.194         	11.72          	8.919
MS.195         	11.697         	8.86
MS.196         	11.675         	8.899
MS.197         	11.65          	8.725
MS.198         	11.627         	8.669
MS.199         	11.605         	8.665
MS.200         	11.58          	8.721
MS.201         	11.557         	8.848
MS.202         	11.535         	8.735
MS.203         	11.512         	8.671
MS.204         	11.488         	8.689
MS.205         	11.465         	8.687
MS.206         	11.443         	8.681
MS.207         	11.42          	8.685
MS.208         	11.398         	8.721
MS.209         	11.375         	8.677
MS.210         	11.352         	8.683
MS.211         	11.33          	8.679
MS.212         	11.307         	8.681
MS.213         	11.282         	8.677
MS.214         	11.26          	8.675
MS.215         	11.238         	8.685
MS.216         	11.215         	8.673
MS.217         	11.195         	8.667
MS.218         	11.172         	8.663
MS.219         	11.15          	8.677
MS.220         	11.127         	8.673
MS.221         	11.105         	8.663
MS.222         	11.082         	8.659
MS.223         	11.06          	8.657
MS.224         	11.037         	8.655
MS.225         	11.015         	8.649
MS.226         	10.995         	8.641
MS.227         	10.972         	8.647
MS.228         	10.95          	8.653
MS.229         	10.927         	8.651
MS.230         	10.907         	8.592
MS.231         	10.885         	8.625
MS.232         	10.863         	8.695
MS.233         	10.842         	8.641
MS.234         	10.82          	8.613
MS.235         	10.797         	8.645
MS.236         	10.778         	8.691
MS.237         	10.755         	8.645
MS.238         	10.733         	8.699
MS.239         	10.712         	8.651
MS.240         	10.69          	8.655
MS.241         	10.67          	8.665
MS.242         	10.648         	8.665
MS.243         	10.627         	8.713
MS.244         	10.605         	8.653
MS.245         	10.585         	8.713
MS.246         	10.562         	8.683
MS.247         	10.542         	8.651
MS.248         	10.52          	8.649
MS.249         	10.5           	8.651
MS.250         	10.48          	8.659
MS.251         	10.457         	8.649
MS.252         	10.438         	8.643
MS.253         	10.415         	8.651
MS.254         	10.395         	8.649
MS.255         	10.375         	8.661
MS.256         	10.355         	8.631
MS.257         	10.332         	8.657
MS.258         	10.312         	8.639
MS.259         	10.292         	8.637
MS.260         	10.273         	8.637
MS.261         	10.25          	8.647
MS.262         	10.23          	8.663
MS.263         	10.21          	8.663
MS.264         	10.19          	8.669
MS.265         	10.17          	8.661
MS.266         	10.15          	8.669
MS.267         	10.127         	8.659
MS.268         	10.108         	8.645
MS.269         	10.087         	8.635
MS.270         	10.068         	8.629
MS.271         	10.047         	8.643
MS.272         	10.028         	8.643
MS.273         	10.007         	8.651
MS.274         	9.988          	8.621
MS.275         	9.967          	8.643
MS.276         	9.948          	8.627
MS.277         	9.927          	8.635
MS.278         	9.907          	8.639
MS.279         	9.887          	8.639
MS.280         	9.867          	8.576
MS.281         	9.85           	8.284
MS.282         	9.83           	8.625
MS.283         	9.81           	8.508
MS.284         	9.79           	8.167
MS.285         	9.77           	8.282
MS.286         	9.75           	8.498
MS.287         	9.733          	8.494
MS.288         	9.712          	8.161
MS.289         	9.693          	8.484
MS.290         	9.672          	8.276
MS.291         	9.655          	8.268
MS.292         	9.635          	8.143
MS.293         	9.615          	8.149
MS.294         	9.595          	8.159
MS.295         	9.577          	8.139
MS.296         	9.557          	8.159
MS.297         	9.537          	8.145
MS.298         	9.52           	8.067
MS.299         	9.5            	8.147
MS.300         	9.483          	8.026
MS.301         	9.462          	8.101
MS.302         	9.445          	8.016
MS.303         	9.425          	8.006
MS.304         	9.405          	8.012
MS.305         	9.387          	8.006
MS.306         	9.367          	8.043
MS.307         	9.35           	8.043
MS.308         	9.33           	8.039
MS.309         	9.312          	8.039
MS.310         	9.295          	8.075
MS.311         	9.275          	8
MS.312         	9.257          	8.032
MS.313         	9.238          	7.988
MS.314         	9.22           	8.026
MS.315         	9.202          	8.069
MS.316         	9.182          	8.012
MS.317         	9.165          	7.994
MS.318         	9.148          	7.988
MS.319         	9.127          	7.982
MS.320         	9.11           	7.879
MS.321         	9.092          	7.769
MS.322         	9.073          	7.936
MS.323         	9.055          	7.95
MS.324         	9.037          	7.958
MS.325         	9.02           	8.002
MS.326         	9              	8
MS.327         	8.983          	7.932
MS.328         	8.965          	7.499
MS.329         	8.948          	7.601
MS.330         	8.93           	7.853
MS.331         	8.912          	7.881
MS.332         	8.895          	7.819
MS.333         	8.875          	7.277
MS.334         	8.858          	7.305
MS.335         	8.84           	7.728
MS.336         	8.823          	7.1
MS.337         	8.805          	7.412
MS.338         	8.787          	7.013
MS.339         	8.77           	7.416
MS.340         	8.752          	7.448
MS.341         	8.735          	6.933
MS.342         	8.717          	6.909
MS.343         	8.7            	6.961
MS.344         	8.682          	7.507
MS.345         	8.665          	6.399
MS.346         	8.648          	7.017
MS.347         	8.63           	6.339
MS.348         	8.615          	6.48
MS.349         	8.597          	6.76
MS.350         	8.58           	6.395
MS.351         	8.562          	6.337
MS.352         	8.545          	6.357
MS.353         	8.528          	6.165
MS.354         	8.51           	6.175
MS.355         	8.495          	6.169
MS.356         	8.477          	6.113
MS.357         	8.46           	6.081
MS.358         	8.443          	5.752
MS.359         	8.427          	5.908
MS.360         	8.41           	5.271
MS.361         	8.392          	5.009
MS.362         	8.375          	4.923
MS.363         	8.36           	5.414
MS.364         	8.342          	5.094
MS.365         	8.325          	5.436
MS.366         	8.31           	5.047
MS.367         	8.292          	5.062
MS.368         	8.275          	5.152
MS.369         	8.26           	5.14
MS.370         	8.242          	5.027
MS.371         	8.227          	4.814
MS.372         	8.21           	5.138
MS.373         	8.193          	4.959
MS.374         	8.177          	4.757
MS.375         	8.16           	4.737
MS.376         	8.145          	5.013
MS.377         	8.127          	4.83
MS.378         	8.113          	4.749
MS.379         	8.095          	4.782
MS.380         	8.08           	4.578
MS.381         	8.062          	4.83
MS.382         	8.047          	4.759
MS.383         	8.033          	4.719
MS.384         	8.015          	4.584
MS.385         	8              	4.421
MS.386         	7.982          	4.653
MS.387         	7.967          	4.915
MS.388         	7.952          	4.447
MS.389         	7.935          	4.729
MS.390         	7.92           	4.405
MS.391         	7.905          	4.179
MS.392         	7.887          	4.451
MS.393         	7.872          	4.345
MS.394         	7.857          	3.948
MS.395         	7.84           	4.272
MS.396         	7.825          	3.827
MS.397         	7.81           	3.978
MS.398         	7.795          	4.119
MS.399         	7.777          	3.885
MS.400         	7.762          	3.821
MS.401         	7.747          	3.744
MS.402         	7.732          	3.593
MS.403         	7.717          	3.877
MS.404         	7.7            	3.104
MS.405         	7.685          	3.366
MS.406         	7.67           	2.959
MS.407         	7.655          	3.064
MS.408         	7.64           	3.15
MS.409         	7.625          	3.207
MS.410         	7.61           	2.814
MS.411         	7.595          	2.616
MS.412         	7.58           	2.886
MS.413         	7.562          	2.808
MS.414         	7.547          	2.616
MS.415         	7.532          	2.477
MS.416         	7.517          	2.369
MS.417         	7.503          	2.5
MS.418         	7.487          	2.431
MS.419         	7.472          	2.588
MS.420         	7.457          	2.274
MS.421         	7.442          	2.018
MS.422         	7.43           	2.262
MS.423         	7.415          	1.77
MS.424         	7.4            	1.948
MS.425         	7.385          	1.974
MS.426         	7.37           	1.869
MS.427         	7.355          	1.569
MS.428         	7.34           	1.907
MS.429         	7.325          	1.764
MS.430         	7.31           	1.497
MS.431         	7.295          	1.597
MS.432         	7.282          	1.69
MS.433         	7.267          	1.595
MS.434         	7.253          	1.452
MS.435         	7.237          	1.46
MS.436         	7.222          	1.194
MS.437         	7.21           	1.39
MS.438         	7.195          	1.456
MS.439         	7.18           	1.225
MS.440         	7.165          	1.106
MS.441         	7.152          	1.102
MS.442         	7.137          	1.202
MS.443         	7.122          	0.995
MS.444         	7.11           	0.963
MS.445         	7.095          	1.11
MS.446         	7.08           	1.019
MS.447         	7.067          	1.037
MS.448         	7.052          	0.989
MS.449         	7.037          	0.898
MS.450         	7.025          	0.959
MS.451         	7.01           	0.953
MS.452         	6.995          	1.082
MS.453         	6.983          	0.904
MS.454         	6.967          	0.854
MS.455         	6.955          	0.834
MS.456         	6.94           	0.693
MS.457         	6.927          	0.832
MS.458         	6.912          	0.914
MS.459         	6.9            	0.784
MS.460         	6.885          	0.786
MS.461         	6.872          	0.838
MS.462         	6.858          	0.661
MS.463         	6.845          	0.802
MS.464         	6.83           	0.6
MS.465         	6.817          	0.528
MS.466         	6.802          	0.669
MS.467         	6.79           	0.592
MS.468         	6.775          	0.675
MS.469         	6.762          	0.54
MS.470         	6.75           	0.536
MS.471         	6.735          	0.538
MS.472         	6.722          	0.475
MS.473         	6.707          	0.471
MS.474         	6.695          	0.381
MS.475         	6.682          	0.433
MS.476         	6.668          	0.459
MS.477         	6.655          	0.375
MS.478         	6.642          	0.475
MS.479         	6.628          	0.532
MS.480         	6.615          	0.365
MS.481         	6.602          	0.455
MS.482         	6.587          	0.435
MS.483         	6.575          	0.379
MS.484         	6.562          	0.425
MS.485         	6.55           	0.35
MS.486         	6.535          	0.33
MS.487         	6.523          	0.344
MS.488         	6.51           	0.373
MS.489         	6.497          	0.393
MS.490         	6.485          	0.367
MS.491         	6.47           	0.316
MS.492         	6.457          	0.308
MS.493         	6.445          	0.359
MS.494         	6.432          	0.348
MS.495         	6.42           	0.286
MS.496         	6.407          	0.234
MS.497         	6.395          	0.359
MS.498         	6.38           	0.228
MS.499         	6.367          	0.302
MS.500         	6.355          	0.361
