File:              	C:\Qtrac\Data\Daniel M Sørensen\MScan multicentre study\Data from centres\Roskilde\Folders with NC-examinations\ROS_N5b\MBC00430C.QZD
Name:              	DK.ROS.NC.5.2
Protocol:          	MSCAN-R2
Date:              	30/4/20
Start time:        	14:59:44
Age:               	34
Sex:               	m
Temperature:       	37.8
S/R sites:         	Peroneus-TA
NC/disease:        	NC
Operator:          	MB
Comments:
M-SCAN DATA (10-1.2m)
Scanpts: 22, 27, 877, 888
Stim. (mA)     	Amp. (mV)
MS.1           	24             	7.74
MS.2           	24             	7.74
MS.3           	24             	7.771
MS.4           	24             	7.7
MS.5           	24             	7.712
MS.6           	24             	7.736
MS.7           	24             	7.694
MS.8           	24             	7.706
MS.9           	24             	7.65
MS.10          	24             	7.684
MS.11          	24             	7.682
MS.12          	24             	7.682
MS.13          	24             	7.67
MS.14          	24             	7.644
MS.15          	24             	7.678
MS.16          	24             	7.658
MS.17          	24             	7.664
MS.18          	24             	7.722
MS.19          	24             	7.65
MS.20          	24             	7.714
MS.21          	24             	7.674
MS.22          	24             	7.69
MS.23          	24             	7.66
MS.24          	23.905         	7.664
MS.25          	23.858         	7.692
MS.26          	23.807         	7.682
MS.27          	23.76          	7.68
MS.28          	23.712         	7.696
MS.29          	23.665         	7.72
MS.30          	23.62          	7.674
MS.31          	23.573         	7.68
MS.32          	23.525         	7.654
MS.33          	23.477         	7.614
MS.34          	23.43          	7.628
MS.35          	23.385         	7.652
MS.36          	23.337         	7.64
MS.37          	23.29          	7.636
MS.38          	23.245         	7.642
MS.39          	23.198         	7.626
MS.40          	23.153         	7.612
MS.41          	23.105         	7.64
MS.42          	23.06          	7.614
MS.43          	23.012         	7.618
MS.44          	22.967         	7.65
MS.45          	22.92          	7.601
MS.46          	22.875         	7.62
MS.47          	22.83          	7.648
MS.48          	22.785         	7.607
MS.49          	22.737         	7.624
MS.50          	22.692         	7.599
MS.51          	22.647         	7.612
MS.52          	22.602         	7.614
MS.53          	22.557         	7.646
MS.54          	22.512         	7.609
MS.55          	22.467         	7.616
MS.56          	22.422         	7.654
MS.57          	22.377         	7.63
MS.58          	22.332         	7.591
MS.59          	22.288         	7.638
MS.60          	22.243         	7.628
MS.61          	22.2           	7.591
MS.62          	22.155         	7.599
MS.63          	22.11          	7.638
MS.64          	22.067         	7.622
MS.65          	22.022         	7.609
MS.66          	21.977         	7.603
MS.67          	21.935         	7.585
MS.68          	21.89          	7.601
MS.69          	21.847         	7.551
MS.70          	21.802         	7.563
MS.71          	21.76          	7.646
MS.72          	21.715         	7.543
MS.73          	21.672         	7.581
MS.74          	21.63          	7.525
MS.75          	21.585         	7.537
MS.76          	21.542         	7.571
MS.77          	21.5           	7.547
MS.78          	21.458         	7.549
MS.79          	21.415         	7.561
MS.80          	21.372         	7.557
MS.81          	21.327         	7.567
MS.82          	21.285         	7.543
MS.83          	21.243         	7.571
MS.84          	21.2           	7.571
MS.85          	21.157         	7.547
MS.86          	21.118         	7.521
MS.87          	21.075         	7.551
MS.88          	21.032         	7.537
MS.89          	20.99          	7.567
MS.90          	20.948         	7.591
MS.91          	20.907         	7.521
MS.92          	20.865         	7.541
MS.93          	20.823         	7.523
MS.94          	20.78          	7.521
MS.95          	20.74          	7.511
MS.96          	20.698         	7.507
MS.97          	20.657         	7.531
MS.98          	20.615         	7.517
MS.99          	20.575         	7.511
MS.100         	20.532         	7.539
MS.101         	20.493         	7.519
MS.102         	20.452         	7.499
MS.103         	20.41          	7.499
MS.104         	20.37          	7.533
MS.105         	20.33          	7.481
MS.106         	20.288         	7.505
MS.107         	20.247         	7.477
MS.108         	20.208         	7.444
MS.109         	20.167         	7.481
MS.110         	20.127         	7.503
MS.111         	20.087         	7.471
MS.112         	20.047         	7.444
MS.113         	20.007         	7.412
MS.114         	19.967         	7.471
MS.115         	19.927         	7.446
MS.116         	19.887         	7.458
MS.117         	19.847         	7.45
MS.118         	19.807         	7.495
MS.119         	19.767         	7.477
MS.120         	19.727         	7.452
MS.121         	19.69          	7.446
MS.122         	19.65          	7.422
MS.123         	19.61          	7.497
MS.124         	19.57          	7.408
MS.125         	19.532         	7.446
MS.126         	19.493         	7.452
MS.127         	19.455         	7.406
MS.128         	19.415         	7.448
MS.129         	19.377         	7.408
MS.130         	19.337         	7.414
MS.131         	19.3           	7.352
MS.132         	19.26          	7.392
MS.133         	19.222         	7.418
MS.134         	19.182         	7.384
MS.135         	19.145         	7.342
MS.136         	19.108         	7.384
MS.137         	19.067         	7.376
MS.138         	19.03          	7.36
MS.139         	18.993         	7.334
MS.140         	18.955         	7.317
MS.141         	18.917         	7.315
MS.142         	18.88          	7.307
MS.143         	18.842         	7.279
MS.144         	18.802         	7.199
MS.145         	18.765         	7.172
MS.146         	18.727         	7.261
MS.147         	18.69          	7.243
MS.148         	18.655         	7.289
MS.149         	18.618         	7.265
MS.150         	18.58          	7.291
MS.151         	18.542         	7.255
MS.152         	18.505         	7.223
MS.153         	18.467         	7.233
MS.154         	18.432         	7.257
MS.155         	18.395         	7.104
MS.156         	18.358         	7.158
MS.157         	18.32          	7.164
MS.158         	18.285         	7.11
MS.159         	18.247         	7.213
MS.160         	18.212         	7.146
MS.161         	18.175         	7.13
MS.162         	18.137         	7.154
MS.163         	18.102         	7.112
MS.164         	18.067         	7.094
MS.165         	18.03          	7.076
MS.166         	17.995         	7.114
MS.167         	17.958         	7.098
MS.168         	17.922         	7.12
MS.169         	17.887         	7.098
MS.170         	17.85          	7.094
MS.171         	17.815         	7.114
MS.172         	17.78          	7.126
MS.173         	17.745         	7.094
MS.174         	17.708         	7.08
MS.175         	17.672         	7.132
MS.176         	17.637         	7.08
MS.177         	17.602         	7.12
MS.178         	17.567         	7.104
MS.179         	17.532         	7.056
MS.180         	17.497         	7.106
MS.181         	17.462         	7.084
MS.182         	17.427         	7.058
MS.183         	17.392         	7.096
MS.184         	17.358         	7.082
MS.185         	17.323         	7.039
MS.186         	17.288         	7.108
MS.187         	17.255         	7.086
MS.188         	17.22          	7.068
MS.189         	17.185         	7.084
MS.190         	17.15          	7.08
MS.191         	17.118         	7.05
MS.192         	17.083         	7.084
MS.193         	17.047         	7.052
MS.194         	17.015         	7.027
MS.195         	16.98          	7.001
MS.196         	16.948         	7.054
MS.197         	16.913         	7.017
MS.198         	16.878         	6.999
MS.199         	16.845         	7.015
MS.200         	16.812         	6.973
MS.201         	16.778         	7.072
MS.202         	16.745         	6.953
MS.203         	16.71          	6.973
MS.204         	16.677         	6.939
MS.205         	16.645         	6.977
MS.206         	16.61          	7.003
MS.207         	16.577         	6.945
MS.208         	16.545         	6.977
MS.209         	16.512         	6.955
MS.210         	16.477         	6.933
MS.211         	16.445         	6.915
MS.212         	16.413         	6.915
MS.213         	16.38          	6.892
MS.214         	16.347         	6.907
MS.215         	16.315         	6.898
MS.216         	16.282         	6.888
MS.217         	16.25          	6.856
MS.218         	16.217         	6.85
MS.219         	16.185         	6.852
MS.220         	16.153         	6.886
MS.221         	16.12          	6.872
MS.222         	16.087         	6.848
MS.223         	16.055         	6.745
MS.224         	16.022         	6.858
MS.225         	15.992         	6.764
MS.226         	15.96          	6.81
MS.227         	15.927         	6.812
MS.228         	15.895         	6.804
MS.229         	15.865         	6.749
MS.230         	15.832         	6.818
MS.231         	15.8           	6.695
MS.232         	15.77          	6.788
MS.233         	15.737         	6.715
MS.234         	15.705         	6.727
MS.235         	15.675         	6.751
MS.236         	15.642         	6.695
MS.237         	15.612         	6.693
MS.238         	15.58          	6.653
MS.239         	15.55          	6.631
MS.240         	15.52          	6.725
MS.241         	15.487         	6.695
MS.242         	15.457         	6.651
MS.243         	15.425         	6.691
MS.244         	15.395         	6.586
MS.245         	15.365         	6.612
MS.246         	15.332         	6.588
MS.247         	15.302         	6.574
MS.248         	15.273         	6.55
MS.249         	15.242         	6.645
MS.250         	15.212         	6.58
MS.251         	15.18          	6.574
MS.252         	15.15          	6.524
MS.253         	15.12          	6.61
MS.254         	15.09          	6.536
MS.255         	15.06          	6.564
MS.256         	15.03          	6.58
MS.257         	15             	6.445
MS.258         	14.97          	6.453
MS.259         	14.94          	6.407
MS.260         	14.91          	6.476
MS.261         	14.88          	6.474
MS.262         	14.85          	6.413
MS.263         	14.82          	6.451
MS.264         	14.792         	6.48
MS.265         	14.762         	6.399
MS.266         	14.733         	6.431
MS.267         	14.702         	6.435
MS.268         	14.672         	6.339
MS.269         	14.645         	6.337
MS.270         	14.615         	6.389
MS.271         	14.585         	6.361
MS.272         	14.557         	6.248
MS.273         	14.527         	6.411
MS.274         	14.497         	6.248
MS.275         	14.47          	6.218
MS.276         	14.44          	6.341
MS.277         	14.412         	6.302
MS.278         	14.382         	6.179
MS.279         	14.355         	6.234
MS.280         	14.325         	6.202
MS.281         	14.297         	6.175
MS.282         	14.267         	6.214
MS.283         	14.24          	6.238
MS.284         	14.212         	6.238
MS.285         	14.182         	6.192
MS.286         	14.155         	6.244
MS.287         	14.127         	6.214
MS.288         	14.097         	6.278
MS.289         	14.07          	6.137
MS.290         	14.042         	6.202
MS.291         	14.015         	6.204
MS.292         	13.985         	6.093
MS.293         	13.957         	6.165
MS.294         	13.93          	6.147
MS.295         	13.903         	6.091
MS.296         	13.875         	6.179
MS.297         	13.847         	6.165
MS.298         	13.82          	6.022
MS.299         	13.792         	6.022
MS.300         	13.765         	6.131
MS.301         	13.737         	6.149
MS.302         	13.71          	6.038
MS.303         	13.682         	6.01
MS.304         	13.655         	6.034
MS.305         	13.627         	6.067
MS.306         	13.6           	6.02
MS.307         	13.572         	6.049
MS.308         	13.545         	6.141
MS.309         	13.517         	6
MS.310         	13.492         	6.061
MS.311         	13.465         	6.139
MS.312         	13.438         	5.962
MS.313         	13.41          	5.93
MS.314         	13.385         	5.992
MS.315         	13.358         	6.083
MS.316         	13.33          	6.008
MS.317         	13.305         	6.02
MS.318         	13.278         	5.978
MS.319         	13.25          	5.889
MS.320         	13.225         	5.914
MS.321         	13.197         	5.869
MS.322         	13.172         	5.867
MS.323         	13.145         	5.837
MS.324         	13.12          	5.904
MS.325         	13.092         	5.887
MS.326         	13.068         	5.823
MS.327         	13.04          	5.807
MS.328         	13.015         	5.895
MS.329         	12.987         	5.775
MS.330         	12.962         	5.946
MS.331         	12.938         	5.714
MS.332         	12.91          	5.916
MS.333         	12.885         	5.944
MS.334         	12.86          	5.889
MS.335         	12.832         	5.726
MS.336         	12.807         	5.74
MS.337         	12.782         	5.662
MS.338         	12.757         	5.865
MS.339         	12.73          	5.638
MS.340         	12.705         	5.765
MS.341         	12.68          	5.658
MS.342         	12.655         	5.634
MS.343         	12.63          	5.527
MS.344         	12.605         	5.511
MS.345         	12.58          	5.543
MS.346         	12.555         	5.654
MS.347         	12.53          	5.672
MS.348         	12.505         	5.406
MS.349         	12.48          	5.505
MS.350         	12.455         	5.62
MS.351         	12.43          	5.515
MS.352         	12.405         	5.225
MS.353         	12.38          	5.184
MS.354         	12.355         	5.321
MS.355         	12.33          	5.261
MS.356         	12.305         	5.35
MS.357         	12.28          	5.368
MS.358         	12.257         	5.213
MS.359         	12.233         	5.305
MS.360         	12.207         	5.088
MS.361         	12.182         	5.082
MS.362         	12.16          	5.126
MS.363         	12.135         	5.186
MS.364         	12.11          	4.999
MS.365         	12.085         	5.11
MS.366         	12.062         	5.116
MS.367         	12.037         	5.108
MS.368         	12.012         	5.039
MS.369         	11.99          	5.072
MS.370         	11.965         	4.927
MS.371         	11.943         	4.87
MS.372         	11.917         	4.87
MS.373         	11.895         	4.977
MS.374         	11.87          	4.971
MS.375         	11.847         	4.864
MS.376         	11.822         	5.009
MS.377         	11.8           	4.82
MS.378         	11.775         	4.906
MS.379         	11.752         	4.8
MS.380         	11.73          	4.794
MS.381         	11.705         	4.681
MS.382         	11.682         	4.733
MS.383         	11.657         	4.755
MS.384         	11.635         	4.687
MS.385         	11.613         	4.588
MS.386         	11.59          	4.693
MS.387         	11.565         	4.679
MS.388         	11.542         	4.618
MS.389         	11.52          	4.631
MS.390         	11.497         	4.655
MS.391         	11.472         	4.647
MS.392         	11.45          	4.598
MS.393         	11.427         	4.467
MS.394         	11.405         	4.502
MS.395         	11.382         	4.451
MS.396         	11.36          	4.475
MS.397         	11.337         	4.31
MS.398         	11.315         	4.395
MS.399         	11.292         	4.437
MS.400         	11.27          	4.314
MS.401         	11.247         	4.367
MS.402         	11.225         	4.276
MS.403         	11.202         	4.385
MS.404         	11.18          	4.29
MS.405         	11.157         	4.296
MS.406         	11.135         	4.171
MS.407         	11.113         	4.145
MS.408         	11.09          	4.165
MS.409         	11.068         	4.113
MS.410         	11.045         	4.153
MS.411         	11.023         	4.252
MS.412         	11.002         	4.185
MS.413         	10.98          	4.006
MS.414         	10.957         	4.123
MS.415         	10.935         	4.059
MS.416         	10.915         	3.934
MS.417         	10.892         	3.966
MS.418         	10.87          	3.994
MS.419         	10.85          	4.02
MS.420         	10.827         	3.962
MS.421         	10.805         	4.002
MS.422         	10.785         	3.978
MS.423         	10.762         	3.914
MS.424         	10.74          	3.932
MS.425         	10.72          	3.873
MS.426         	10.698         	3.837
MS.427         	10.677         	4.024
MS.428         	10.655         	3.807
MS.429         	10.635         	3.847
MS.430         	10.613         	3.728
MS.431         	10.592         	3.865
MS.432         	10.57          	3.841
MS.433         	10.55          	3.847
MS.434         	10.528         	3.783
MS.435         	10.507         	3.754
MS.436         	10.485         	3.752
MS.437         	10.465         	3.678
MS.438         	10.445         	3.607
MS.439         	10.422         	3.533
MS.440         	10.403         	3.704
MS.441         	10.382         	3.682
MS.442         	10.36          	3.609
MS.443         	10.34          	3.599
MS.444         	10.32          	3.579
MS.445         	10.3           	3.573
MS.446         	10.278         	3.493
MS.447         	10.257         	3.416
MS.448         	10.238         	3.573
MS.449         	10.217         	3.487
MS.450         	10.198         	3.539
MS.451         	10.175         	3.66
MS.452         	10.155         	3.484
MS.453         	10.135         	3.337
MS.454         	10.115         	3.223
MS.455         	10.095         	3.106
MS.456         	10.075         	3.396
MS.457         	10.055         	3.45
MS.458         	10.035         	3.231
MS.459         	10.015         	3.398
MS.460         	9.995          	3.4
MS.461         	9.975          	3.259
MS.462         	9.955          	3.339
MS.463         	9.935          	3.158
MS.464         	9.915          	3.084
MS.465         	9.895          	3.011
MS.466         	9.875          	3.235
MS.467         	9.855          	3.293
MS.468         	9.835          	3.138
MS.469         	9.818          	2.949
MS.470         	9.797          	3.257
MS.471         	9.778          	2.886
MS.472         	9.757          	2.985
MS.473         	9.738          	2.836
MS.474         	9.717          	3.078
MS.475         	9.7            	2.88
MS.476         	9.68           	2.739
MS.477         	9.66           	2.723
MS.478         	9.64           	2.761
MS.479         	9.622          	2.816
MS.480         	9.602          	2.788
MS.481         	9.582          	2.763
MS.482         	9.565          	2.705
MS.483         	9.545          	2.896
MS.484         	9.525          	2.834
MS.485         	9.507          	2.727
MS.486         	9.488          	2.554
MS.487         	9.47           	2.57
MS.488         	9.45           	2.363
MS.489         	9.432          	2.598
MS.490         	9.412          	2.739
MS.491         	9.395          	2.776
MS.492         	9.375          	2.673
MS.493         	9.358          	2.705
MS.494         	9.337          	2.655
MS.495         	9.32           	2.624
MS.496         	9.3            	2.496
MS.497         	9.283          	2.502
MS.498         	9.262          	2.427
MS.499         	9.245          	2.469
MS.500         	9.225          	2.266
MS.501         	9.207          	2.377
