File:              	C:\Qtrac\Data\Daniel M Sørensen\MScan multicentre study\Data from centres\Roskilde\Folders with NC-examinations\ROS_N6b\MBC00429A.QZD
Name:              	DK.ROS.NC.6.2
Protocol:          	MSCAN-R2
Date:              	29/4/20
Start time:        	14:43:42
Age:               	72
Sex:               	F
Temperature:       	40.9
S/R sites:         	Median Wr-APB
NC/disease:        	NC
Operator:          	MB
Comments:
M-SCAN DATA (6.9-1.6m)
Scanpts: 38, 47, 554, 558
Stim. (mA)     	Amp. (mV)
MS.1           	14.5           	4.743
MS.2           	14.5           	4.743
MS.3           	14.5           	4.737
MS.4           	14.5           	4.725
MS.5           	14.5           	4.689
MS.6           	14.5           	4.741
MS.7           	14.5           	4.77
MS.8           	14.5           	4.816
MS.9           	14.5           	4.87
MS.10          	14.5           	4.882
MS.11          	14.5           	4.876
MS.12          	14.5           	4.88
MS.13          	14.5           	4.898
MS.14          	14.5           	4.9
MS.15          	14.5           	4.898
MS.16          	14.5           	4.898
MS.17          	14.5           	4.945
MS.18          	14.5           	4.951
MS.19          	14.5           	4.933
MS.20          	14.5           	4.896
MS.21          	14.5           	4.925
MS.22          	14.5           	4.923
MS.23          	14.5           	4.915
MS.24          	14.443         	4.919
MS.25          	14.412         	4.87
MS.26          	14.385         	4.868
MS.27          	14.355         	4.864
MS.28          	14.327         	4.86
MS.29          	14.297         	4.86
MS.30          	14.27          	4.878
MS.31          	14.242         	4.866
MS.32          	14.212         	4.87
MS.33          	14.185         	4.85
MS.34          	14.155         	4.838
MS.35          	14.127         	4.836
MS.36          	14.1           	4.828
MS.37          	14.072         	4.832
MS.38          	14.042         	4.83
MS.39          	14.015         	4.832
MS.40          	13.987         	4.83
MS.41          	13.96          	4.814
MS.42          	13.932         	4.82
MS.43          	13.903         	4.816
MS.44          	13.875         	4.822
MS.45          	13.847         	4.826
MS.46          	13.82          	4.82
MS.47          	13.792         	4.824
MS.48          	13.765         	4.828
MS.49          	13.737         	4.828
MS.50          	13.71          	4.83
MS.51          	13.682         	4.818
MS.52          	13.655         	4.826
MS.53          	13.627         	4.832
MS.54          	13.6           	4.828
MS.55          	13.575         	4.858
MS.56          	13.547         	4.832
MS.57          	13.52          	4.832
MS.58          	13.492         	4.842
MS.59          	13.465         	4.826
MS.60          	13.44          	4.842
MS.61          	13.412         	4.81
MS.62          	13.385         	4.816
MS.63          	13.358         	4.826
MS.64          	13.332         	4.824
MS.65          	13.305         	4.838
MS.66          	13.278         	4.834
MS.67          	13.252         	4.832
MS.68          	13.225         	4.822
MS.69          	13.2           	4.836
MS.70          	13.172         	4.832
MS.71          	13.148         	4.842
MS.72          	13.12          	4.836
MS.73          	13.095         	4.844
MS.74          	13.068         	4.85
MS.75          	13.042         	4.862
MS.76          	13.015         	4.848
MS.77          	12.99          	4.814
MS.78          	12.962         	4.834
MS.79          	12.938         	4.838
MS.80          	12.912         	4.838
MS.81          	12.885         	4.842
MS.82          	12.86          	4.834
MS.83          	12.835         	4.804
MS.84          	12.81          	4.84
MS.85          	12.782         	4.804
MS.86          	12.757         	4.808
MS.87          	12.733         	4.808
MS.88          	12.707         	4.806
MS.89          	12.682         	4.784
MS.90          	12.655         	4.794
MS.91          	12.63          	4.81
MS.92          	12.605         	4.802
MS.93          	12.58          	4.79
MS.94          	12.555         	4.778
MS.95          	12.53          	4.772
MS.96          	12.505         	4.79
MS.97          	12.48          	4.766
MS.98          	12.455         	4.768
MS.99          	12.43          	4.78
MS.100         	12.405         	4.788
MS.101         	12.38          	4.768
MS.102         	12.355         	4.689
MS.103         	12.332         	4.751
MS.104         	12.307         	4.673
MS.105         	12.282         	4.761
MS.106         	12.257         	4.685
MS.107         	12.233         	4.673
MS.108         	12.207         	4.679
MS.109         	12.185         	4.655
MS.110         	12.16          	4.757
MS.111         	12.135         	4.675
MS.112         	12.113         	4.675
MS.113         	12.087         	4.745
MS.114         	12.062         	4.761
MS.115         	12.04          	4.707
MS.116         	12.015         	4.665
MS.117         	11.99          	4.663
MS.118         	11.967         	4.596
MS.119         	11.943         	4.679
MS.120         	11.92          	4.653
MS.121         	11.895         	4.6
MS.122         	11.872         	4.604
MS.123         	11.847         	4.6
MS.124         	11.825         	4.665
MS.125         	11.8           	4.588
MS.126         	11.778         	4.657
MS.127         	11.752         	4.661
MS.128         	11.73          	4.653
MS.129         	11.707         	4.586
MS.130         	11.682         	4.655
MS.131         	11.66          	4.639
MS.132         	11.637         	4.58
MS.133         	11.613         	4.578
MS.134         	11.59          	4.62
MS.135         	11.568         	4.584
MS.136         	11.545         	4.582
MS.137         	11.52          	4.584
MS.138         	11.497         	4.574
MS.139         	11.475         	4.592
MS.140         	11.452         	4.594
MS.141         	11.43          	4.574
MS.142         	11.405         	4.582
MS.143         	11.382         	4.558
MS.144         	11.36          	4.582
MS.145         	11.337         	4.554
MS.146         	11.315         	4.562
MS.147         	11.292         	4.568
MS.148         	11.27          	4.6
MS.149         	11.247         	4.582
MS.150         	11.225         	4.586
MS.151         	11.202         	4.586
MS.152         	11.18          	4.572
MS.153         	11.157         	4.5
MS.154         	11.135         	4.574
MS.155         	11.113         	4.56
MS.156         	11.09          	4.465
MS.157         	11.07          	4.542
MS.158         	11.047         	4.53
MS.159         	11.025         	4.479
MS.160         	11.002         	4.403
MS.161         	10.98          	4.471
MS.162         	10.96          	4.508
MS.163         	10.938         	4.389
MS.164         	10.915         	4.467
MS.165         	10.892         	4.496
MS.166         	10.872         	4.451
MS.167         	10.85          	4.447
MS.168         	10.827         	4.393
MS.169         	10.807         	4.445
MS.170         	10.785         	4.455
MS.171         	10.762         	4.385
MS.172         	10.742         	4.461
MS.173         	10.72          	4.459
MS.174         	10.7           	4.377
MS.175         	10.677         	4.377
MS.176         	10.655         	4.409
MS.177         	10.635         	4.457
MS.178         	10.613         	4.254
MS.179         	10.592         	4.393
MS.180         	10.573         	4.377
MS.181         	10.55          	4.377
MS.182         	10.53          	4.314
MS.183         	10.507         	4.369
MS.184         	10.488         	4.369
MS.185         	10.465         	4.256
MS.186         	10.445         	4.254
MS.187         	10.425         	4.359
MS.188         	10.403         	4.244
MS.189         	10.382         	4.218
MS.190         	10.363         	4.23
MS.191         	10.342         	4.24
MS.192         	10.32          	4.244
MS.193         	10.3           	4.228
MS.194         	10.28          	4.351
MS.195         	10.26          	4.22
MS.196         	10.238         	4.23
MS.197         	10.217         	4.222
MS.198         	10.198         	4.206
MS.199         	10.177         	4.228
MS.200         	10.157         	4.234
MS.201         	10.137         	4.216
MS.202         	10.117         	4.22
MS.203         	10.095         	4.208
MS.204         	10.075         	4.22
MS.205         	10.055         	4.218
MS.206         	10.035         	4.195
MS.207         	10.015         	4.21
MS.208         	9.995          	4.157
MS.209         	9.975          	4.195
MS.210         	9.955          	4.183
MS.211         	9.935          	4.191
MS.212         	9.915          	4.153
MS.213         	9.895          	4.159
MS.214         	9.877          	4.151
MS.215         	9.858          	4.159
MS.216         	9.837          	4.187
MS.217         	9.818          	4.167
MS.218         	9.797          	4.141
MS.219         	9.778          	4.145
MS.220         	9.757          	4.145
MS.221         	9.74           	4.143
MS.222         	9.72           	4.143
MS.223         	9.7            	4.133
MS.224         	9.68           	4.147
MS.225         	9.662          	4.115
MS.226         	9.642          	4.125
MS.227         	9.622          	4.085
MS.228         	9.602          	4.099
MS.229         	9.585          	4.107
MS.230         	9.565          	4.089
MS.231         	9.545          	4.093
MS.232         	9.528          	4.111
MS.233         	9.507          	4.099
MS.234         	9.49           	4.103
MS.235         	9.47           	4.022
MS.236         	9.45           	4.038
MS.237         	9.432          	4.089
MS.238         	9.412          	4.036
MS.239         	9.395          	4.022
MS.240         	9.375          	4.038
MS.241         	9.358          	4.012
MS.242         	9.337          	4.026
MS.243         	9.32           	4.02
MS.244         	9.3            	3.99
MS.245         	9.283          	3.982
MS.246         	9.265          	4.004
MS.247         	9.245          	3.944
MS.248         	9.227          	4.014
MS.249         	9.207          	3.956
MS.250         	9.19           	3.966
MS.251         	9.172          	3.964
MS.252         	9.153          	3.942
MS.253         	9.135          	3.946
MS.254         	9.117          	3.613
MS.255         	9.1            	3.897
MS.256         	9.08           	3.897
MS.257         	9.062          	3.895
MS.258         	9.045          	3.942
MS.259         	9.028          	3.914
MS.260         	9.007          	3.875
MS.261         	8.99           	3.599
MS.262         	8.972          	3.591
MS.263         	8.955          	3.887
MS.264         	8.938          	3.621
MS.265         	8.917          	3.468
MS.266         	8.9            	3.44
MS.267         	8.882          	3.468
MS.268         	8.865          	3.442
MS.269         	8.847          	3.593
MS.270         	8.83           	3.396
MS.271         	8.812          	3.416
MS.272         	8.795          	3.4
MS.273         	8.778          	3.521
MS.274         	8.76           	3.444
MS.275         	8.742          	3.487
MS.276         	8.725          	3.438
MS.277         	8.707          	3.402
MS.278         	8.69           	3.299
MS.279         	8.672          	3.368
MS.280         	8.655          	3.245
MS.281         	8.637          	3.442
MS.282         	8.62           	3.219
MS.283         	8.602          	3.311
MS.284         	8.585          	3.362
MS.285         	8.57           	3.301
MS.286         	8.552          	3.251
MS.287         	8.535          	3.064
MS.288         	8.517          	3.271
MS.289         	8.5            	3.178
MS.290         	8.483          	3.368
MS.291         	8.467          	3.132
MS.292         	8.45           	3.114
MS.293         	8.432          	3.184
MS.294         	8.415          	3.019
MS.295         	8.4            	3.015
MS.296         	8.382          	3.211
MS.297         	8.365          	3.037
MS.298         	8.35           	2.896
MS.299         	8.332          	2.81
MS.300         	8.315          	2.9
MS.301         	8.3            	2.914
MS.302         	8.283          	2.943
MS.303         	8.265          	2.908
MS.304         	8.25           	2.761
MS.305         	8.233          	2.921
MS.306         	8.217          	2.814
MS.307         	8.2            	2.727
MS.308         	8.182          	2.699
MS.309         	8.167          	2.755
MS.310         	8.15           	2.612
MS.311         	8.135          	2.647
MS.312         	8.117          	2.52
MS.313         	8.102          	2.671
MS.314         	8.085          	2.508
MS.315         	8.07           	2.637
MS.316         	8.055          	2.665
MS.317         	8.037          	2.544
MS.318         	8.023          	2.663
MS.319         	8.005          	2.51
MS.320         	7.99           	2.655
MS.321         	7.972          	2.498
MS.322         	7.957          	2.612
MS.323         	7.942          	2.598
MS.324         	7.925          	2.425
MS.325         	7.91           	2.55
MS.326         	7.895          	2.461
MS.327         	7.878          	2.445
MS.328         	7.862          	2.375
MS.329         	7.847          	2.353
MS.330         	7.832          	2.369
MS.331         	7.815          	2.516
MS.332         	7.8            	2.361
MS.333         	7.785          	2.546
MS.334         	7.77           	2.338
MS.335         	7.753          	2.359
MS.336         	7.737          	2.419
MS.337         	7.722          	2.361
MS.338         	7.707          	2.189
MS.339         	7.692          	2.159
MS.340         	7.677          	2.008
MS.341         	7.66           	2.01
MS.342         	7.645          	2.129
MS.343         	7.63           	2.069
MS.344         	7.615          	2.121
MS.345         	7.6            	2.145
MS.346         	7.585          	2.02
MS.347         	7.57           	1.936
MS.348         	7.555          	2.109
MS.349         	7.54           	1.99
MS.350         	7.525          	1.911
MS.351         	7.51           	1.873
MS.352         	7.495          	1.889
MS.353         	7.48           	1.863
MS.354         	7.465          	1.803
MS.355         	7.45           	1.793
MS.356         	7.435          	1.895
MS.357         	7.42           	1.803
MS.358         	7.405          	1.791
MS.359         	7.39           	1.813
MS.360         	7.375          	1.674
MS.361         	7.36           	1.724
MS.362         	7.345          	1.694
MS.363         	7.33           	1.662
MS.364         	7.317          	1.819
MS.365         	7.302          	1.789
MS.366         	7.287          	1.533
MS.367         	7.273          	1.374
MS.368         	7.257          	1.519
MS.369         	7.245          	1.513
MS.370         	7.23           	1.267
MS.371         	7.215          	1.527
MS.372         	7.2            	1.45
MS.373         	7.185          	1.362
MS.374         	7.172          	1.452
MS.375         	7.157          	1.384
MS.376         	7.142          	1.426
MS.377         	7.13           	1.547
MS.378         	7.115          	1.086
MS.379         	7.1            	1.221
MS.380         	7.085          	1.148
MS.381         	7.072          	1.12
MS.382         	7.057          	1.263
MS.383         	7.045          	1.394
MS.384         	7.03           	1.354
MS.385         	7.015          	1.307
MS.386         	7.003          	0.941
MS.387         	6.987          	0.918
MS.388         	6.972          	1.106
MS.389         	6.96           	0.884
MS.390         	6.945          	0.878
MS.391         	6.932          	0.977
MS.392         	6.918          	0.862
MS.393         	6.905          	0.914
MS.394         	6.89           	0.927
MS.395         	6.878          	0.884
MS.396         	6.862          	0.884
MS.397         	6.85           	0.916
MS.398         	6.835          	0.939
MS.399         	6.822          	1.021
MS.400         	6.807          	0.828
MS.401         	6.795          	0.828
MS.402         	6.78           	0.81
MS.403         	6.767          	0.892
MS.404         	6.755          	0.761
MS.405         	6.74           	0.826
MS.406         	6.727          	0.773
MS.407         	6.712          	0.79
MS.408         	6.7            	0.8
MS.409         	6.688          	0.761
MS.410         	6.672          	0.792
MS.411         	6.66           	0.816
MS.412         	6.648          	0.796
MS.413         	6.632          	0.775
MS.414         	6.62           	0.661
MS.415         	6.608          	0.818
MS.416         	6.595          	0.697
MS.417         	6.58           	0.788
MS.418         	6.567          	0.775
MS.419         	6.555          	0.771
MS.420         	6.543          	0.542
MS.421         	6.527          	0.63
MS.422         	6.515          	0.786
MS.423         	6.503          	0.784
MS.424         	6.49           	0.602
MS.425         	6.477          	0.497
MS.426         	6.462          	0.485
MS.427         	6.45           	0.641
MS.428         	6.438          	0.757
MS.429         	6.425          	0.592
MS.430         	6.412          	0.624
MS.431         	6.4            	0.594
MS.432         	6.385          	0.598
MS.433         	6.372          	0.467
MS.434         	6.36           	0.459
MS.435         	6.347          	0.435
MS.436         	6.335          	0.638
MS.437         	6.322          	0.51
MS.438         	6.31           	0.53
MS.439         	6.297          	0.449
MS.440         	6.285          	0.455
MS.441         	6.273          	0.495
MS.442         	6.26           	0.504
MS.443         	6.247          	0.401
MS.444         	6.235          	0.483
MS.445         	6.222          	0.419
MS.446         	6.21           	0.491
MS.447         	6.197          	0.411
MS.448         	6.185          	0.439
MS.449         	6.172          	0.435
MS.450         	6.16           	0.433
MS.451         	6.148          	0.369
MS.452         	6.135          	0.344
MS.453         	6.122          	0.361
MS.454         	6.112          	0.387
MS.455         	6.1            	0.385
MS.456         	6.088          	0.359
MS.457         	6.075          	0.375
MS.458         	6.062          	0.35
MS.459         	6.05           	0.385
MS.460         	6.037          	0.342
MS.461         	6.027          	0.451
MS.462         	6.015          	0.322
MS.463         	6.003          	0.389
MS.464         	5.99           	0.292
MS.465         	5.977          	0.393
MS.466         	5.967          	0.437
MS.467         	5.955          	0.352
MS.468         	5.942          	0.352
MS.469         	5.93           	0.246
MS.470         	5.92           	0.365
MS.471         	5.907          	0.33
MS.472         	5.895          	0.363
MS.473         	5.882          	0.318
MS.474         	5.872          	0.336
MS.475         	5.86           	0.334
MS.476         	5.847          	0.302
MS.477         	5.838          	0.31
MS.478         	5.825          	0.32
MS.479         	5.812          	0.304
MS.480         	5.802          	0.26
MS.481         	5.79           	0.332
MS.482         	5.777          	0.302
MS.483         	5.767          	0.316
MS.484         	5.755          	0.322
MS.485         	5.745          	0.276
MS.486         	5.733          	0.318
MS.487         	5.72           	0.266
MS.488         	5.71           	0.28
MS.489         	5.697          	0.298
MS.490         	5.688          	0.306
MS.491         	5.675          	0.33
MS.492         	5.665          	0.27
MS.493         	5.652          	0.274
MS.494         	5.642          	0.23
MS.495         	5.63           	0.238
MS.496         	5.62           	0.189
MS.497         	5.608          	0.232
MS.498         	5.597          	0.278
MS.499         	5.585          	0.228
MS.500         	5.575          	0.205
MS.501         	5.562          	0.195
