File:              	C:\Qtrac\Data\Daniel M Sørensen\MScan multicentre study\Data from centres\Roskilde\Folders with NC-examinations\ROS_N8b\MBC00605C.QZD
Name:              	DK.ROS.NC.8.2
Protocol:          	MSCAN-R2
Date:              	5/6/20
Start time:        	11:10:56
Age:               	52
Sex:               	F
Temperature:       	35,6
S/R sites:         	Pero-Tib ant
NC/disease:        	NC
Operator:          	tr
Comments:
M-SCAN DATA (Repeat 2/2, 21.6-12.5m)
Scanpts: 17, 25, 928, 949
Stim. (mA)     	Amp. (mV)
MS.1           	21             	6.83
MS.2           	21             	6.824
MS.3           	21             	6.824
MS.4           	21             	6.79
MS.5           	21             	6.764
MS.6           	21             	6.772
MS.7           	21             	6.776
MS.8           	21             	6.774
MS.9           	21             	6.778
MS.10          	21             	6.77
MS.11          	21             	6.776
MS.12          	21             	6.751
MS.13          	21             	6.735
MS.14          	21             	6.758
MS.15          	21             	6.735
MS.16          	21             	6.743
MS.17          	21             	6.741
MS.18          	21             	6.727
MS.19          	21             	6.772
MS.20          	21             	6.717
MS.21          	21             	6.705
MS.22          	21             	6.729
MS.23          	21             	6.717
MS.24          	20.958         	6.741
MS.25          	20.915         	6.727
MS.26          	20.875         	6.707
MS.27          	20.833         	6.689
MS.28          	20.79          	6.715
MS.29          	20.75          	6.707
MS.30          	20.708         	6.707
MS.31          	20.667         	6.725
MS.32          	20.625         	6.729
MS.33          	20.585         	6.705
MS.34          	20.542         	6.727
MS.35          	20.502         	6.701
MS.36          	20.46          	6.729
MS.37          	20.42          	6.711
MS.38          	20.38          	6.697
MS.39          	20.337         	6.729
MS.40          	20.297         	6.695
MS.41          	20.257         	6.693
MS.42          	20.217         	6.693
MS.43          	20.177         	6.703
MS.44          	20.137         	6.695
MS.45          	20.095         	6.691
MS.46          	20.055         	6.673
MS.47          	20.015         	6.705
MS.48          	19.975         	6.685
MS.49          	19.935         	6.679
MS.50          	19.895         	6.679
MS.51          	19.858         	6.645
MS.52          	19.817         	6.659
MS.53          	19.778         	6.661
MS.54          	19.737         	6.641
MS.55          	19.698         	6.637
MS.56          	19.66          	6.639
MS.57          	19.62          	6.637
MS.58          	19.58          	6.625
MS.59          	19.54          	6.669
MS.60          	19.502         	6.635
MS.61          	19.462         	6.655
MS.62          	19.425         	6.641
MS.63          	19.385         	6.641
MS.64          	19.347         	6.627
MS.65          	19.307         	6.637
MS.66          	19.27          	6.639
MS.67          	19.23          	6.615
MS.68          	19.192         	6.637
MS.69          	19.155         	6.6
MS.70          	19.115         	6.606
MS.71          	19.077         	6.623
MS.72          	19.04          	6.631
MS.73          	19.002         	6.606
MS.74          	18.962         	6.608
MS.75          	18.925         	6.625
MS.76          	18.887         	6.606
MS.77          	18.85          	6.588
MS.78          	18.812         	6.619
MS.79          	18.775         	6.596
MS.80          	18.737         	6.608
MS.81          	18.7           	6.625
MS.82          	18.663         	6.58
MS.83          	18.625         	6.598
MS.84          	18.587         	6.592
MS.85          	18.55          	6.627
MS.86          	18.515         	6.612
MS.87          	18.477         	6.619
MS.88          	18.44          	6.606
MS.89          	18.403         	6.572
MS.90          	18.368         	6.594
MS.91          	18.33          	6.594
MS.92          	18.292         	6.58
MS.93          	18.257         	6.594
MS.94          	18.22          	6.596
MS.95          	18.182         	6.57
MS.96          	18.147         	6.574
MS.97          	18.11          	6.58
MS.98          	18.075         	6.582
MS.99          	18.04          	6.592
MS.100         	18.003         	6.615
MS.101         	17.967         	6.574
MS.102         	17.93          	6.588
MS.103         	17.895         	6.59
MS.104         	17.86          	6.606
MS.105         	17.823         	6.572
MS.106         	17.788         	6.59
MS.107         	17.753         	6.59
MS.108         	17.717         	6.592
MS.109         	17.682         	6.566
MS.110         	17.645         	6.574
MS.111         	17.61          	6.584
MS.112         	17.575         	6.566
MS.113         	17.54          	6.59
MS.114         	17.505         	6.56
MS.115         	17.47          	6.568
MS.116         	17.435         	6.54
MS.117         	17.4           	6.548
MS.118         	17.365         	6.566
MS.119         	17.333         	6.532
MS.120         	17.297         	6.566
MS.121         	17.262         	6.566
MS.122         	17.227         	6.536
MS.123         	17.192         	6.53
MS.124         	17.16          	6.544
MS.125         	17.125         	6.546
MS.126         	17.09          	6.536
MS.127         	17.057         	6.552
MS.128         	17.022         	6.536
MS.129         	16.987         	6.538
MS.130         	16.955         	6.522
MS.131         	16.92          	6.522
MS.132         	16.887         	6.538
MS.133         	16.852         	6.526
MS.134         	16.82          	6.532
MS.135         	16.785         	6.528
MS.136         	16.753         	6.536
MS.137         	16.717         	6.538
MS.138         	16.685         	6.544
MS.139         	16.653         	6.53
MS.140         	16.618         	6.54
MS.141         	16.585         	6.51
MS.142         	16.552         	6.53
MS.143         	16.52          	6.52
MS.144         	16.485         	6.514
MS.145         	16.452         	6.518
MS.146         	16.42          	6.524
MS.147         	16.387         	6.542
MS.148         	16.355         	6.514
MS.149         	16.323         	6.51
MS.150         	16.29          	6.502
MS.151         	16.257         	6.488
MS.152         	16.225         	6.512
MS.153         	16.192         	6.524
MS.154         	16.16          	6.492
MS.155         	16.128         	6.532
MS.156         	16.095         	6.502
MS.157         	16.062         	6.496
MS.158         	16.03          	6.486
MS.159         	16             	6.516
MS.160         	15.967         	6.506
MS.161         	15.935         	6.502
MS.162         	15.902         	6.488
MS.163         	15.872         	6.488
MS.164         	15.84          	6.502
MS.165         	15.807         	6.494
MS.166         	15.777         	6.484
MS.167         	15.745         	6.463
MS.168         	15.712         	6.476
MS.169         	15.682         	6.488
MS.170         	15.65          	6.48
MS.171         	15.62          	6.482
MS.172         	15.587         	6.478
MS.173         	15.557         	6.467
MS.174         	15.525         	6.463
MS.175         	15.495         	6.469
MS.176         	15.465         	6.445
MS.177         	15.432         	6.478
MS.178         	15.402         	6.457
MS.179         	15.372         	6.439
MS.180         	15.34          	6.465
MS.181         	15.31          	6.467
MS.182         	15.28          	6.457
MS.183         	15.25          	6.455
MS.184         	15.217         	6.461
MS.185         	15.188         	6.449
MS.186         	15.157         	6.463
MS.187         	15.127         	6.463
MS.188         	15.097         	6.453
MS.189         	15.068         	6.455
MS.190         	15.037         	6.451
MS.191         	15.007         	6.451
MS.192         	14.977         	6.459
MS.193         	14.947         	6.453
MS.194         	14.917         	6.457
MS.195         	14.887         	6.451
MS.196         	14.858         	6.461
MS.197         	14.827         	6.449
MS.198         	14.797         	6.467
MS.199         	14.77          	6.429
MS.200         	14.74          	6.447
MS.201         	14.71          	6.435
MS.202         	14.68          	6.443
MS.203         	14.65          	6.449
MS.204         	14.622         	6.451
MS.205         	14.592         	6.449
MS.206         	14.562         	6.459
MS.207         	14.535         	6.435
MS.208         	14.505         	6.465
MS.209         	14.477         	6.431
MS.210         	14.447         	6.439
MS.211         	14.417         	6.431
MS.212         	14.39          	6.429
MS.213         	14.36          	6.411
MS.214         	14.332         	6.419
MS.215         	14.305         	6.443
MS.216         	14.275         	6.429
MS.217         	14.247         	6.435
MS.218         	14.217         	6.439
MS.219         	14.19          	6.429
MS.220         	14.162         	6.433
MS.221         	14.132         	6.441
MS.222         	14.105         	6.459
MS.223         	14.077         	6.449
MS.224         	14.047         	6.441
MS.225         	14.02          	6.429
MS.226         	13.992         	6.433
MS.227         	13.965         	6.431
MS.228         	13.938         	6.431
MS.229         	13.91          	6.427
MS.230         	13.88          	6.441
MS.231         	13.852         	6.427
MS.232         	13.825         	6.431
MS.233         	13.797         	6.419
MS.234         	13.77          	6.449
MS.235         	13.742         	6.429
MS.236         	13.715         	6.413
MS.237         	13.688         	6.413
MS.238         	13.66          	6.421
MS.239         	13.632         	6.439
MS.240         	13.605         	6.419
MS.241         	13.58          	6.423
MS.242         	13.552         	6.421
MS.243         	13.525         	6.401
MS.244         	13.497         	6.423
MS.245         	13.47          	6.423
MS.246         	13.445         	6.437
MS.247         	13.417         	6.423
MS.248         	13.39          	6.411
MS.249         	13.362         	6.393
MS.250         	13.337         	6.425
MS.251         	13.31          	6.417
MS.252         	13.282         	6.407
MS.253         	13.257         	6.419
MS.254         	13.23          	6.415
MS.255         	13.205         	6.411
MS.256         	13.177         	6.415
MS.257         	13.153         	6.411
MS.258         	13.125         	6.407
MS.259         	13.1           	6.405
MS.260         	13.072         	6.411
MS.261         	13.047         	6.407
MS.262         	13.02          	6.413
MS.263         	12.995         	6.405
MS.264         	12.967         	6.411
MS.265         	12.943         	6.393
MS.266         	12.917         	6.405
MS.267         	12.89          	6.401
MS.268         	12.865         	6.415
MS.269         	12.84          	6.411
MS.270         	12.815         	6.399
MS.271         	12.787         	6.407
MS.272         	12.762         	6.415
MS.273         	12.738         	6.397
MS.274         	12.712         	6.433
MS.275         	12.688         	6.409
MS.276         	12.66          	6.407
MS.277         	12.635         	6.389
MS.278         	12.61          	6.399
MS.279         	12.585         	6.401
MS.280         	12.56          	6.395
MS.281         	12.535         	6.369
MS.282         	12.51          	6.391
MS.283         	12.485         	6.397
MS.284         	12.46          	6.389
MS.285         	12.435         	6.393
MS.286         	12.41          	6.379
MS.287         	12.385         	6.359
MS.288         	12.36          	6.371
MS.289         	12.335         	6.369
MS.290         	12.312         	6.375
MS.291         	12.287         	6.381
MS.292         	12.262         	6.371
MS.293         	12.238         	6.403
MS.294         	12.212         	6.367
MS.295         	12.19          	6.363
MS.296         	12.165         	6.367
MS.297         	12.14          	6.369
MS.298         	12.115         	6.367
MS.299         	12.092         	6.363
MS.300         	12.068         	6.357
MS.301         	12.042         	6.353
MS.302         	12.02          	6.365
MS.303         	11.995         	6.377
MS.304         	11.972         	6.341
MS.305         	11.947         	6.341
MS.306         	11.922         	6.365
MS.307         	11.9           	6.365
MS.308         	11.875         	6.347
MS.309         	11.852         	6.345
MS.310         	11.827         	6.341
MS.311         	11.805         	6.365
MS.312         	11.782         	6.349
MS.313         	11.757         	6.355
MS.314         	11.735         	6.357
MS.315         	11.71          	6.373
MS.316         	11.688         	6.339
MS.317         	11.665         	6.341
MS.318         	11.64          	6.355
MS.319         	11.617         	6.343
MS.320         	11.595         	6.343
MS.321         	11.57          	6.371
MS.322         	11.547         	6.351
MS.323         	11.525         	6.361
MS.324         	11.502         	6.339
MS.325         	11.48          	6.347
MS.326         	11.455         	6.331
MS.327         	11.432         	6.335
MS.328         	11.41          	6.322
MS.329         	11.387         	6.361
MS.330         	11.365         	6.324
MS.331         	11.342         	6.32
MS.332         	11.32          	6.341
MS.333         	11.297         	6.316
MS.334         	11.275         	6.337
MS.335         	11.252         	6.328
MS.336         	11.23          	6.341
MS.337         	11.207         	6.333
MS.338         	11.185         	6.331
MS.339         	11.162         	6.337
MS.340         	11.14          	6.326
MS.341         	11.117         	6.357
MS.342         	11.095         	6.314
MS.343         	11.073         	6.322
MS.344         	11.05          	6.312
MS.345         	11.03          	6.322
MS.346         	11.007         	6.326
MS.347         	10.985         	6.306
MS.348         	10.962         	6.318
MS.349         	10.94          	6.316
MS.350         	10.92          	6.292
MS.351         	10.898         	6.316
MS.352         	10.875         	6.304
MS.353         	10.855         	6.308
MS.354         	10.832         	6.31
MS.355         	10.81          	6.322
MS.356         	10.79          	6.292
MS.357         	10.767         	6.266
MS.358         	10.745         	6.26
MS.359         	10.725         	6.296
MS.360         	10.702         	6.304
MS.361         	10.682         	6.284
MS.362         	10.66          	6.248
MS.363         	10.64          	6.304
MS.364         	10.617         	6.288
MS.365         	10.597         	6.266
MS.366         	10.575         	6.242
MS.367         	10.555         	6.314
MS.368         	10.532         	6.238
MS.369         	10.512         	6.292
MS.370         	10.49          	6.232
MS.371         	10.47          	6.25
MS.372         	10.45          	6.248
MS.373         	10.427         	6.24
MS.374         	10.407         	6.232
MS.375         	10.387         	6.232
MS.376         	10.365         	6.224
MS.377         	10.345         	6.22
MS.378         	10.325         	6.24
MS.379         	10.305         	6.228
MS.380         	10.282         	6.228
MS.381         	10.262         	6.192
MS.382         	10.242         	6.208
MS.383         	10.222         	6.214
MS.384         	10.202         	6.222
MS.385         	10.18          	6.212
MS.386         	10.16          	6.165
MS.387         	10.14          	6.226
MS.388         	10.12          	6.173
MS.389         	10.1           	6.206
MS.390         	10.08          	6.2
MS.391         	10.06          	6.179
MS.392         	10.04          	6.24
MS.393         	10.02          	6.23
MS.394         	10             	6.194
MS.395         	9.98           	6.23
MS.396         	9.96           	6.183
MS.397         	9.94           	6.222
MS.398         	9.92           	6.171
MS.399         	9.9            	6.183
MS.400         	9.88           	6.2
MS.401         	9.86           	6.131
MS.402         	9.84           	6.131
MS.403         	9.82           	6.137
MS.404         	9.802          	6.163
MS.405         	9.782          	6.169
MS.406         	9.762          	6.169
MS.407         	9.742          	6.173
MS.408         	9.722          	6.141
MS.409         	9.705          	6.139
MS.410         	9.685          	6.091
MS.411         	9.665          	6.113
MS.412         	9.645          	6.143
MS.413         	9.627          	6.214
MS.414         	9.608          	6.147
MS.415         	9.587          	6.163
MS.416         	9.57           	6.135
MS.417         	9.55           	6.149
MS.418         	9.53           	6.091
MS.419         	9.512          	6.137
MS.420         	9.492          	6.131
MS.421         	9.472          	6.115
MS.422         	9.455          	6.129
MS.423         	9.435          	6.167
MS.424         	9.417          	6.212
MS.425         	9.398          	6.105
MS.426         	9.38           	6.107
MS.427         	9.36           	6.143
MS.428         	9.342          	6.121
MS.429         	9.323          	6.123
MS.430         	9.305          	6.103
MS.431         	9.285          	6.034
MS.432         	9.267          	6.093
MS.433         	9.25           	6.087
MS.434         	9.23           	6.121
MS.435         	9.212          	6.049
MS.436         	9.193          	6.089
MS.437         	9.175          	6.091
MS.438         	9.158          	6.129
MS.439         	9.137          	6.085
MS.440         	9.12           	6.131
MS.441         	9.102          	6.115
MS.442         	9.085          	6.091
MS.443         	9.065          	6.109
MS.444         	9.047          	6.101
MS.445         	9.03           	6.077
MS.446         	9.012          	6.047
MS.447         	8.992          	6.028
MS.448         	8.975          	6.026
MS.449         	8.957          	6.091
MS.450         	8.94           	6.018
MS.451         	8.922          	5.93
MS.452         	8.905          	5.98
MS.453         	8.887          	6.006
MS.454         	8.867          	5.998
MS.455         	8.85           	6.024
MS.456         	8.832          	6.006
MS.457         	8.815          	5.956
MS.458         	8.797          	5.98
MS.459         	8.78           	5.95
MS.460         	8.762          	5.952
MS.461         	8.745          	6.008
MS.462         	8.727          	6.004
MS.463         	8.71           	5.986
MS.464         	8.693          	5.948
MS.465         	8.675          	5.968
MS.466         	8.658          	5.96
MS.467         	8.64           	5.877
MS.468         	8.625          	5.992
MS.469         	8.608          	5.988
MS.470         	8.59           	5.879
MS.471         	8.573          	5.94
MS.472         	8.555          	5.954
MS.473         	8.537          	5.871
MS.474         	8.52           	5.831
MS.475         	8.505          	5.851
MS.476         	8.488          	5.825
MS.477         	8.47           	5.883
MS.478         	8.452          	5.801
MS.479         	8.435          	5.908
MS.480         	8.42           	5.841
MS.481         	8.403          	5.716
MS.482         	8.385          	5.632
MS.483         	8.37           	5.706
MS.484         	8.352          	5.642
MS.485         	8.335          	5.642
MS.486         	8.32           	5.658
MS.487         	8.302          	5.624
MS.488         	8.285          	5.62
MS.489         	8.27           	5.642
MS.490         	8.252          	5.605
MS.491         	8.235          	5.678
MS.492         	8.22           	5.599
MS.493         	8.202          	5.541
MS.494         	8.188          	5.581
MS.495         	8.17           	5.533
MS.496         	8.155          	5.541
MS.497         	8.137          	5.519
MS.498         	8.122          	5.501
MS.499         	8.105          	5.483
MS.500         	8.09           	5.521
