File:              	C:\Qtrac\Data\Daniel M Sørensen\MScan multicentre study\Data from centres\Roskilde\Folders with NC-examinations\ROS_N10b\MBC00623D.QZD
Name:              	DK.ROS.NC.10.2
Protocol:          	MSCAN-R2
Date:              	23/6/20
Start time:        	19:45:04
Age:               	44
Sex:               	f
Temperature:       	38.5
S/R sites:         	Peroneal-TA
NC/disease:        	NC
Operator:          	MB
Comments:
M-SCAN DATA (8.2-1.2m)
Scanpts: 7, 15, 719, 740
Stim. (mA)     	Amp. (mV)
MS.1           	22.5           	5.325
MS.2           	22.5           	5.285
MS.3           	22.5           	5.285
MS.4           	22.5           	5.283
MS.5           	22.5           	5.269
MS.6           	22.5           	5.273
MS.7           	22.5           	5.263
MS.8           	22.5           	5.269
MS.9           	22.5           	5.279
MS.10          	22.5           	5.265
MS.11          	22.5           	5.263
MS.12          	22.5           	5.279
MS.13          	22.5           	5.265
MS.14          	22.5           	5.287
MS.15          	22.5           	5.267
MS.16          	22.5           	5.271
MS.17          	22.5           	5.253
MS.18          	22.5           	5.261
MS.19          	22.5           	5.241
MS.20          	22.5           	5.263
MS.21          	22.5           	5.261
MS.22          	22.5           	5.269
MS.23          	22.5           	5.269
MS.24          	22.41          	5.263
MS.25          	22.365         	5.249
MS.26          	22.32          	5.253
MS.27          	22.275         	5.249
MS.28          	22.233         	5.253
MS.29          	22.188         	5.259
MS.30          	22.142         	5.247
MS.31          	22.097         	5.257
MS.32          	22.055         	5.239
MS.33          	22.01          	5.245
MS.34          	21.967         	5.235
MS.35          	21.922         	5.257
MS.36          	21.877         	5.235
MS.37          	21.835         	5.211
MS.38          	21.792         	5.203
MS.39          	21.747         	5.229
MS.40          	21.705         	5.223
MS.41          	21.66          	5.241
MS.42          	21.618         	5.215
MS.43          	21.575         	5.225
MS.44          	21.532         	5.217
MS.45          	21.487         	5.215
MS.46          	21.445         	5.199
MS.47          	21.403         	5.201
MS.48          	21.36          	5.209
MS.49          	21.317         	5.247
MS.50          	21.275         	5.211
MS.51          	21.233         	5.205
MS.52          	21.19          	5.233
MS.53          	21.147         	5.195
MS.54          	21.105         	5.184
MS.55          	21.062         	5.219
MS.56          	21.02          	5.197
MS.57          	20.98          	5.207
MS.58          	20.938         	5.195
MS.59          	20.895         	5.207
MS.60          	20.852         	5.195
MS.61          	20.812         	5.211
MS.62          	20.77          	5.211
MS.63          	20.727         	5.227
MS.64          	20.688         	5.209
MS.65          	20.645         	5.201
MS.66          	20.605         	5.199
MS.67          	20.562         	5.213
MS.68          	20.522         	5.166
MS.69          	20.483         	5.174
MS.70          	20.44          	5.182
MS.71          	20.4           	5.182
MS.72          	20.36          	5.168
MS.73          	20.317         	5.168
MS.74          	20.278         	5.182
MS.75          	20.237         	5.156
MS.76          	20.198         	5.184
MS.77          	20.155         	5.18
MS.78          	20.115         	5.178
MS.79          	20.075         	5.148
MS.80          	20.035         	5.18
MS.81          	19.995         	5.162
MS.82          	19.955         	5.166
MS.83          	19.915         	5.164
MS.84          	19.875         	5.17
MS.85          	19.837         	5.154
MS.86          	19.797         	5.172
MS.87          	19.757         	5.164
MS.88          	19.717         	5.164
MS.89          	19.677         	5.166
MS.90          	19.64          	5.178
MS.91          	19.6           	5.188
MS.92          	19.56          	5.174
MS.93          	19.522         	5.17
MS.94          	19.483         	5.162
MS.95          	19.442         	5.188
MS.96          	19.405         	5.162
MS.97          	19.365         	5.19
MS.98          	19.327         	5.182
MS.99          	19.288         	5.197
MS.100         	19.25          	5.158
MS.101         	19.212         	5.193
MS.102         	19.172         	5.178
MS.103         	19.135         	5.164
MS.104         	19.097         	5.184
MS.105         	19.057         	5.205
MS.106         	19.02          	5.184
MS.107         	18.983         	5.188
MS.108         	18.945         	5.178
MS.109         	18.907         	5.186
MS.110         	18.87          	5.18
MS.111         	18.83          	5.182
MS.112         	18.792         	5.188
MS.113         	18.755         	5.174
MS.114         	18.717         	5.168
MS.115         	18.68          	5.158
MS.116         	18.645         	5.172
MS.117         	18.608         	5.178
MS.118         	18.57          	5.178
MS.119         	18.532         	5.17
MS.120         	18.495         	5.188
MS.121         	18.458         	5.182
MS.122         	18.422         	5.164
MS.123         	18.385         	5.174
MS.124         	18.347         	5.154
MS.125         	18.31          	5.172
MS.126         	18.275         	5.142
MS.127         	18.237         	5.18
MS.128         	18.202         	5.158
MS.129         	18.165         	5.148
MS.130         	18.13          	5.162
MS.131         	18.092         	5.166
MS.132         	18.057         	5.132
MS.133         	18.02          	5.164
MS.134         	17.985         	5.148
MS.135         	17.948         	5.14
MS.136         	17.913         	5.134
MS.137         	17.878         	5.126
MS.138         	17.84          	5.128
MS.139         	17.805         	5.132
MS.140         	17.77          	5.13
MS.141         	17.735         	5.108
MS.142         	17.7           	5.12
MS.143         	17.663         	5.138
MS.144         	17.628         	5.118
MS.145         	17.592         	5.144
MS.146         	17.557         	5.124
MS.147         	17.522         	5.154
MS.148         	17.487         	5.134
MS.149         	17.452         	5.116
MS.150         	17.417         	5.13
MS.151         	17.382         	5.138
MS.152         	17.347         	5.128
MS.153         	17.315         	5.136
MS.154         	17.28          	5.12
MS.155         	17.245         	5.132
MS.156         	17.21          	5.092
MS.157         	17.175         	5.108
MS.158         	17.142         	5.09
MS.159         	17.108         	5.11
MS.160         	17.073         	5.14
MS.161         	17.04          	5.136
MS.162         	17.005         	5.11
MS.163         	16.97          	5.12
MS.164         	16.938         	5.11
MS.165         	16.903         	5.102
MS.166         	16.87          	5.122
MS.167         	16.835         	5.122
MS.168         	16.802         	5.108
MS.169         	16.767         	5.13
MS.170         	16.735         	5.11
MS.171         	16.702         	5.09
MS.172         	16.667         	5.11
MS.173         	16.635         	5.1
MS.174         	16.602         	5.102
MS.175         	16.567         	5.084
MS.176         	16.535         	5.102
MS.177         	16.503         	5.112
MS.178         	16.47          	5.116
MS.179         	16.438         	5.084
MS.180         	16.405         	5.086
MS.181         	16.37          	5.092
MS.182         	16.337         	5.088
MS.183         	16.305         	5.09
MS.184         	16.272         	5.072
MS.185         	16.24          	5.11
MS.186         	16.208         	5.092
MS.187         	16.175         	5.07
MS.188         	16.142         	5.064
MS.189         	16.11          	5.066
MS.190         	16.08          	5.021
MS.191         	16.047         	5.096
MS.192         	16.015         	5.072
MS.193         	15.983         	5.076
MS.194         	15.95          	5.058
MS.195         	15.92          	5.013
MS.196         	15.887         	5.058
MS.197         	15.855         	5.062
MS.198         	15.822         	5.06
MS.199         	15.792         	5.052
MS.200         	15.76          	5.049
MS.201         	15.73          	5.041
MS.202         	15.697         	5.009
MS.203         	15.667         	5.025
MS.204         	15.635         	5.052
MS.205         	15.602         	5.019
MS.206         	15.572         	5.033
MS.207         	15.542         	4.955
MS.208         	15.51          	5.003
MS.209         	15.48          	4.991
MS.210         	15.447         	4.977
MS.211         	15.417         	4.973
MS.212         	15.387         	5.001
MS.213         	15.355         	4.953
MS.214         	15.325         	5.003
MS.215         	15.295         	4.953
MS.216         	15.265         	4.963
MS.217         	15.233         	4.909
MS.218         	15.202         	4.961
MS.219         	15.172         	4.931
MS.220         	15.142         	4.919
MS.221         	15.112         	4.947
MS.222         	15.082         	4.927
MS.223         	15.052         	4.939
MS.224         	15.023         	4.919
MS.225         	14.992         	4.945
MS.226         	14.962         	4.911
MS.227         	14.932         	4.941
MS.228         	14.902         	4.89
MS.229         	14.872         	4.89
MS.230         	14.842         	4.904
MS.231         	14.812         	4.917
MS.232         	14.782         	4.89
MS.233         	14.755         	4.856
MS.234         	14.725         	4.882
MS.235         	14.695         	4.892
MS.236         	14.665         	4.911
MS.237         	14.637         	4.89
MS.238         	14.608         	4.85
MS.239         	14.577         	4.872
MS.240         	14.55          	4.874
MS.241         	14.52          	4.858
MS.242         	14.49          	4.83
MS.243         	14.462         	4.894
MS.244         	14.432         	4.832
MS.245         	14.405         	4.894
MS.246         	14.375         	4.832
MS.247         	14.347         	4.868
MS.248         	14.318         	4.868
MS.249         	14.29          	4.812
MS.250         	14.26          	4.838
MS.251         	14.233         	4.824
MS.252         	14.205         	4.842
MS.253         	14.175         	4.794
MS.254         	14.148         	4.774
MS.255         	14.12          	4.814
MS.256         	14.09          	4.804
MS.257         	14.062         	4.81
MS.258         	14.035         	4.808
MS.259         	14.007         	4.816
MS.260         	13.977         	4.782
MS.261         	13.95          	4.814
MS.262         	13.922         	4.788
MS.263         	13.895         	4.808
MS.264         	13.867         	4.798
MS.265         	13.84          	4.81
MS.266         	13.812         	4.806
MS.267         	13.785         	4.832
MS.268         	13.757         	4.802
MS.269         	13.73          	4.8
MS.270         	13.702         	4.733
MS.271         	13.675         	4.802
MS.272         	13.648         	4.77
MS.273         	13.62          	4.8
MS.274         	13.592         	4.749
MS.275         	13.565         	4.755
MS.276         	13.537         	4.8
MS.277         	13.51          	4.776
MS.278         	13.485         	4.745
MS.279         	13.457         	4.804
MS.280         	13.43          	4.778
MS.281         	13.403         	4.812
MS.282         	13.377         	4.719
MS.283         	13.35          	4.703
MS.284         	13.322         	4.683
MS.285         	13.297         	4.707
MS.286         	13.27          	4.729
MS.287         	13.242         	4.741
MS.288         	13.217         	4.719
MS.289         	13.19          	4.705
MS.290         	13.165         	4.707
MS.291         	13.137         	4.669
MS.292         	13.112         	4.719
MS.293         	13.085         	4.653
MS.294         	13.06          	4.707
MS.295         	13.032         	4.641
MS.296         	13.007         	4.689
MS.297         	12.983         	4.681
MS.298         	12.955         	4.548
MS.299         	12.93          	4.681
MS.300         	12.903         	4.58
MS.301         	12.877         	4.659
MS.302         	12.852         	4.653
MS.303         	12.827         	4.582
MS.304         	12.8           	4.552
MS.305         	12.775         	4.677
MS.306         	12.75          	4.524
MS.307         	12.725         	4.538
MS.308         	12.7           	4.536
MS.309         	12.672         	4.62
MS.310         	12.648         	4.492
MS.311         	12.622         	4.518
MS.312         	12.597         	4.524
MS.313         	12.572         	4.463
MS.314         	12.547         	4.459
MS.315         	12.523         	4.524
MS.316         	12.497         	4.377
MS.317         	12.472         	4.465
MS.318         	12.447         	4.449
MS.319         	12.422         	4.463
MS.320         	12.398         	4.574
MS.321         	12.372         	4.502
MS.322         	12.347         	4.445
MS.323         	12.322         	4.504
MS.324         	12.3           	4.443
MS.325         	12.275         	4.421
MS.326         	12.25          	4.282
MS.327         	12.225         	4.302
MS.328         	12.2           	4.3
MS.329         	12.177         	4.343
MS.330         	12.153         	4.302
MS.331         	12.127         	4.27
MS.332         	12.102         	4.264
MS.333         	12.08          	4.226
MS.334         	12.055         	4.198
MS.335         	12.032         	4.208
MS.336         	12.007         	4.224
MS.337         	11.983         	4.177
MS.338         	11.96          	4.161
MS.339         	11.935         	4.133
MS.340         	11.912         	4.157
MS.341         	11.887         	4.163
MS.342         	11.865         	4.175
MS.343         	11.84          	4.228
MS.344         	11.818         	4.175
MS.345         	11.792         	4.125
MS.346         	11.77          	4.113
MS.347         	11.745         	4.113
MS.348         	11.722         	4.044
MS.349         	11.7           	4.057
MS.350         	11.675         	4.02
MS.351         	11.653         	4.067
MS.352         	11.63          	4.036
MS.353         	11.605         	3.98
MS.354         	11.582         	3.934
MS.355         	11.56          	3.98
MS.356         	11.537         	4.012
MS.357         	11.512         	3.924
MS.358         	11.49          	3.92
MS.359         	11.467         	3.795
MS.360         	11.445         	3.922
MS.361         	11.422         	3.845
MS.362         	11.4           	3.813
MS.363         	11.375         	3.732
MS.364         	11.352         	3.849
MS.365         	11.33          	3.823
MS.366         	11.307         	3.775
MS.367         	11.285         	3.726
MS.368         	11.262         	3.75
MS.369         	11.24          	3.67
MS.370         	11.217         	3.694
MS.371         	11.195         	3.694
MS.372         	11.172         	3.71
MS.373         	11.15          	3.672
MS.374         	11.127         	3.625
MS.375         	11.108         	3.668
MS.376         	11.085         	3.623
MS.377         	11.062         	3.589
MS.378         	11.04          	3.672
MS.379         	11.017         	3.607
MS.380         	10.995         	3.609
MS.381         	10.975         	3.63
MS.382         	10.952         	3.531
MS.383         	10.93          	3.547
MS.384         	10.907         	3.543
MS.385         	10.887         	3.489
MS.386         	10.865         	3.446
MS.387         	10.842         	3.448
MS.388         	10.82          	3.482
MS.389         	10.8           	3.464
MS.390         	10.778         	3.472
MS.391         	10.757         	3.426
MS.392         	10.735         	3.388
MS.393         	10.712         	3.293
MS.394         	10.693         	3.333
MS.395         	10.67          	3.317
MS.396         	10.65          	3.203
MS.397         	10.627         	3.259
MS.398         	10.608         	3.253
MS.399         	10.585         	3.317
MS.400         	10.565         	3.247
MS.401         	10.542         	3.134
MS.402         	10.523         	3.174
MS.403         	10.502         	3.247
MS.404         	10.48          	3.14
MS.405         	10.46          	3.162
MS.406         	10.438         	3.102
MS.407         	10.417         	3.14
MS.408         	10.398         	3.076
MS.409         	10.375         	3.037
MS.410         	10.355         	2.999
MS.411         	10.335         	3.064
MS.412         	10.315         	2.963
MS.413         	10.292         	2.993
MS.414         	10.273         	2.945
MS.415         	10.252         	2.941
MS.416         	10.233         	2.917
MS.417         	10.212         	2.894
MS.418         	10.19          	2.846
MS.419         	10.17          	2.848
MS.420         	10.15          	2.822
MS.421         	10.13          	2.868
MS.422         	10.11          	2.769
MS.423         	10.09          	2.757
MS.424         	10.07          	2.759
MS.425         	10.05          	2.747
MS.426         	10.03          	2.806
MS.427         	10.01          	2.741
MS.428         	9.99           	2.675
MS.429         	9.97           	2.693
MS.430         	9.95           	2.667
MS.431         	9.93           	2.691
MS.432         	9.91           	2.574
MS.433         	9.89           	2.528
MS.434         	9.87           	2.578
MS.435         	9.85           	2.608
MS.436         	9.83           	2.439
MS.437         	9.81           	2.524
MS.438         	9.792          	2.616
MS.439         	9.773          	2.487
MS.440         	9.752          	2.431
MS.441         	9.733          	2.435
MS.442         	9.712          	2.357
MS.443         	9.695          	2.361
MS.444         	9.675          	2.423
MS.445         	9.655          	2.417
MS.446         	9.635          	2.367
MS.447         	9.617          	2.254
MS.448         	9.597          	2.28
MS.449         	9.577          	2.328
MS.450         	9.56           	2.183
MS.451         	9.54           	2.23
MS.452         	9.52           	2.165
MS.453         	9.502          	2.129
MS.454         	9.483          	2.052
MS.455         	9.465          	2.129
MS.456         	9.445          	2.145
MS.457         	9.427          	2.02
MS.458         	9.407          	2.153
MS.459         	9.387          	2.022
MS.460         	9.37           	1.99
MS.461         	9.352          	2.008
MS.462         	9.332          	2.028
MS.463         	9.315          	2.006
MS.464         	9.295          	1.954
MS.465         	9.278          	1.988
MS.466         	9.257          	1.897
MS.467         	9.24           	1.907
MS.468         	9.222          	1.891
MS.469         	9.202          	1.821
MS.470         	9.185          	1.887
MS.471         	9.165          	1.915
MS.472         	9.148          	1.835
MS.473         	9.13           	1.821
MS.474         	9.113          	1.793
MS.475         	9.092          	1.724
MS.476         	9.075          	1.752
MS.477         	9.057          	1.724
MS.478         	9.037          	1.762
MS.479         	9.02           	1.736
MS.480         	9.002          	1.762
MS.481         	8.985          	1.722
MS.482         	8.967          	1.742
MS.483         	8.948          	1.66
MS.484         	8.93           	1.648
MS.485         	8.912          	1.65
MS.486         	8.895          	1.642
MS.487         	8.877          	1.635
MS.488         	8.86           	1.623
MS.489         	8.842          	1.678
MS.490         	8.825          	1.523
MS.491         	8.807          	1.525
MS.492         	8.79           	1.472
MS.493         	8.773          	1.49
MS.494         	8.755          	1.589
MS.495         	8.738          	1.66
MS.496         	8.72           	1.585
MS.497         	8.702          	1.549
MS.498         	8.685          	1.521
MS.499         	8.667          	1.436
MS.500         	8.65           	1.482
MS.501         	8.632          	1.495
