File:              	C:\Qtrac\Data\Daniel M Sørensen\MScan multicentre study\Data from centres\Roskilde\Folders with NC-examinations\ROS_N9a\MBC00527C.QZD
Name:              	DK.ROS.NC.9.1
Protocol:          	MSCAN-R2
Date:              	27/5/20
Start time:        	14:06:26
Age:               	60
Sex:               	f
Temperature:       	38.6
S/R sites:         	Per- TA
NC/disease:        	NC
Operator:          	MB
Comments:
M-SCAN DATA (8.4-1.5m)
Scanpts: 7, 11, 719, 741
Stim. (mA)     	Amp. (mV)
MS.1           	19.5           	5.309
MS.2           	19.5           	5.305
MS.3           	19.5           	5.311
MS.4           	19.5           	5.279
MS.5           	19.5           	5.263
MS.6           	19.5           	5.263
MS.7           	19.5           	5.253
MS.8           	19.5           	5.269
MS.9           	19.5           	5.265
MS.10          	19.5           	5.259
MS.11          	19.5           	5.255
MS.12          	19.5           	5.261
MS.13          	19.5           	5.261
MS.14          	19.5           	5.247
MS.15          	19.5           	5.251
MS.16          	19.5           	5.241
MS.17          	19.5           	5.227
MS.18          	19.5           	5.259
MS.19          	19.5           	5.255
MS.20          	19.5           	5.249
MS.21          	19.5           	5.231
MS.22          	19.5           	5.235
MS.23          	19.5           	5.241
MS.24          	19.422         	5.243
MS.25          	19.382         	5.235
MS.26          	19.345         	5.237
MS.27          	19.305         	5.219
MS.28          	19.267         	5.221
MS.29          	19.23          	5.223
MS.30          	19.19          	5.205
MS.31          	19.153         	5.237
MS.32          	19.115         	5.213
MS.33          	19.075         	5.223
MS.34          	19.038         	5.209
MS.35          	19             	5.221
MS.36          	18.962         	5.229
MS.37          	18.922         	5.223
MS.38          	18.885         	5.211
MS.39          	18.847         	5.195
MS.40          	18.81          	5.215
MS.41          	18.772         	5.193
MS.42          	18.735         	5.205
MS.43          	18.698         	5.195
MS.44          	18.66          	5.203
MS.45          	18.622         	5.195
MS.46          	18.585         	5.215
MS.47          	18.55          	5.19
MS.48          	18.512         	5.251
MS.49          	18.475         	5.184
MS.50          	18.438         	5.203
MS.51          	18.4           	5.166
MS.52          	18.365         	5.235
MS.53          	18.327         	5.213
MS.54          	18.29          	5.223
MS.55          	18.255         	5.231
MS.56          	18.217         	5.217
MS.57          	18.182         	5.221
MS.58          	18.145         	5.199
MS.59          	18.11          	5.201
MS.60          	18.073         	5.197
MS.61          	18.038         	5.215
MS.62          	18             	5.201
MS.63          	17.965         	5.211
MS.64          	17.93          	5.184
MS.65          	17.892         	5.188
MS.66          	17.858         	5.186
MS.67          	17.823         	5.19
MS.68          	17.785         	5.201
MS.69          	17.75          	5.166
MS.70          	17.715         	5.186
MS.71          	17.68          	5.184
MS.72          	17.645         	5.188
MS.73          	17.61          	5.188
MS.74          	17.575         	5.182
MS.75          	17.538         	5.186
MS.76          	17.503         	5.176
MS.77          	17.467         	5.172
MS.78          	17.435         	5.16
MS.79          	17.4           	5.164
MS.80          	17.365         	5.166
MS.81          	17.33          	5.158
MS.82          	17.295         	5.158
MS.83          	17.26          	5.17
MS.84          	17.225         	5.172
MS.85          	17.192         	5.176
MS.86          	17.157         	5.138
MS.87          	17.122         	5.134
MS.88          	17.087         	5.162
MS.89          	17.055         	5.112
MS.90          	17.02          	5.142
MS.91          	16.987         	5.142
MS.92          	16.952         	5.134
MS.93          	16.917         	5.126
MS.94          	16.885         	5.144
MS.95          	16.85          	5.112
MS.96          	16.817         	5.128
MS.97          	16.782         	5.134
MS.98          	16.75          	5.128
MS.99          	16.717         	5.116
MS.100         	16.682         	5.108
MS.101         	16.65          	5.122
MS.102         	16.618         	5.13
MS.103         	16.583         	5.104
MS.104         	16.55          	5.1
MS.105         	16.517         	5.112
MS.106         	16.485         	5.102
MS.107         	16.452         	5.068
MS.108         	16.417         	5.11
MS.109         	16.385         	5.092
MS.110         	16.352         	5.104
MS.111         	16.32          	5.08
MS.112         	16.288         	5.056
MS.113         	16.255         	5.068
MS.114         	16.222         	5.06
MS.115         	16.19          	5.06
MS.116         	16.157         	5.064
MS.117         	16.125         	5.07
MS.118         	16.092         	5.049
MS.119         	16.062         	5.045
MS.120         	16.03          	5.056
MS.121         	15.997         	5.054
MS.122         	15.965         	5.052
MS.123         	15.932         	5.029
MS.124         	15.902         	5.029
MS.125         	15.87          	5.066
MS.126         	15.837         	5.039
MS.127         	15.807         	5.025
MS.128         	15.775         	5.001
MS.129         	15.742         	5.029
MS.130         	15.712         	4.985
MS.131         	15.68          	5.052
MS.132         	15.65          	5.013
MS.133         	15.617         	4.959
MS.134         	15.587         	5.011
MS.135         	15.555         	4.997
MS.136         	15.525         	4.943
MS.137         	15.492         	4.953
MS.138         	15.462         	5.007
MS.139         	15.432         	4.951
MS.140         	15.4           	4.999
MS.141         	15.37          	5.009
MS.142         	15.34          	4.941
MS.143         	15.307         	4.939
MS.144         	15.277         	4.955
MS.145         	15.247         	4.927
MS.146         	15.217         	4.917
MS.147         	15.188         	4.884
MS.148         	15.155         	4.906
MS.149         	15.125         	4.884
MS.150         	15.095         	4.931
MS.151         	15.065         	4.88
MS.152         	15.035         	4.868
MS.153         	15.005         	4.896
MS.154         	14.975         	4.886
MS.155         	14.945         	4.868
MS.156         	14.915         	4.927
MS.157         	14.885         	4.876
MS.158         	14.855         	4.9
MS.159         	14.827         	4.88
MS.160         	14.797         	4.884
MS.161         	14.767         	4.878
MS.162         	14.737         	4.85
MS.163         	14.707         	4.85
MS.164         	14.68          	4.858
MS.165         	14.65          	4.844
MS.166         	14.62          	4.856
MS.167         	14.59          	4.796
MS.168         	14.562         	4.876
MS.169         	14.532         	4.818
MS.170         	14.505         	4.862
MS.171         	14.475         	4.844
MS.172         	14.445         	4.8
MS.173         	14.417         	4.794
MS.174         	14.387         	4.806
MS.175         	14.36          	4.782
MS.176         	14.33          	4.872
MS.177         	14.302         	4.826
MS.178         	14.273         	4.816
MS.179         	14.245         	4.826
MS.180         	14.217         	4.79
MS.181         	14.188         	4.759
MS.182         	14.16          	4.852
MS.183         	14.132         	4.854
MS.184         	14.102         	4.802
MS.185         	14.075         	4.786
MS.186         	14.047         	4.778
MS.187         	14.02          	4.838
MS.188         	13.99          	4.802
MS.189         	13.962         	4.774
MS.190         	13.935         	4.757
MS.191         	13.907         	4.751
MS.192         	13.88          	4.721
MS.193         	13.852         	4.747
MS.194         	13.825         	4.727
MS.195         	13.797         	4.701
MS.196         	13.77          	4.727
MS.197         	13.742         	4.693
MS.198         	13.715         	4.681
MS.199         	13.688         	4.693
MS.200         	13.66          	4.641
MS.201         	13.632         	4.687
MS.202         	13.605         	4.715
MS.203         	13.577         	4.645
MS.204         	13.55          	4.62
MS.205         	13.523         	4.631
MS.206         	13.495         	4.683
MS.207         	13.47          	4.631
MS.208         	13.443         	4.614
MS.209         	13.415         	4.598
MS.210         	13.387         	4.596
MS.211         	13.362         	4.57
MS.212         	13.335         	4.592
MS.213         	13.307         	4.629
MS.214         	13.282         	4.61
MS.215         	13.255         	4.54
MS.216         	13.23          	4.55
MS.217         	13.202         	4.552
MS.218         	13.175         	4.492
MS.219         	13.15          	4.532
MS.220         	13.122         	4.516
MS.221         	13.097         	4.494
MS.222         	13.07          	4.53
MS.223         	13.045         	4.492
MS.224         	13.02          	4.471
MS.225         	12.992         	4.453
MS.226         	12.967         	4.484
MS.227         	12.94          	4.486
MS.228         	12.915         	4.463
MS.229         	12.89          	4.411
MS.230         	12.862         	4.433
MS.231         	12.837         	4.417
MS.232         	12.812         	4.393
MS.233         	12.787         	4.33
MS.234         	12.76          	4.296
MS.235         	12.735         	4.395
MS.236         	12.71          	4.326
MS.237         	12.685         	4.322
MS.238         	12.66          	4.242
MS.239         	12.635         	4.294
MS.240         	12.61          	4.393
MS.241         	12.585         	4.151
MS.242         	12.557         	4.29
MS.243         	12.532         	4.272
MS.244         	12.507         	4.29
MS.245         	12.483         	4.121
MS.246         	12.457         	4.282
MS.247         	12.432         	4.089
MS.248         	12.41          	4.165
MS.249         	12.385         	4.113
MS.250         	12.36          	4.109
MS.251         	12.335         	4.057
MS.252         	12.31          	4.071
MS.253         	12.285         	4.052
MS.254         	12.26          	4.002
MS.255         	12.238         	4.004
MS.256         	12.212         	4.024
MS.257         	12.188         	4.065
MS.258         	12.162         	3.948
MS.259         	12.14          	4
MS.260         	12.115         	4
MS.261         	12.09          	3.885
MS.262         	12.065         	3.964
MS.263         	12.042         	3.873
MS.264         	12.017         	3.958
MS.265         	11.995         	3.859
MS.266         	11.97          	3.946
MS.267         	11.945         	3.839
MS.268         	11.922         	3.853
MS.269         	11.898         	4.01
MS.270         	11.875         	3.821
MS.271         	11.85          	3.861
MS.272         	11.827         	3.819
MS.273         	11.802         	3.817
MS.274         	11.78          	3.821
MS.275         	11.757         	3.857
MS.276         	11.733         	3.817
MS.277         	11.71          	3.847
MS.278         	11.685         	3.754
MS.279         	11.662         	3.799
MS.280         	11.64          	3.76
MS.281         	11.617         	3.771
MS.282         	11.592         	3.744
MS.283         	11.57          	3.748
MS.284         	11.547         	3.74
MS.285         	11.525         	3.666
MS.286         	11.5           	3.716
MS.287         	11.477         	3.68
MS.288         	11.455         	3.696
MS.289         	11.432         	3.611
MS.290         	11.41          	3.589
MS.291         	11.387         	3.64
MS.292         	11.363         	3.654
MS.293         	11.34          	3.652
MS.294         	11.318         	3.559
MS.295         	11.295         	3.589
MS.296         	11.273         	3.561
MS.297         	11.25          	3.503
MS.298         	11.227         	3.491
MS.299         	11.205         	3.503
MS.300         	11.182         	3.513
MS.301         	11.16          	3.46
MS.302         	11.137         	3.531
MS.303         	11.117         	3.432
MS.304         	11.095         	3.376
MS.305         	11.073         	3.462
MS.306         	11.05          	3.444
MS.307         	11.028         	3.396
MS.308         	11.005         	3.354
MS.309         	10.983         	3.394
MS.310         	10.962         	3.368
MS.311         	10.94          	3.354
MS.312         	10.917         	3.354
MS.313         	10.895         	3.376
MS.314         	10.875         	3.289
MS.315         	10.852         	3.37
MS.316         	10.83          	3.309
MS.317         	10.81          	3.291
MS.318         	10.787         	3.307
MS.319         	10.765         	3.337
MS.320         	10.745         	3.303
MS.321         	10.722         	3.269
MS.322         	10.702         	3.289
MS.323         	10.68          	3.231
MS.324         	10.66          	3.229
MS.325         	10.637         	3.291
MS.326         	10.617         	3.225
MS.327         	10.595         	3.249
MS.328         	10.575         	3.239
MS.329         	10.552         	3.198
MS.330         	10.532         	3.164
MS.331         	10.51          	3.132
MS.332         	10.49          	3.176
MS.333         	10.47          	3.174
MS.334         	10.448         	3.086
MS.335         	10.427         	3.178
MS.336         	10.407         	3.132
MS.337         	10.385         	3.106
MS.338         	10.365         	3.086
MS.339         	10.345         	3.06
MS.340         	10.323         	3.088
MS.341         	10.302         	3.076
MS.342         	10.282         	3.086
MS.343         	10.262         	3.017
MS.344         	10.24          	2.989
MS.345         	10.22          	3.005
MS.346         	10.2           	3.029
MS.347         	10.18          	2.987
MS.348         	10.16          	2.967
MS.349         	10.14          	2.995
MS.350         	10.12          	2.969
MS.351         	10.097         	3.003
MS.352         	10.077         	2.906
MS.353         	10.057         	2.884
MS.354         	10.037         	2.878
MS.355         	10.017         	2.862
MS.356         	9.997          	2.906
MS.357         	9.977          	2.88
MS.358         	9.957          	2.876
MS.359         	9.938          	2.836
MS.360         	9.917          	2.836
MS.361         	9.9            	2.858
MS.362         	9.88           	2.82
MS.363         	9.86           	2.784
MS.364         	9.84           	2.796
MS.365         	9.82           	2.782
MS.366         	9.8            	2.8
MS.367         	9.78           	2.767
MS.368         	9.76           	2.727
MS.369         	9.742          	2.661
MS.370         	9.722          	2.719
MS.371         	9.702          	2.735
MS.372         	9.682          	2.683
MS.373         	9.665          	2.628
MS.374         	9.645          	2.598
MS.375         	9.625          	2.655
MS.376         	9.605          	2.614
MS.377         	9.587          	2.564
MS.378         	9.568          	2.616
MS.379         	9.55           	2.461
MS.380         	9.53           	2.445
MS.381         	9.51           	2.455
MS.382         	9.492          	2.387
MS.383         	9.472          	2.395
MS.384         	9.452          	2.49
MS.385         	9.435          	2.353
MS.386         	9.415          	2.324
MS.387         	9.398          	2.365
MS.388         	9.377          	2.185
MS.389         	9.36           	2.294
MS.390         	9.34           	2.171
MS.391         	9.323          	2.226
MS.392         	9.302          	2.179
MS.393         	9.285          	2.157
MS.394         	9.267          	2.149
MS.395         	9.247          	2.228
MS.396         	9.23           	2.101
MS.397         	9.21           	2.071
MS.398         	9.193          	1.97
MS.399         	9.175          	2.03
MS.400         	9.155          	2.006
MS.401         	9.137          	2.008
MS.402         	9.12           	1.972
MS.403         	9.1            	1.855
MS.404         	9.082          	1.889
MS.405         	9.065          	1.879
MS.406         	9.047          	1.815
MS.407         	9.028          	1.889
MS.408         	9.01           	1.793
MS.409         	8.992          	1.772
MS.410         	8.975          	1.787
MS.411         	8.957          	1.803
MS.412         	8.94           	1.72
MS.413         	8.92           	1.696
MS.414         	8.903          	1.716
MS.415         	8.885          	1.72
MS.416         	8.867          	1.69
MS.417         	8.85           	1.72
MS.418         	8.832          	1.672
MS.419         	8.815          	1.688
MS.420         	8.797          	1.635
MS.421         	8.78           	1.633
MS.422         	8.762          	1.682
MS.423         	8.745          	1.609
MS.424         	8.727          	1.551
MS.425         	8.71           	1.668
MS.426         	8.693          	1.581
MS.427         	8.675          	1.543
MS.428         	8.658          	1.535
MS.429         	8.64           	1.499
MS.430         	8.622          	1.555
MS.431         	8.605          	1.47
MS.432         	8.587          	1.484
MS.433         	8.57           	1.484
MS.434         	8.555          	1.436
MS.435         	8.537          	1.41
MS.436         	8.52           	1.4
MS.437         	8.502          	1.372
MS.438         	8.485          	1.349
MS.439         	8.47           	1.37
MS.440         	8.452          	1.354
MS.441         	8.435          	1.374
MS.442         	8.417          	1.311
MS.443         	8.403          	1.247
MS.444         	8.385          	1.289
MS.445         	8.367          	1.182
MS.446         	8.35           	1.299
MS.447         	8.335          	1.2
MS.448         	8.318          	1.202
MS.449         	8.302          	1.16
MS.450         	8.285          	1.168
MS.451         	8.267          	1.142
MS.452         	8.252          	1.219
MS.453         	8.235          	1.196
MS.454         	8.217          	1.112
MS.455         	8.202          	1.128
MS.456         	8.185          	1.053
MS.457         	8.17           	1.019
MS.458         	8.153          	1.08
MS.459         	8.137          	1.051
MS.460         	8.12           	1.035
MS.461         	8.105          	1.118
MS.462         	8.087          	1.043
MS.463         	8.073          	1.009
MS.464         	8.055          	0.941
MS.465         	8.04           	0.894
MS.466         	8.025          	0.987
MS.467         	8.007          	0.961
MS.468         	7.992          	0.931
MS.469         	7.975          	0.931
MS.470         	7.96           	0.896
MS.471         	7.945          	0.914
MS.472         	7.927          	0.88
MS.473         	7.912          	0.939
MS.474         	7.898          	0.876
MS.475         	7.88           	0.906
MS.476         	7.865          	0.862
MS.477         	7.85           	0.872
MS.478         	7.832          	0.858
MS.479         	7.817          	0.844
MS.480         	7.802          	0.86
MS.481         	7.787          	0.832
MS.482         	7.77           	0.828
MS.483         	7.755          	0.832
MS.484         	7.74           	0.788
MS.485         	7.725          	0.794
MS.486         	7.71           	0.781
MS.487         	7.695          	0.824
MS.488         	7.677          	0.786
MS.489         	7.662          	0.755
MS.490         	7.648          	0.749
MS.491         	7.632          	0.765
MS.492         	7.617          	0.721
MS.493         	7.602          	0.769
MS.494         	7.587          	0.717
MS.495         	7.572          	0.699
MS.496         	7.557          	0.717
MS.497         	7.543          	0.667
MS.498         	7.527          	0.693
MS.499         	7.512          	0.669
MS.500         	7.497          	0.671
MS.501         	7.482          	0.616
