File:              	C:\Qtrac\Data\Daniel M Sørensen\MScan multicentre study\Data from centres\Roskilde\Folders with NC-examinations\ROS_N1b\MBC00305A.QZD
Name:              	DK.ROS.NC.1.2
Protocol:          	MSCAN-R2
Date:              	5/3/20
Start time:        	14:36:14
Age:               	62
Sex:               	f
Temperature:       	40.9
S/R sites:         	Median Wr-APB
NC/disease:        	NC
Operator:          	MB
Comments:
M-SCAN DATA (7.5-1.4m)
Scanpts: 8, 11, 632, 654
Stim. (mA)     	Amp. (mV)
MS.1           	21             	5.926
MS.2           	21             	5.922
MS.3           	21             	5.936
MS.4           	21             	5.936
MS.5           	21             	5.887
MS.6           	21             	5.877
MS.7           	21             	5.877
MS.8           	21             	5.877
MS.9           	21             	5.899
MS.10          	21             	5.865
MS.11          	21             	5.904
MS.12          	21             	5.881
MS.13          	21             	5.877
MS.14          	21             	5.914
MS.15          	21             	5.926
MS.16          	21             	5.94
MS.17          	21             	5.92
MS.18          	21             	5.893
MS.19          	21             	5.819
MS.20          	21             	5.924
MS.21          	21             	5.879
MS.22          	21             	5.813
MS.23          	21             	5.926
MS.24          	20.915         	5.908
MS.25          	20.875         	5.92
MS.26          	20.833         	5.885
MS.27          	20.79          	5.881
MS.28          	20.75          	5.91
MS.29          	20.708         	5.881
MS.30          	20.667         	5.883
MS.31          	20.625         	5.779
MS.32          	20.585         	5.883
MS.33          	20.542         	5.887
MS.34          	20.502         	5.775
MS.35          	20.46          	5.773
MS.36          	20.42          	5.773
MS.37          	20.38          	5.771
MS.38          	20.337         	5.758
MS.39          	20.297         	5.769
MS.40          	20.257         	5.771
MS.41          	20.217         	5.76
MS.42          	20.177         	5.763
MS.43          	20.135         	5.765
MS.44          	20.095         	5.775
MS.45          	20.055         	5.765
MS.46          	20.015         	5.869
MS.47          	19.975         	5.859
MS.48          	19.935         	5.742
MS.49          	19.895         	5.754
MS.50          	19.855         	5.881
MS.51          	19.817         	5.771
MS.52          	19.778         	5.765
MS.53          	19.737         	5.767
MS.54          	19.698         	5.769
MS.55          	19.657         	5.76
MS.56          	19.62          	5.748
MS.57          	19.58          	5.726
MS.58          	19.54          	5.765
MS.59          	19.502         	5.754
MS.60          	19.462         	5.754
MS.61          	19.425         	5.758
MS.62          	19.385         	5.744
MS.63          	19.347         	5.783
MS.64          	19.307         	5.765
MS.65          	19.27          	5.748
MS.66          	19.23          	5.752
MS.67          	19.192         	5.76
MS.68          	19.155         	5.756
MS.69          	19.115         	5.756
MS.70          	19.077         	5.748
MS.71          	19.04          	5.746
MS.72          	19.002         	5.771
MS.73          	18.962         	5.752
MS.74          	18.925         	5.72
MS.75          	18.887         	5.765
MS.76          	18.85          	5.76
MS.77          	18.812         	5.765
MS.78          	18.775         	5.752
MS.79          	18.737         	5.75
MS.80          	18.7           	5.758
MS.81          	18.663         	5.775
MS.82          	18.625         	5.779
MS.83          	18.587         	5.773
MS.84          	18.55          	5.7
MS.85          	18.515         	5.773
MS.86          	18.477         	5.773
MS.87          	18.44          	5.769
MS.88          	18.403         	5.694
MS.89          	18.368         	5.758
MS.90          	18.33          	5.767
MS.91          	18.292         	5.769
MS.92          	18.257         	5.769
MS.93          	18.22          	5.76
MS.94          	18.182         	5.706
MS.95          	18.147         	5.763
MS.96          	18.11          	5.694
MS.97          	18.075         	5.678
MS.98          	18.038         	5.69
MS.99          	18.003         	5.696
MS.100         	17.967         	5.706
MS.101         	17.93          	5.694
MS.102         	17.895         	5.702
MS.103         	17.86          	5.706
MS.104         	17.823         	5.692
MS.105         	17.788         	5.702
MS.106         	17.753         	5.686
MS.107         	17.717         	5.666
MS.108         	17.682         	5.682
MS.109         	17.645         	5.668
MS.110         	17.61          	5.694
MS.111         	17.575         	5.684
MS.112         	17.54          	5.674
MS.113         	17.505         	5.694
MS.114         	17.47          	5.692
MS.115         	17.435         	5.68
MS.116         	17.4           	5.686
MS.117         	17.365         	5.684
MS.118         	17.333         	5.688
MS.119         	17.297         	5.662
MS.120         	17.262         	5.702
MS.121         	17.227         	5.702
MS.122         	17.192         	5.696
MS.123         	17.16          	5.692
MS.124         	17.125         	5.668
MS.125         	17.09          	5.692
MS.126         	17.057         	5.698
MS.127         	17.022         	5.662
MS.128         	16.987         	5.71
MS.129         	16.955         	5.7
MS.130         	16.92          	5.708
MS.131         	16.887         	5.698
MS.132         	16.852         	5.694
MS.133         	16.82          	5.69
MS.134         	16.785         	5.696
MS.135         	16.753         	5.71
MS.136         	16.717         	5.696
MS.137         	16.685         	5.696
MS.138         	16.653         	5.708
MS.139         	16.618         	5.69
MS.140         	16.585         	5.692
MS.141         	16.552         	5.694
MS.142         	16.52          	5.692
MS.143         	16.485         	5.7
MS.144         	16.452         	5.704
MS.145         	16.42          	5.66
MS.146         	16.387         	5.676
MS.147         	16.355         	5.692
MS.148         	16.323         	5.674
MS.149         	16.29          	5.702
MS.150         	16.257         	5.696
MS.151         	16.225         	5.591
MS.152         	16.192         	5.694
MS.153         	16.16          	5.672
MS.154         	16.128         	5.688
MS.155         	16.095         	5.599
MS.156         	16.062         	5.702
MS.157         	16.03          	5.601
MS.158         	16             	5.563
MS.159         	15.967         	5.67
MS.160         	15.935         	5.591
MS.161         	15.902         	5.688
MS.162         	15.872         	5.577
MS.163         	15.84          	5.7
MS.164         	15.807         	5.597
MS.165         	15.777         	5.567
MS.166         	15.745         	5.595
MS.167         	15.712         	5.565
MS.168         	15.682         	5.686
MS.169         	15.65          	5.583
MS.170         	15.62          	5.615
MS.171         	15.587         	5.495
MS.172         	15.557         	5.521
MS.173         	15.525         	5.358
MS.174         	15.495         	5.549
MS.175         	15.465         	5.535
MS.176         	15.432         	5.517
MS.177         	15.402         	5.531
MS.178         	15.372         	5.545
MS.179         	15.34          	5.553
MS.180         	15.31          	5.573
MS.181         	15.28          	5.527
MS.182         	15.25          	5.563
MS.183         	15.217         	5.539
MS.184         	15.188         	5.563
MS.185         	15.157         	5.535
MS.186         	15.127         	5.513
MS.187         	15.097         	5.539
MS.188         	15.068         	5.509
MS.189         	15.037         	5.559
MS.190         	15.007         	5.539
MS.191         	14.977         	5.557
MS.192         	14.947         	5.519
MS.193         	14.917         	5.511
MS.194         	14.887         	5.531
MS.195         	14.858         	5.539
MS.196         	14.827         	5.521
MS.197         	14.797         	5.527
MS.198         	14.77          	5.539
MS.199         	14.74          	5.557
MS.200         	14.71          	5.553
MS.201         	14.68          	5.547
MS.202         	14.65          	5.507
MS.203         	14.622         	5.555
MS.204         	14.592         	5.523
MS.205         	14.562         	5.533
MS.206         	14.535         	5.559
MS.207         	14.505         	5.529
MS.208         	14.477         	5.547
MS.209         	14.447         	5.529
MS.210         	14.417         	5.517
MS.211         	14.39          	5.515
MS.212         	14.36          	5.539
MS.213         	14.332         	5.557
MS.214         	14.302         	5.531
MS.215         	14.275         	5.557
MS.216         	14.247         	5.539
MS.217         	14.217         	5.543
MS.218         	14.19          	5.535
MS.219         	14.162         	5.549
MS.220         	14.132         	5.527
MS.221         	14.105         	5.501
MS.222         	14.077         	5.519
MS.223         	14.047         	5.541
MS.224         	14.02          	5.515
MS.225         	13.992         	5.513
MS.226         	13.965         	5.533
MS.227         	13.938         	5.549
MS.228         	13.91          	5.535
MS.229         	13.88          	5.545
MS.230         	13.852         	5.551
MS.231         	13.825         	5.537
MS.232         	13.797         	5.529
MS.233         	13.77          	5.551
MS.234         	13.742         	5.539
MS.235         	13.715         	5.503
MS.236         	13.688         	5.521
MS.237         	13.66          	5.547
MS.238         	13.632         	5.529
MS.239         	13.605         	5.497
MS.240         	13.58          	5.501
MS.241         	13.552         	5.527
MS.242         	13.525         	5.517
MS.243         	13.497         	5.501
MS.244         	13.47          	5.499
MS.245         	13.445         	5.533
MS.246         	13.417         	5.519
MS.247         	13.39          	5.533
MS.248         	13.362         	5.499
MS.249         	13.337         	5.549
MS.250         	13.31          	5.539
MS.251         	13.282         	5.529
MS.252         	13.257         	5.527
MS.253         	13.23          	5.569
MS.254         	13.205         	5.529
MS.255         	13.177         	5.553
MS.256         	13.153         	5.533
MS.257         	13.125         	5.531
MS.258         	13.1           	5.531
MS.259         	13.072         	5.529
MS.260         	13.047         	5.531
MS.261         	13.02          	5.519
MS.262         	12.995         	5.541
MS.263         	12.967         	5.527
MS.264         	12.943         	5.519
MS.265         	12.917         	5.545
MS.266         	12.89          	5.531
MS.267         	12.865         	5.529
MS.268         	12.84          	5.547
MS.269         	12.812         	5.555
MS.270         	12.787         	5.557
MS.271         	12.762         	5.573
MS.272         	12.738         	5.525
MS.273         	12.712         	5.567
MS.274         	12.685         	5.553
MS.275         	12.66          	5.535
MS.276         	12.635         	5.529
MS.277         	12.61          	5.529
MS.278         	12.585         	5.521
MS.279         	12.56          	5.575
MS.280         	12.535         	5.587
MS.281         	12.51          	5.567
MS.282         	12.485         	5.585
MS.283         	12.46          	5.531
MS.284         	12.435         	5.531
MS.285         	12.41          	5.569
MS.286         	12.385         	5.593
MS.287         	12.36          	5.585
MS.288         	12.335         	5.561
MS.289         	12.312         	5.569
MS.290         	12.287         	5.541
MS.291         	12.262         	5.541
MS.292         	12.238         	5.541
MS.293         	12.212         	5.525
MS.294         	12.19          	5.533
MS.295         	12.165         	5.555
MS.296         	12.14          	5.535
MS.297         	12.115         	5.513
MS.298         	12.092         	5.527
MS.299         	12.068         	5.523
MS.300         	12.042         	5.591
MS.301         	12.02          	5.547
MS.302         	11.995         	5.567
MS.303         	11.972         	5.495
MS.304         	11.947         	5.511
MS.305         	11.922         	5.567
MS.306         	11.9           	5.603
MS.307         	11.875         	5.579
MS.308         	11.852         	5.579
MS.309         	11.827         	5.483
MS.310         	11.805         	5.593
MS.311         	11.782         	5.567
MS.312         	11.757         	5.609
MS.313         	11.735         	5.597
MS.314         	11.71          	5.585
MS.315         	11.688         	5.579
MS.316         	11.665         	5.561
MS.317         	11.64          	5.597
MS.318         	11.617         	5.577
MS.319         	11.595         	5.607
MS.320         	11.57          	5.565
MS.321         	11.547         	5.549
MS.322         	11.525         	5.595
MS.323         	11.502         	5.587
MS.324         	11.48          	5.535
MS.325         	11.455         	5.563
MS.326         	11.432         	5.607
MS.327         	11.41          	5.553
MS.328         	11.387         	5.644
MS.329         	11.365         	5.595
MS.330         	11.342         	5.406
MS.331         	11.32          	5.634
MS.332         	11.297         	5.561
MS.333         	11.275         	5.605
MS.334         	11.252         	5.624
MS.335         	11.23          	5.622
MS.336         	11.207         	5.42
MS.337         	11.185         	5.329
MS.338         	11.162         	5.311
MS.339         	11.14          	5.416
MS.340         	11.117         	5.402
MS.341         	11.095         	5.333
MS.342         	11.073         	5.398
MS.343         	11.05          	5.36
MS.344         	11.03          	5.327
MS.345         	11.007         	5.368
MS.346         	10.985         	5.39
MS.347         	10.962         	5.229
MS.348         	10.94          	5.394
MS.349         	10.92          	5.331
MS.350         	10.898         	5.402
MS.351         	10.875         	5.362
MS.352         	10.855         	5.257
MS.353         	10.832         	5.336
MS.354         	10.81          	5.34
MS.355         	10.79          	5.348
MS.356         	10.767         	5.331
MS.357         	10.745         	5.309
MS.358         	10.725         	5.285
MS.359         	10.702         	5.239
MS.360         	10.682         	5.295
MS.361         	10.66          	5.241
MS.362         	10.64          	5.193
MS.363         	10.617         	5.255
MS.364         	10.597         	4.842
MS.365         	10.575         	5.104
MS.366         	10.555         	4.699
MS.367         	10.532         	5.239
MS.368         	10.512         	5.275
MS.369         	10.49          	5.279
MS.370         	10.47          	5.243
MS.371         	10.45          	4.848
MS.372         	10.427         	5.213
MS.373         	10.407         	5.188
MS.374         	10.387         	4.725
MS.375         	10.365         	4.759
MS.376         	10.345         	5.062
MS.377         	10.325         	4.707
MS.378         	10.305         	4.639
MS.379         	10.282         	4.848
MS.380         	10.262         	5.106
MS.381         	10.242         	4.959
MS.382         	10.222         	4.693
MS.383         	10.202         	4.933
MS.384         	10.18          	4.685
MS.385         	10.16          	4.586
MS.386         	10.14          	4.705
MS.387         	10.12          	4.407
MS.388         	10.1           	4.512
MS.389         	10.08          	4.457
MS.390         	10.06          	4.552
MS.391         	10.04          	4.367
MS.392         	10.02          	4.222
MS.393         	10             	4.282
MS.394         	9.98           	4.177
MS.395         	9.96           	4.195
MS.396         	9.94           	4.179
MS.397         	9.92           	4.133
MS.398         	9.9            	4.014
MS.399         	9.88           	3.861
MS.400         	9.86           	4.036
MS.401         	9.84           	3.934
MS.402         	9.82           	3.97
MS.403         	9.802          	3.98
MS.404         	9.782          	3.94
MS.405         	9.762          	3.817
MS.406         	9.742          	3.984
MS.407         	9.722          	3.712
MS.408         	9.705          	3.742
MS.409         	9.685          	3.934
MS.410         	9.665          	3.773
MS.411         	9.645          	3.609
MS.412         	9.627          	3.406
MS.413         	9.608          	3.628
MS.414         	9.587          	3.346
MS.415         	9.57           	3.297
MS.416         	9.55           	3.418
MS.417         	9.53           	3.325
MS.418         	9.512          	3.207
MS.419         	9.492          	3.285
MS.420         	9.472          	3.501
MS.421         	9.455          	3.344
MS.422         	9.435          	3.329
MS.423         	9.417          	3.372
MS.424         	9.398          	3.569
MS.425         	9.38           	2.999
MS.426         	9.36           	3.156
MS.427         	9.342          	3.015
MS.428         	9.323          	3.039
MS.429         	9.305          	2.88
MS.430         	9.285          	2.685
MS.431         	9.267          	2.592
MS.432         	9.25           	2.904
MS.433         	9.23           	2.741
MS.434         	9.212          	2.711
MS.435         	9.193          	2.838
MS.436         	9.175          	2.477
MS.437         	9.158          	2.326
MS.438         	9.137          	2.596
MS.439         	9.12           	2.244
MS.440         	9.102          	2.334
MS.441         	9.085          	2.175
MS.442         	9.065          	2.175
MS.443         	9.047          	2.425
MS.444         	9.03           	2.189
MS.445         	9.012          	2.203
MS.446         	8.992          	2.481
MS.447         	8.975          	2.288
MS.448         	8.957          	2.173
MS.449         	8.94           	1.903
MS.450         	8.922          	2.028
MS.451         	8.905          	1.913
MS.452         	8.887          	1.855
MS.453         	8.867          	2.073
MS.454         	8.85           	1.74
MS.455         	8.832          	1.787
MS.456         	8.815          	1.547
MS.457         	8.797          	1.93
MS.458         	8.78           	1.803
MS.459         	8.762          	1.591
MS.460         	8.745          	1.855
MS.461         	8.727          	1.597
MS.462         	8.71           	1.724
MS.463         	8.693          	1.587
MS.464         	8.675          	1.615
MS.465         	8.658          	1.625
MS.466         	8.64           	1.47
MS.467         	8.622          	1.366
MS.468         	8.608          	1.396
MS.469         	8.59           	1.362
MS.470         	8.573          	1.49
MS.471         	8.555          	1.492
MS.472         	8.537          	1.382
MS.473         	8.52           	1.243
MS.474         	8.505          	1.402
MS.475         	8.488          	1.287
MS.476         	8.47           	1.116
MS.477         	8.452          	1.283
MS.478         	8.435          	1.464
MS.479         	8.42           	1.039
MS.480         	8.403          	1.291
MS.481         	8.385          	1.082
MS.482         	8.37           	1.335
MS.483         	8.352          	1.192
MS.484         	8.335          	1.305
MS.485         	8.32           	1.144
MS.486         	8.302          	1.162
MS.487         	8.285          	1.211
MS.488         	8.27           	1.061
MS.489         	8.252          	0.971
MS.490         	8.235          	1.118
MS.491         	8.22           	0.945
MS.492         	8.202          	0.816
MS.493         	8.188          	0.79
MS.494         	8.17           	0.973
MS.495         	8.155          	0.924
MS.496         	8.137          	0.973
MS.497         	8.122          	0.62
MS.498         	8.105          	0.697
MS.499         	8.09           	0.965
MS.500         	8.073          	0.59
