File:              	C:\Qtrac\Data\Daniel M Sørensen\MScan multicentre study\Data from centres\Roskilde\Folders with NC-examinations\ROS_N5b\MBC00430A.QZD
Name:              	DK.ROS.NC.5.2
Protocol:          	MSCAN-R2
Date:              	30/4/20
Start time:        	14:29:41
Age:               	34
Sex:               	m
Temperature:       	38.1
S/R sites:         	Median Wr-APB
NC/disease:        	NC
Operator:          	MB
Comments:
M-SCAN DATA (8.4-1m)
Scanpts: 137, 144, 731, 740
Stim. (mA)     	Amp. (mV)
MS.1           	13             	8.792
MS.2           	13             	8.786
MS.3           	13             	8.788
MS.4           	13             	8.8
MS.5           	13             	8.794
MS.6           	13             	8.784
MS.7           	13             	8.784
MS.8           	13             	8.76
MS.9           	13             	8.76
MS.10          	13             	8.77
MS.11          	13             	8.77
MS.12          	13             	8.772
MS.13          	13             	8.782
MS.14          	13             	8.772
MS.15          	13             	8.77
MS.16          	13             	8.782
MS.17          	13             	8.76
MS.18          	13             	8.766
MS.19          	13             	8.76
MS.20          	13             	8.756
MS.21          	13             	8.756
MS.22          	13             	8.766
MS.23          	13             	8.772
MS.24          	12.947         	8.768
MS.25          	12.922         	8.764
MS.26          	12.898         	8.772
MS.27          	12.87          	8.768
MS.28          	12.845         	8.758
MS.29          	12.82          	8.772
MS.30          	12.792         	8.758
MS.31          	12.767         	8.766
MS.32          	12.742         	8.768
MS.33          	12.717         	8.756
MS.34          	12.693         	8.768
MS.35          	12.667         	8.762
MS.36          	12.64          	8.754
MS.37          	12.615         	8.754
MS.38          	12.59          	8.752
MS.39          	12.565         	8.756
MS.40          	12.54          	8.756
MS.41          	12.515         	8.758
MS.42          	12.49          	8.756
MS.43          	12.465         	8.747
MS.44          	12.44          	8.768
MS.45          	12.415         	8.774
MS.46          	12.39          	8.768
MS.47          	12.365         	8.772
MS.48          	12.34          	8.77
MS.49          	12.318         	8.768
MS.50          	12.292         	8.768
MS.51          	12.267         	8.766
MS.52          	12.242         	8.77
MS.53          	12.217         	8.756
MS.54          	12.195         	8.764
MS.55          	12.17          	8.768
MS.56          	12.145         	8.754
MS.57          	12.12          	8.752
MS.58          	12.097         	8.745
MS.59          	12.072         	8.745
MS.60          	12.047         	8.737
MS.61          	12.025         	8.733
MS.62          	12             	8.745
MS.63          	11.977         	8.741
MS.64          	11.952         	8.743
MS.65          	11.927         	8.741
MS.66          	11.905         	8.75
MS.67          	11.88          	8.754
MS.68          	11.858         	8.766
MS.69          	11.832         	8.747
MS.70          	11.81          	8.762
MS.71          	11.787         	8.754
MS.72          	11.762         	8.756
MS.73          	11.74          	8.752
MS.74          	11.715         	8.739
MS.75          	11.693         	8.762
MS.76          	11.67          	8.758
MS.77          	11.645         	8.754
MS.78          	11.622         	8.764
MS.79          	11.6           	8.77
MS.80          	11.575         	8.778
MS.81          	11.552         	8.794
MS.82          	11.53          	8.784
MS.83          	11.507         	8.796
MS.84          	11.485         	8.796
MS.85          	11.46          	8.802
MS.86          	11.438         	8.798
MS.87          	11.415         	8.798
MS.88          	11.392         	8.788
MS.89          	11.37          	8.798
MS.90          	11.347         	8.8
MS.91          	11.325         	8.814
MS.92          	11.302         	8.806
MS.93          	11.28          	8.81
MS.94          	11.257         	8.8
MS.95          	11.235         	8.816
MS.96          	11.212         	8.824
MS.97          	11.19          	8.812
MS.98          	11.167         	8.83
MS.99          	11.145         	8.82
MS.100         	11.122         	8.822
MS.101         	11.1           	8.828
MS.102         	11.077         	8.818
MS.103         	11.055         	8.808
MS.104         	11.032         	8.814
MS.105         	11.012         	8.812
MS.106         	10.99          	8.808
MS.107         	10.967         	8.806
MS.108         	10.945         	8.81
MS.109         	10.925         	8.808
MS.110         	10.903         	8.802
MS.111         	10.88          	8.81
MS.112         	10.858         	8.816
MS.113         	10.837         	8.79
MS.114         	10.815         	8.798
MS.115         	10.792         	8.85
MS.116         	10.773         	8.79
MS.117         	10.75          	8.782
MS.118         	10.73          	8.794
MS.119         	10.707         	8.78
MS.120         	10.685         	8.848
MS.121         	10.665         	8.788
MS.122         	10.642         	8.858
MS.123         	10.622         	8.854
MS.124         	10.6           	8.798
MS.125         	10.58          	8.798
MS.126         	10.557         	8.852
MS.127         	10.537         	8.852
MS.128         	10.517         	8.856
MS.129         	10.495         	8.84
MS.130         	10.475         	8.838
MS.131         	10.452         	8.846
MS.132         	10.432         	8.856
MS.133         	10.412         	8.792
MS.134         	10.39          	8.838
MS.135         	10.37          	8.84
MS.136         	10.35          	8.846
MS.137         	10.33          	8.846
MS.138         	10.307         	8.874
MS.139         	10.287         	8.868
MS.140         	10.267         	8.866
MS.141         	10.247         	8.874
MS.142         	10.225         	8.872
MS.143         	10.205         	8.88
MS.144         	10.185         	8.895
MS.145         	10.165         	8.891
MS.146         	10.145         	8.814
MS.147         	10.125         	8.824
MS.148         	10.105         	8.828
MS.149         	10.085         	8.862
MS.150         	10.065         	8.868
MS.151         	10.042         	8.848
MS.152         	10.023         	8.8
MS.153         	10.002         	8.81
MS.154         	9.983          	8.8
MS.155         	9.962          	8.8
MS.156         	9.945          	8.786
MS.157         	9.925          	8.752
MS.158         	9.905          	8.8
MS.159         	9.885          	8.768
MS.160         	9.865          	8.812
MS.161         	9.845          	8.758
MS.162         	9.825          	8.82
MS.163         	9.805          	8.758
MS.164         	9.785          	8.792
MS.165         	9.767          	8.772
MS.166         	9.747          	8.772
MS.167         	9.727          	8.774
MS.168         	9.707          	8.808
MS.169         	9.688          	8.794
MS.170         	9.67           	8.725
MS.171         	9.65           	8.794
MS.172         	9.63           	8.798
MS.173         	9.613          	8.792
MS.174         	9.592          	8.756
MS.175         	9.573          	8.743
MS.176         	9.555          	8.836
MS.177         	9.535          	8.782
MS.178         	9.515          	8.818
MS.179         	9.497          	8.739
MS.180         	9.477          	8.675
MS.181         	9.46           	8.778
MS.182         	9.44           	8.687
MS.183         	9.42           	8.731
MS.184         	9.403          	8.737
MS.185         	9.382          	8.675
MS.186         	9.365          	8.679
MS.187         	9.345          	8.393
MS.188         	9.327          	8.51
MS.189         	9.307          	8.689
MS.190         	9.29           	8.274
MS.191         	9.273          	8.373
MS.192         	9.252          	8.355
MS.193         	9.235          	8.657
MS.194         	9.215          	8.596
MS.195         	9.198          	8.611
MS.196         	9.18           	8.389
MS.197         	9.16           	8.57
MS.198         	9.142          	8.339
MS.199         	9.125          	8.373
MS.200         	9.105          	8.204
MS.201         	9.087          	8.167
MS.202         	9.07           	8.24
MS.203         	9.052          	8.302
MS.204         	9.033          	8.437
MS.205         	9.015          	7.902
MS.206         	8.997          	8.32
MS.207         	8.98           	8.304
MS.208         	8.962          	7.833
MS.209         	8.943          	8.226
MS.210         	8.925          	8.331
MS.211         	8.908          	8.19
MS.212         	8.89           	8.123
MS.213         	8.872          	7.795
MS.214         	8.855          	8.079
MS.215         	8.837          	7.724
MS.216         	8.82           	7.748
MS.217         	8.802          	7.811
MS.218         	8.785          	7.571
MS.219         	8.767          	7.734
MS.220         	8.75           	7.559
MS.221         	8.733          	7.992
MS.222         	8.715          	7.654
MS.223         	8.698          	7.454
MS.224         	8.68           	7.702
MS.225         	8.662          	7.686
MS.226         	8.645          	7.509
MS.227         	8.627          	7.487
MS.228         	8.61           	7.616
MS.229         	8.592          	7.644
MS.230         	8.575          	7.442
MS.231         	8.557          	7.328
MS.232         	8.542          	7.426
MS.233         	8.525          	7.402
MS.234         	8.507          	7.485
MS.235         	8.49           	7.358
MS.236         	8.472          	7.344
MS.237         	8.457          	7.299
MS.238         	8.44           	7.303
MS.239         	8.422          	6.874
MS.240         	8.405          	7.269
MS.241         	8.39           	7.18
MS.242         	8.372          	6.961
MS.243         	8.355          	7.201
MS.244         	8.34           	6.989
MS.245         	8.323          	6.784
MS.246         	8.305          	7.052
MS.247         	8.29           	6.868
MS.248         	8.273          	6.909
MS.249         	8.255          	6.328
MS.250         	8.24           	6.544
MS.251         	8.222          	6.467
MS.252         	8.207          	6.435
MS.253         	8.19           	6.496
MS.254         	8.175          	6.32
MS.255         	8.158          	6.212
MS.256         	8.142          	6.008
MS.257         	8.125          	6.073
MS.258         	8.11           	6.079
MS.259         	8.092          	5.994
MS.260         	8.077          	5.994
MS.261         	8.06           	6.282
MS.262         	8.045          	6.038
MS.263         	8.028          	5.938
MS.264         	8.012          	5.873
MS.265         	7.995          	5.666
MS.266         	7.98           	5.642
MS.267         	7.965          	5.769
MS.268         	7.947          	5.493
MS.269         	7.932          	5.535
MS.270         	7.918          	5.523
MS.271         	7.9            	5.06
MS.272         	7.885          	5.217
MS.273         	7.87           	5.688
MS.274         	7.852          	5.354
MS.275         	7.837          	5.182
MS.276         	7.822          	4.999
MS.277         	7.807          	5.18
MS.278         	7.79           	4.906
MS.279         	7.775          	5.356
MS.280         	7.76           	4.828
MS.281         	7.745          	5.154
MS.282         	7.727          	4.467
MS.283         	7.712          	4.649
MS.284         	7.697          	4.584
MS.285         	7.682          	4.689
MS.286         	7.668          	4.526
MS.287         	7.652          	4.518
MS.288         	7.637          	4.486
MS.289         	7.622          	4.002
MS.290         	7.605          	4.494
MS.291         	7.59           	4.165
MS.292         	7.575          	4.177
MS.293         	7.56           	3.819
MS.294         	7.545          	3.625
MS.295         	7.53           	3.73
MS.296         	7.515          	3.783
MS.297         	7.5            	3.694
MS.298         	7.485          	3.422
MS.299         	7.47           	3.124
MS.300         	7.455          	3.053
MS.301         	7.44           	2.979
MS.302         	7.425          	3.086
MS.303         	7.41           	3.261
MS.304         	7.395          	3.074
MS.305         	7.382          	2.743
MS.306         	7.367          	2.731
MS.307         	7.352          	2.925
MS.308         	7.337          	2.677
MS.309         	7.322          	2.673
MS.310         	7.307          	2.628
MS.311         	7.293          	2.393
MS.312         	7.277          	2.675
MS.313         	7.265          	2.512
MS.314         	7.25           	2.256
MS.315         	7.235          	2.455
MS.316         	7.22           	2.481
MS.317         	7.205          	2.276
MS.318         	7.192          	2.189
MS.319         	7.177          	2.002
MS.320         	7.162          	1.905
MS.321         	7.15           	1.97
MS.322         	7.135          	2.085
MS.323         	7.12           	2.083
MS.324         	7.105          	1.897
MS.325         	7.092          	2.113
MS.326         	7.077          	1.797
MS.327         	7.062          	1.845
MS.328         	7.05           	1.642
MS.329         	7.035          	1.74
MS.330         	7.023          	1.605
MS.331         	7.007          	1.543
MS.332         	6.992          	1.595
MS.333         	6.98           	1.478
MS.334         	6.965          	1.438
MS.335         	6.952          	1.39
MS.336         	6.938          	1.513
MS.337         	6.922          	1.349
MS.338         	6.91           	1.382
MS.339         	6.895          	1.37
MS.340         	6.882          	1.434
MS.341         	6.867          	1.289
MS.342         	6.855          	1.148
MS.343         	6.84           	1.315
MS.344         	6.827          	1.267
MS.345         	6.815          	1.223
MS.346         	6.8            	1.116
MS.347         	6.787          	1.172
MS.348         	6.773          	1.166
MS.349         	6.76           	1.245
MS.350         	6.745          	1.118
MS.351         	6.733          	1.072
MS.352         	6.72           	1.017
MS.353         	6.705          	1.043
MS.354         	6.692          	1.011
MS.355         	6.68           	0.922
MS.356         	6.665          	0.84
MS.357         	6.652          	0.933
MS.358         	6.64           	0.965
MS.359         	6.625          	0.912
MS.360         	6.612          	0.86
MS.361         	6.6            	0.924
MS.362         	6.585          	0.892
MS.363         	6.572          	0.82
MS.364         	6.56           	0.814
MS.365         	6.547          	0.777
MS.366         	6.532          	0.788
MS.367         	6.52           	0.852
MS.368         	6.507          	0.838
MS.369         	6.495          	0.8
MS.370         	6.483          	0.763
MS.371         	6.467          	0.794
MS.372         	6.455          	0.705
MS.373         	6.442          	0.747
MS.374         	6.43           	0.683
MS.375         	6.418          	0.777
MS.376         	6.405          	0.725
MS.377         	6.392          	0.687
MS.378         	6.378          	0.641
MS.379         	6.365          	0.582
MS.380         	6.352          	0.675
MS.381         	6.34           	0.57
MS.382         	6.327          	0.576
MS.383         	6.315          	0.586
MS.384         	6.302          	0.56
MS.385         	6.29           	0.592
MS.386         	6.277          	0.578
MS.387         	6.265          	0.586
MS.388         	6.253          	0.546
MS.389         	6.24           	0.558
MS.390         	6.227          	0.562
MS.391         	6.215          	0.516
MS.392         	6.202          	0.592
MS.393         	6.19           	0.502
MS.394         	6.177          	0.528
MS.395         	6.165          	0.502
MS.396         	6.152          	0.516
MS.397         	6.14           	0.489
MS.398         	6.128          	0.491
MS.399         	6.115          	0.485
MS.400         	6.105          	0.465
MS.401         	6.092          	0.489
MS.402         	6.08           	0.467
MS.403         	6.067          	0.465
MS.404         	6.055          	0.473
MS.405         	6.043          	0.489
MS.406         	6.03           	0.473
MS.407         	6.02           	0.477
MS.408         	6.007          	0.433
MS.409         	5.995          	0.449
MS.410         	5.983          	0.453
MS.411         	5.97           	0.425
MS.412         	5.96           	0.449
MS.413         	5.947          	0.457
MS.414         	5.935          	0.405
MS.415         	5.922          	0.403
MS.416         	5.912          	0.399
MS.417         	5.9            	0.451
MS.418         	5.887          	0.395
MS.419         	5.878          	0.443
MS.420         	5.865          	0.415
MS.421         	5.852          	0.338
MS.422         	5.842          	0.397
MS.423         	5.83           	0.395
MS.424         	5.817          	0.395
MS.425         	5.807          	0.387
MS.426         	5.795          	0.373
MS.427         	5.782          	0.395
MS.428         	5.773          	0.375
MS.429         	5.76           	0.336
MS.430         	5.747          	0.328
MS.431         	5.737          	0.34
MS.432         	5.725          	0.33
MS.433         	5.715          	0.381
MS.434         	5.702          	0.375
MS.435         	5.692          	0.33
MS.436         	5.68           	0.32
MS.437         	5.668          	0.348
MS.438         	5.657          	0.373
MS.439         	5.645          	0.304
MS.440         	5.635          	0.31
MS.441         	5.622          	0.361
MS.442         	5.612          	0.344
MS.443         	5.6            	0.344
MS.444         	5.59           	0.357
MS.445         	5.577          	0.308
MS.446         	5.567          	0.312
MS.447         	5.557          	0.294
MS.448         	5.545          	0.31
MS.449         	5.535          	0.292
MS.450         	5.523          	0.3
MS.451         	5.512          	0.292
MS.452         	5.5            	0.284
MS.453         	5.49           	0.306
MS.454         	5.48           	0.282
MS.455         	5.467          	0.29
MS.456         	5.457          	0.34
MS.457         	5.447          	0.29
MS.458         	5.435          	0.296
MS.459         	5.425          	0.292
MS.460         	5.415          	0.288
MS.461         	5.402          	0.288
MS.462         	5.392          	0.296
MS.463         	5.382          	0.286
MS.464         	5.37           	0.284
MS.465         	5.36           	0.29
MS.466         	5.35           	0.272
MS.467         	5.338          	0.282
MS.468         	5.327          	0.276
MS.469         	5.318          	0.282
MS.470         	5.307          	0.278
MS.471         	5.295          	0.284
MS.472         	5.285          	0.278
MS.473         	5.275          	0.274
MS.474         	5.265          	0.282
MS.475         	5.255          	0.286
MS.476         	5.242          	0.27
MS.477         	5.233          	0.272
MS.478         	5.222          	0.278
MS.479         	5.213          	0.272
MS.480         	5.202          	0.286
MS.481         	5.19           	0.28
MS.482         	5.18           	0.278
MS.483         	5.17           	0.28
MS.484         	5.16           	0.276
MS.485         	5.15           	0.27
MS.486         	5.14           	0.282
MS.487         	5.13           	0.28
MS.488         	5.12           	0.272
MS.489         	5.108          	0.27
MS.490         	5.097          	0.272
MS.491         	5.088          	0.276
MS.492         	5.077          	0.272
MS.493         	5.068          	0.268
MS.494         	5.057          	0.274
MS.495         	5.047          	0.276
MS.496         	5.037          	0.268
MS.497         	5.027          	0.274
MS.498         	5.017          	0.278
MS.499         	5.007          	0.272
MS.500         	4.997          	0.272
MS.501         	4.987          	0.274
