File:              	C:\Qtrac\Data\Daniel M Sørensen\MScan multicentre study\Data from centres\Roskilde\Folders with NC-examinations\ROS_N7a\MBC00423B.QZD
Name:              	DK.ROS.NC.7.1
Protocol:          	MSCAN-R2
Date:              	23/4/20
Start time:        	13:36:02
Age:               	66
Sex:               	m
Temperature:       	37.1
S/R sites:         	Ulnar Wr-ADM
NC/disease:        	NC
Operator:          	MB
Comments:
M-SCAN DATA (9.8-2.2m)
Scanpts: 24, 27, 797, 804
Stim. (mA)     	Amp. (mV)
MS.1           	33             	6.407
MS.2           	33             	6.425
MS.3           	33             	6.429
MS.4           	33             	6.431
MS.5           	33             	6.461
MS.6           	33             	6.461
MS.7           	33             	6.469
MS.8           	33             	6.471
MS.9           	33             	6.474
MS.10          	33             	6.486
MS.11          	33             	6.526
MS.12          	33             	6.49
MS.13          	33             	6.492
MS.14          	33             	6.536
MS.15          	33             	6.5
MS.16          	33             	6.492
MS.17          	33             	6.476
MS.18          	33             	6.405
MS.19          	33             	6.433
MS.20          	33             	6.395
MS.21          	33             	6.393
MS.22          	33             	6.379
MS.23          	33             	6.469
MS.24          	32.868         	6.455
MS.25          	32.802         	6.421
MS.26          	32.737         	6.48
MS.27          	32.673         	6.445
MS.28          	32.605         	6.453
MS.29          	32.54          	6.411
MS.30          	32.475         	6.429
MS.31          	32.41          	6.429
MS.32          	32.347         	6.383
MS.33          	32.282         	6.447
MS.34          	32.217         	6.391
MS.35          	32.153         	6.403
MS.36          	32.087         	6.343
MS.37          	32.025         	6.435
MS.38          	31.96          	6.395
MS.39          	31.897         	6.371
MS.40          	31.832         	6.333
MS.41          	31.77          	6.328
MS.42          	31.705         	6.339
MS.43          	31.642         	6.419
MS.44          	31.58          	6.318
MS.45          	31.517         	6.27
MS.46          	31.452         	6.236
MS.47          	31.39          	6.242
MS.48          	31.327         	6.26
MS.49          	31.265         	6.322
MS.50          	31.202         	6.236
MS.51          	31.14          	6.258
MS.52          	31.077         	6.25
MS.53          	31.015         	6.282
MS.54          	30.955         	6.296
MS.55          	30.892         	6.238
MS.56          	30.83          	6.194
MS.57          	30.77          	6.232
MS.58          	30.707         	6.212
MS.59          	30.645         	6.206
MS.60          	30.585         	6.244
MS.61          	30.522         	6.228
MS.62          	30.462         	6.226
MS.63          	30.403         	6.165
MS.64          	30.34          	6.228
MS.65          	30.28          	6.23
MS.66          	30.22          	6.119
MS.67          	30.16          	6.198
MS.68          	30.1           	6.141
MS.69          	30.04          	6.127
MS.70          	29.98          	6.163
MS.71          	29.92          	6.212
MS.72          	29.86          	6.117
MS.73          	29.8           	6.151
MS.74          	29.74          	6.175
MS.75          	29.68          	6.083
MS.76          	29.622         	6.139
MS.77          	29.562         	6.157
MS.78          	29.502         	5.988
MS.79          	29.445         	6.085
MS.80          	29.385         	6.103
MS.81          	29.327         	6.038
MS.82          	29.267         	6.01
MS.83          	29.21          	6.028
MS.84          	29.153         	5.986
MS.85          	29.092         	6.044
MS.86          	29.035         	6.089
MS.87          	28.977         	5.893
MS.88          	28.92          	6.004
MS.89          	28.862         	5.916
MS.90          	28.802         	5.992
MS.91          	28.745         	5.986
MS.92          	28.688         	6.065
MS.93          	28.632         	6.02
MS.94          	28.575         	5.809
MS.95          	28.517         	5.916
MS.96          	28.46          	5.811
MS.97          	28.403         	5.984
MS.98          	28.347         	5.936
MS.99          	28.29          	5.904
MS.100         	28.233         	5.807
MS.101         	28.177         	5.829
MS.102         	28.12          	5.756
MS.103         	28.065         	5.746
MS.104         	28.007         	5.732
MS.105         	27.952         	5.7
MS.106         	27.897         	5.75
MS.107         	27.84          	5.827
MS.108         	27.785         	5.531
MS.109         	27.73          	5.587
MS.110         	27.675         	5.605
MS.111         	27.62          	5.63
MS.112         	27.565         	5.553
MS.113         	27.507         	5.583
MS.114         	27.455         	5.622
MS.115         	27.4           	5.555
MS.116         	27.345         	5.505
MS.117         	27.29          	5.38
MS.118         	27.235         	5.348
MS.119         	27.18          	5.362
MS.120         	27.127         	5.521
MS.121         	27.073         	5.551
MS.122         	27.017         	5.505
MS.123         	26.965         	5.466
MS.124         	26.91          	5.325
MS.125         	26.858         	5.354
MS.126         	26.802         	5.364
MS.127         	26.75          	5.34
MS.128         	26.695         	5.509
MS.129         	26.642         	5.333
MS.130         	26.59          	5.481
MS.131         	26.535         	5.146
MS.132         	26.483         	5.321
MS.133         	26.43          	5.293
MS.134         	26.377         	5.362
MS.135         	26.325         	5.342
MS.136         	26.272         	5.174
MS.137         	26.22          	5.156
MS.138         	26.167         	5.197
MS.139         	26.115         	5.148
MS.140         	26.062         	5.106
MS.141         	26.01          	5.084
MS.142         	25.957         	5.203
MS.143         	25.907         	4.969
MS.144         	25.855         	4.88
MS.145         	25.802         	5.195
MS.146         	25.752         	5.019
MS.147         	25.7           	4.929
MS.148         	25.65          	4.772
MS.149         	25.597         	4.872
MS.150         	25.547         	4.79
MS.151         	25.495         	4.858
MS.152         	25.445         	4.878
MS.153         	25.395         	4.828
MS.154         	25.342         	4.629
MS.155         	25.292         	4.818
MS.156         	25.243         	4.455
MS.157         	25.192         	4.488
MS.158         	25.14          	4.451
MS.159         	25.09          	4.471
MS.160         	25.04          	4.526
MS.161         	24.99          	4.51
MS.162         	24.94          	4.443
MS.163         	24.89          	4.322
MS.164         	24.84          	4.465
MS.165         	24.792         	4.552
MS.166         	24.743         	4.272
MS.167         	24.692         	4.28
MS.168         	24.642         	4.061
MS.169         	24.595         	4.131
MS.170         	24.545         	4.316
MS.171         	24.495         	4.109
MS.172         	24.448         	4.097
MS.173         	24.397         	4.141
MS.174         	24.35          	3.764
MS.175         	24.3           	3.779
MS.176         	24.252         	3.662
MS.177         	24.202         	3.541
MS.178         	24.155         	3.424
MS.179         	24.108         	3.589
MS.180         	24.06          	3.565
MS.181         	24.01          	3.499
MS.182         	23.962         	3.579
MS.183         	23.915         	3.4
MS.184         	23.868         	3.38
MS.185         	23.82          	3.337
MS.186         	23.772         	3.341
MS.187         	23.725         	3.114
MS.188         	23.677         	3.031
MS.189         	23.63          	3.362
MS.190         	23.582         	3.196
MS.191         	23.535         	3.271
MS.192         	23.487         	3.269
MS.193         	23.442         	3.174
MS.194         	23.395         	3.033
MS.195         	23.347         	2.957
MS.196         	23.3           	3.17
MS.197         	23.255         	2.874
MS.198         	23.207         	2.832
MS.199         	23.163         	2.83
MS.200         	23.115         	2.882
MS.201         	23.07          	2.898
MS.202         	23.022         	2.691
MS.203         	22.977         	2.735
MS.204         	22.932         	2.665
MS.205         	22.885         	2.61
MS.206         	22.84          	2.443
MS.207         	22.795         	2.381
MS.208         	22.747         	2.566
MS.209         	22.702         	2.604
MS.210         	22.657         	2.324
MS.211         	22.612         	2.445
MS.212         	22.567         	2.185
MS.213         	22.522         	2.232
MS.214         	22.477         	2.328
MS.215         	22.432         	2.089
MS.216         	22.387         	2.121
MS.217         	22.342         	2.165
MS.218         	22.297         	2.183
MS.219         	22.252         	2.04
MS.220         	22.21          	2.069
MS.221         	22.165         	1.984
MS.222         	22.12          	1.905
MS.223         	22.077         	1.996
MS.224         	22.032         	1.96
MS.225         	21.987         	1.996
MS.226         	21.945         	1.984
MS.227         	21.9           	1.887
MS.228         	21.858         	1.907
MS.229         	21.812         	1.895
MS.230         	21.77          	1.899
MS.231         	21.725         	1.841
MS.232         	21.682         	1.837
MS.233         	21.64          	1.837
MS.234         	21.595         	1.706
MS.235         	21.552         	1.825
MS.236         	21.51          	1.821
MS.237         	21.467         	1.787
MS.238         	21.425         	1.813
MS.239         	21.38          	1.726
MS.240         	21.337         	1.853
MS.241         	21.295         	1.791
MS.242         	21.252         	1.724
MS.243         	21.21          	1.545
MS.244         	21.167         	1.764
MS.245         	21.125         	1.589
MS.246         	21.085         	1.662
MS.247         	21.042         	1.541
MS.248         	21             	1.656
MS.249         	20.958         	1.629
MS.250         	20.915         	1.434
MS.251         	20.875         	1.523
MS.252         	20.833         	1.462
MS.253         	20.79          	1.484
MS.254         	20.75          	1.507
MS.255         	20.708         	1.509
MS.256         	20.667         	1.497
MS.257         	20.625         	1.517
MS.258         	20.585         	1.43
MS.259         	20.542         	1.414
MS.260         	20.502         	1.404
MS.261         	20.46          	1.406
MS.262         	20.42          	1.426
MS.263         	20.38          	1.378
MS.264         	20.337         	1.386
MS.265         	20.297         	1.337
MS.266         	20.257         	1.333
MS.267         	20.217         	1.275
MS.268         	20.175         	1.448
MS.269         	20.135         	1.43
MS.270         	20.095         	1.412
MS.271         	20.055         	1.352
MS.272         	20.015         	1.331
MS.273         	19.975         	1.354
MS.274         	19.935         	1.325
MS.275         	19.895         	1.327
MS.276         	19.855         	1.42
MS.277         	19.817         	1.414
MS.278         	19.778         	1.156
MS.279         	19.737         	1.362
MS.280         	19.698         	1.325
MS.281         	19.657         	1.452
MS.282         	19.62          	1.283
MS.283         	19.58          	1.259
MS.284         	19.54          	1.345
MS.285         	19.502         	1.271
MS.286         	19.462         	1.366
MS.287         	19.425         	1.192
MS.288         	19.385         	1.265
MS.289         	19.347         	1.211
MS.290         	19.307         	1.182
MS.291         	19.27          	1.148
MS.292         	19.23          	1.303
MS.293         	19.192         	1.39
MS.294         	19.155         	1.162
MS.295         	19.115         	1.196
MS.296         	19.077         	1.269
MS.297         	19.04          	1.223
MS.298         	19             	1.257
MS.299         	18.962         	1.08
MS.300         	18.925         	1.118
MS.301         	18.887         	1.025
MS.302         	18.85          	1.215
MS.303         	18.812         	1.118
MS.304         	18.775         	1.057
MS.305         	18.737         	1.068
MS.306         	18.7           	1.063
MS.307         	18.663         	1.1
MS.308         	18.625         	1.033
MS.309         	18.587         	1.057
MS.310         	18.55          	1.027
MS.311         	18.512         	1.114
MS.312         	18.477         	0.993
MS.313         	18.44          	0.943
MS.314         	18.403         	0.924
MS.315         	18.365         	0.929
MS.316         	18.33          	0.961
MS.317         	18.292         	0.987
MS.318         	18.255         	0.916
MS.319         	18.22          	0.949
MS.320         	18.182         	0.904
MS.321         	18.147         	0.896
MS.322         	18.11          	0.898
MS.323         	18.075         	0.914
MS.324         	18.038         	0.838
MS.325         	18.003         	0.86
MS.326         	17.967         	0.828
MS.327         	17.93          	0.848
MS.328         	17.895         	0.866
MS.329         	17.86          	0.824
MS.330         	17.823         	0.816
MS.331         	17.788         	0.784
MS.332         	17.753         	0.733
MS.333         	17.717         	0.83
MS.334         	17.68          	0.844
MS.335         	17.645         	0.753
MS.336         	17.61          	0.767
MS.337         	17.575         	0.771
MS.338         	17.54          	0.709
MS.339         	17.505         	0.661
MS.340         	17.47          	0.727
MS.341         	17.435         	0.81
MS.342         	17.4           	0.767
MS.343         	17.365         	0.715
MS.344         	17.33          	0.665
MS.345         	17.297         	0.703
MS.346         	17.262         	0.524
MS.347         	17.227         	0.582
MS.348         	17.192         	0.713
MS.349         	17.157         	0.608
MS.350         	17.125         	0.592
MS.351         	17.09          	0.592
MS.352         	17.055         	0.572
MS.353         	17.022         	0.663
MS.354         	16.987         	0.651
MS.355         	16.955         	0.604
MS.356         	16.92          	0.532
MS.357         	16.887         	0.606
MS.358         	16.852         	0.576
MS.359         	16.82          	0.647
MS.360         	16.785         	0.636
MS.361         	16.753         	0.574
MS.362         	16.717         	0.558
MS.363         	16.685         	0.602
MS.364         	16.653         	0.562
MS.365         	16.618         	0.536
MS.366         	16.585         	0.52
MS.367         	16.552         	0.514
MS.368         	16.52          	0.526
MS.369         	16.485         	0.419
MS.370         	16.452         	0.548
MS.371         	16.42          	0.536
MS.372         	16.387         	0.51
MS.373         	16.355         	0.546
MS.374         	16.323         	0.471
MS.375         	16.29          	0.433
MS.376         	16.257         	0.417
MS.377         	16.225         	0.538
MS.378         	16.192         	0.473
MS.379         	16.16          	0.441
MS.380         	16.128         	0.421
MS.381         	16.095         	0.449
MS.382         	16.062         	0.427
MS.383         	16.03          	0.409
MS.384         	15.997         	0.493
MS.385         	15.967         	0.475
MS.386         	15.935         	0.389
MS.387         	15.902         	0.397
MS.388         	15.87          	0.387
MS.389         	15.84          	0.407
MS.390         	15.807         	0.431
MS.391         	15.775         	0.417
MS.392         	15.745         	0.457
MS.393         	15.712         	0.399
MS.394         	15.682         	0.385
MS.395         	15.65          	0.377
MS.396         	15.62          	0.385
MS.397         	15.587         	0.379
MS.398         	15.557         	0.397
MS.399         	15.525         	0.367
MS.400         	15.495         	0.332
MS.401         	15.465         	0.286
MS.402         	15.432         	0.367
MS.403         	15.402         	0.304
MS.404         	15.372         	0.385
MS.405         	15.34          	0.278
MS.406         	15.31          	0.342
MS.407         	15.28          	0.226
MS.408         	15.25          	0.274
MS.409         	15.217         	0.28
MS.410         	15.188         	0.296
MS.411         	15.157         	0.256
MS.412         	15.127         	0.197
MS.413         	15.097         	0.274
MS.414         	15.068         	0.268
MS.415         	15.037         	0.252
MS.416         	15.007         	0.242
MS.417         	14.977         	0.246
MS.418         	14.947         	0.26
MS.419         	14.917         	0.139
MS.420         	14.887         	0.205
MS.421         	14.858         	0.173
MS.422         	14.827         	0.117
MS.423         	14.797         	0.157
MS.424         	14.767         	0.141
MS.425         	14.74          	0.209
MS.426         	14.71          	0.181
MS.427         	14.68          	0.137
MS.428         	14.65          	0.183
MS.429         	14.622         	0.137
MS.430         	14.592         	0.107
MS.431         	14.562         	0.103
MS.432         	14.535         	0.123
MS.433         	14.505         	0.115
MS.434         	14.475         	0.135
MS.435         	14.447         	0.121
MS.436         	14.417         	0.121
MS.437         	14.39          	0.129
MS.438         	14.36          	0.155
MS.439         	14.332         	0.119
MS.440         	14.302         	0.161
MS.441         	14.275         	0.143
MS.442         	14.247         	0.113
MS.443         	14.217         	0.129
MS.444         	14.19          	0.123
MS.445         	14.16          	0.131
MS.446         	14.132         	0.125
MS.447         	14.105         	0.137
MS.448         	14.077         	0.151
MS.449         	14.047         	0.133
MS.450         	14.02          	0.127
MS.451         	13.992         	0.129
MS.452         	13.965         	0.141
MS.453         	13.938         	0.151
MS.454         	13.907         	0.123
MS.455         	13.88          	0.127
MS.456         	13.852         	0.135
MS.457         	13.825         	0.119
MS.458         	13.797         	0.125
MS.459         	13.77          	0.117
MS.460         	13.742         	0.117
MS.461         	13.715         	0.133
MS.462         	13.688         	0.115
MS.463         	13.66          	0.107
MS.464         	13.632         	0.131
MS.465         	13.605         	0.131
MS.466         	13.577         	0.149
MS.467         	13.552         	0.147
MS.468         	13.525         	0.123
MS.469         	13.497         	0.135
MS.470         	13.47          	0.119
MS.471         	13.443         	0.119
MS.472         	13.417         	0.143
MS.473         	13.39          	0.113
MS.474         	13.362         	0.135
MS.475         	13.337         	0.133
MS.476         	13.31          	0.131
MS.477         	13.282         	0.133
MS.478         	13.257         	0.125
MS.479         	13.23          	0.125
MS.480         	13.205         	0.135
MS.481         	13.177         	0.117
MS.482         	13.15          	0.131
MS.483         	13.125         	0.125
MS.484         	13.097         	0.121
MS.485         	13.072         	0.119
MS.486         	13.047         	0.129
MS.487         	13.02          	0.127
MS.488         	12.995         	0.135
MS.489         	12.967         	0.123
MS.490         	12.943         	0.125
MS.491         	12.917         	0.141
MS.492         	12.89          	0.123
MS.493         	12.865         	0.129
MS.494         	12.84          	0.129
MS.495         	12.812         	0.115
MS.496         	12.787         	0.127
MS.497         	12.762         	0.129
MS.498         	12.738         	0.137
MS.499         	12.712         	0.139
MS.500         	12.685         	0.123
