File:              	C:\Qtrac\Data\Daniel M Sørensen\MScan multicentre study\Data from centres\Toronto\Processed data\MSCC01117A.QZD
Name:              	CA.TOR.NC.2.2
Protocol:          	MSCAN-R2
Date:              	17/11/20
Start time:        	14:56:07
Age:               	25
Sex:               	F
Temperature:       	33.4
S/R sites:         	APB
NC/disease:        	NC
Operator:          	LP
Comments:
M-SCAN DATA (7.7-1m)
Scanpts: 61, 65, 430, 436
Stim. (mA)     	Amp. (mV)
MS.1           	20.5           	10.284
MS.2           	20.5           	10.308
MS.3           	20.5           	10.304
MS.4           	20.5           	10.319
MS.5           	20.5           	10.337
MS.6           	20.5           	10.325
MS.7           	20.5           	10.335
MS.8           	20.5           	10.327
MS.9           	20.5           	10.341
MS.10          	20.5           	10.349
MS.11          	20.5           	10.377
MS.12          	20.5           	10.387
MS.13          	20.5           	10.399
MS.14          	20.5           	10.417
MS.15          	20.5           	10.435
MS.16          	20.5           	10.453
MS.17          	20.5           	10.453
MS.18          	20.5           	10.468
MS.19          	20.5           	10.478
MS.20          	20.5           	10.456
MS.21          	20.5           	10.46
MS.22          	20.5           	10.494
MS.23          	20.5           	10.472
MS.24          	20.417         	10.474
MS.25          	20.377         	10.484
MS.26          	20.337         	10.476
MS.27          	20.295         	10.478
MS.28          	20.255         	10.486
MS.29          	20.215         	10.496
MS.30          	20.175         	10.5
MS.31          	20.135         	10.518
MS.32          	20.095         	10.514
MS.33          	20.055         	10.528
MS.34          	20.015         	10.538
MS.35          	19.975         	10.544
MS.36          	19.935         	10.474
MS.37          	19.895         	10.48
MS.38          	19.855         	10.486
MS.39          	19.815         	10.488
MS.40          	19.775         	10.554
MS.41          	19.735         	10.494
MS.42          	19.695         	10.556
MS.43          	19.657         	10.54
MS.44          	19.618         	10.488
MS.45          	19.577         	10.542
MS.46          	19.54          	10.5
MS.47          	19.5           	10.488
MS.48          	19.46          	10.568
MS.49          	19.422         	10.54
MS.50          	19.382         	10.49
MS.51          	19.345         	10.482
MS.52          	19.305         	10.502
MS.53          	19.267         	10.514
MS.54          	19.23          	10.586
MS.55          	19.19          	10.54
MS.56          	19.153         	10.53
MS.57          	19.115         	10.532
MS.58          	19.075         	10.536
MS.59          	19.038         	10.534
MS.60          	19             	10.528
MS.61          	18.962         	10.536
MS.62          	18.925         	10.522
MS.63          	18.885         	10.526
MS.64          	18.847         	10.534
MS.65          	18.81          	10.528
MS.66          	18.772         	10.54
MS.67          	18.735         	10.55
MS.68          	18.698         	10.562
MS.69          	18.66          	10.552
MS.70          	18.622         	10.55
MS.71          	18.585         	10.474
MS.72          	18.55          	10.556
MS.73          	18.512         	10.56
MS.74          	18.475         	10.562
MS.75          	18.438         	10.578
MS.76          	18.403         	10.562
MS.77          	18.365         	10.582
MS.78          	18.327         	10.582
MS.79          	18.29          	10.586
MS.80          	18.255         	10.599
MS.81          	18.217         	10.582
MS.82          	18.182         	10.592
MS.83          	18.145         	10.49
MS.84          	18.11          	10.568
MS.85          	18.073         	10.578
MS.86          	18.038         	10.586
MS.87          	18             	10.486
MS.88          	17.965         	10.482
MS.89          	17.93          	10.389
MS.90          	17.892         	10.566
MS.91          	17.858         	10.395
MS.92          	17.823         	10.393
MS.93          	17.785         	10.387
MS.94          	17.75          	10.47
MS.95          	17.715         	10.274
MS.96          	17.68          	10.361
MS.97          	17.645         	10.371
MS.98          	17.61          	10.369
MS.99          	17.575         	10.353
MS.100         	17.54          	10.351
MS.101         	17.505         	10.242
MS.102         	17.47          	10.24
MS.103         	17.435         	10.244
MS.104         	17.4           	10.222
MS.105         	17.365         	10.26
MS.106         	17.33          	10.357
MS.107         	17.295         	10.26
MS.108         	17.26          	10.268
MS.109         	17.225         	10.282
MS.110         	17.192         	10.282
MS.111         	17.157         	10.155
MS.112         	17.122         	10.274
MS.113         	17.09          	10.113
MS.114         	17.055         	10.274
MS.115         	17.02          	10.258
MS.116         	16.987         	10.26
MS.117         	16.952         	10.045
MS.118         	16.917         	10.242
MS.119         	16.885         	10.139
MS.120         	16.85          	10.252
MS.121         	16.817         	10.24
MS.122         	16.785         	10.133
MS.123         	16.75          	10.129
MS.124         	16.717         	10.123
MS.125         	16.682         	10.174
MS.126         	16.65          	10.174
MS.127         	16.618         	10.071
MS.128         	16.583         	10.159
MS.129         	16.55          	9.998
MS.130         	16.517         	9.98
MS.131         	16.485         	9.982
MS.132         	16.452         	10.037
MS.133         	16.417         	10.022
MS.134         	16.385         	10.031
MS.135         	16.352         	9.974
MS.136         	16.32          	9.801
MS.137         	16.288         	9.755
MS.138         	16.255         	9.914
MS.139         	16.222         	9.948
MS.140         	16.19          	9.849
MS.141         	16.157         	9.938
MS.142         	16.125         	9.811
MS.143         	16.092         	9.696
MS.144         	16.062         	9.883
MS.145         	16.03          	9.843
MS.146         	15.997         	9.805
MS.147         	15.965         	9.676
MS.148         	15.932         	9.795
MS.149         	15.902         	9.557
MS.150         	15.87          	9.692
MS.151         	15.837         	9.527
MS.152         	15.807         	9.769
MS.153         	15.775         	9.646
MS.154         	15.742         	9.666
MS.155         	15.712         	9.541
MS.156         	15.68          	9.463
MS.157         	15.65          	9.265
MS.158         	15.617         	8.905
MS.159         	15.587         	9.148
MS.160         	15.555         	9.142
MS.161         	15.525         	9.09
MS.162         	15.492         	8.814
MS.163         	15.462         	8.917
MS.164         	15.432         	9.011
MS.165         	15.4           	8.84
MS.166         	15.37          	8.782
MS.167         	15.34          	8.671
MS.168         	15.307         	8.689
MS.169         	15.277         	8.639
MS.170         	15.247         	8.655
MS.171         	15.217         	8.619
MS.172         	15.188         	8.739
MS.173         	15.157         	8.647
MS.174         	15.125         	8.615
MS.175         	15.095         	8.552
MS.176         	15.065         	8.246
MS.177         	15.035         	8.466
MS.178         	15.005         	8.329
MS.179         	14.975         	8.468
MS.180         	14.945         	8.117
MS.181         	14.915         	8.349
MS.182         	14.885         	8.516
MS.183         	14.858         	8.574
MS.184         	14.827         	8.282
MS.185         	14.797         	8.341
MS.186         	14.767         	8.365
MS.187         	14.737         	8.173
MS.188         	14.707         	8.284
MS.189         	14.68          	8.234
MS.190         	14.65          	8.041
MS.191         	14.62          	8.246
MS.192         	14.59          	8.19
MS.193         	14.562         	7.777
MS.194         	14.532         	7.898
MS.195         	14.505         	7.932
MS.196         	14.475         	7.934
MS.197         	14.445         	7.867
MS.198         	14.417         	8.03
MS.199         	14.387         	7.666
MS.200         	14.36          	7.473
MS.201         	14.33          	8.171
MS.202         	14.302         	7.833
MS.203         	14.273         	7.837
MS.204         	14.245         	7.744
MS.205         	14.217         	7.239
MS.206         	14.188         	7.231
MS.207         	14.16          	7.16
MS.208         	14.132         	7.563
MS.209         	14.102         	7.168
MS.210         	14.075         	7.501
MS.211         	14.047         	7.378
MS.212         	14.02          	7.096
MS.213         	13.99          	7.275
MS.214         	13.962         	6.949
MS.215         	13.935         	6.864
MS.216         	13.907         	6.901
MS.217         	13.88          	6.808
MS.218         	13.852         	7.07
MS.219         	13.825         	6.85
MS.220         	13.797         	6.564
MS.221         	13.77          	6.425
MS.222         	13.742         	6.524
MS.223         	13.715         	6.29
MS.224         	13.688         	6.697
MS.225         	13.66          	6.226
MS.226         	13.632         	6.312
MS.227         	13.605         	6.153
MS.228         	13.577         	6.169
MS.229         	13.55          	6.135
MS.230         	13.523         	5.976
MS.231         	13.497         	5.672
MS.232         	13.47          	5.7
MS.233         	13.443         	5.442
MS.234         	13.415         	5.662
MS.235         	13.39          	5.837
MS.236         	13.362         	5.783
MS.237         	13.335         	5.46
MS.238         	13.307         	5.682
MS.239         	13.282         	5.325
MS.240         	13.255         	5.047
MS.241         	13.23          	5.428
MS.242         	13.202         	5.444
MS.243         	13.177         	4.965
MS.244         	13.15          	5.025
MS.245         	13.122         	4.757
MS.246         	13.097         	4.846
MS.247         	13.072         	5.257
MS.248         	13.045         	4.888
MS.249         	13.02          	4.806
MS.250         	12.992         	4.798
MS.251         	12.967         	4.179
MS.252         	12.943         	4.336
MS.253         	12.915         	4.494
MS.254         	12.89          	4.153
MS.255         	12.865         	4.157
MS.256         	12.837         	3.942
MS.257         	12.812         	4.105
MS.258         	12.787         	4.222
MS.259         	12.762         	3.825
MS.260         	12.735         	3.525
MS.261         	12.71          	3.575
MS.262         	12.685         	3.557
MS.263         	12.66          	3.585
MS.264         	12.635         	3.454
MS.265         	12.61          	3.694
MS.266         	12.585         	3.382
MS.267         	12.56          	3.142
MS.268         	12.532         	3.289
MS.269         	12.507         	3.317
MS.270         	12.483         	3.064
MS.271         	12.457         	3.215
MS.272         	12.435         	3.223
MS.273         	12.41          	2.975
MS.274         	12.385         	2.939
MS.275         	12.36          	2.997
MS.276         	12.335         	2.703
MS.277         	12.31          	2.312
MS.278         	12.285         	3.106
MS.279         	12.26          	3.049
MS.280         	12.238         	2.89
MS.281         	12.212         	2.87
MS.282         	12.188         	2.169
MS.283         	12.162         	2.566
MS.284         	12.14          	2.639
MS.285         	12.115         	2.288
MS.286         	12.09          	2.353
MS.287         	12.068         	2.463
MS.288         	12.042         	2.06
MS.289         	12.017         	1.919
MS.290         	11.995         	2.179
MS.291         	11.97          	2.197
MS.292         	11.947         	2.201
MS.293         	11.922         	1.871
MS.294         	11.898         	2.165
MS.295         	11.875         	2.139
MS.296         	11.85          	2.071
MS.297         	11.827         	1.776
MS.298         	11.805         	2.29
MS.299         	11.78          	1.617
MS.300         	11.757         	1.672
MS.301         	11.733         	2.067
MS.302         	11.71          	1.843
MS.303         	11.688         	1.515
MS.304         	11.662         	1.648
MS.305         	11.64          	1.781
MS.306         	11.617         	1.714
MS.307         	11.592         	1.65
MS.308         	11.57          	1.291
MS.309         	11.547         	1.364
MS.310         	11.525         	1.368
MS.311         	11.5           	1.352
MS.312         	11.477         	1.374
MS.313         	11.455         	1.094
MS.314         	11.432         	1.148
MS.315         	11.41          	1.265
MS.316         	11.387         	1.19
MS.317         	11.363         	1.162
MS.318         	11.34          	1.168
MS.319         	11.318         	1.124
MS.320         	11.295         	1.045
MS.321         	11.273         	1.049
MS.322         	11.25          	1.003
MS.323         	11.227         	1.013
MS.324         	11.205         	0.798
MS.325         	11.182         	0.87
MS.326         	11.16          	1.031
MS.327         	11.137         	0.737
MS.328         	11.117         	0.745
MS.329         	11.095         	0.818
MS.330         	11.073         	0.834
MS.331         	11.05          	0.735
MS.332         	11.028         	0.739
MS.333         	11.005         	0.725
MS.334         	10.985         	0.779
MS.335         	10.962         	0.862
MS.336         	10.94          	0.685
MS.337         	10.917         	0.755
MS.338         	10.898         	0.767
MS.339         	10.875         	0.675
MS.340         	10.852         	0.681
MS.341         	10.83          	0.749
MS.342         	10.81          	0.687
MS.343         	10.787         	0.624
MS.344         	10.767         	0.596
MS.345         	10.745         	0.643
MS.346         	10.722         	0.612
MS.347         	10.702         	0.606
MS.348         	10.68          	0.643
MS.349         	10.66          	0.572
MS.350         	10.637         	0.612
MS.351         	10.617         	0.618
MS.352         	10.595         	0.634
MS.353         	10.575         	0.6
MS.354         	10.552         	0.57
MS.355         	10.532         	0.554
MS.356         	10.51          	0.592
MS.357         	10.49          	0.614
MS.358         	10.47          	0.425
MS.359         	10.448         	0.518
MS.360         	10.427         	0.495
MS.361         	10.407         	0.616
MS.362         	10.385         	0.397
MS.363         	10.365         	0.536
MS.364         	10.345         	0.542
MS.365         	10.323         	0.401
MS.366         	10.302         	0.328
MS.367         	10.282         	0.373
MS.368         	10.262         	0.548
MS.369         	10.24          	0.31
MS.370         	10.22          	0.359
MS.371         	10.2           	0.369
MS.372         	10.18          	0.288
MS.373         	10.16          	0.266
MS.374         	10.14          	0.34
MS.375         	10.12          	0.383
MS.376         	10.1           	0.282
MS.377         	10.077         	0.336
MS.378         	10.057         	0.232
MS.379         	10.037         	0.276
MS.380         	10.017         	0.187
MS.381         	9.997          	0.22
MS.382         	9.977          	0.159
MS.383         	9.957          	0.209
MS.384         	9.938          	0.161
MS.385         	9.917          	0.177
MS.386         	9.9            	0.133
MS.387         	9.88           	0.201
MS.388         	9.86           	0.189
MS.389         	9.84           	0.159
MS.390         	9.82           	0.117
MS.391         	9.8            	0.149
MS.392         	9.78           	0.131
MS.393         	9.762          	0.123
MS.394         	9.742          	0.111
MS.395         	9.722          	0.113
MS.396         	9.702          	0.109
MS.397         	9.682          	0.159
MS.398         	9.665          	0.111
MS.399         	9.645          	0.107
MS.400         	9.625          	0.115
MS.401         	9.608          	0.113
MS.402         	9.587          	0.115
MS.403         	9.568          	0.109
MS.404         	9.55           	0.107
MS.405         	9.53           	0.115
MS.406         	9.51           	0.115
MS.407         	9.492          	0.109
MS.408         	9.472          	0.111
MS.409         	9.455          	0.115
MS.410         	9.435          	0.119
MS.411         	9.415          	0.115
MS.412         	9.398          	0.115
MS.413         	9.377          	0.113
MS.414         	9.36           	0.119
MS.415         	9.34           	0.115
MS.416         	9.323          	0.115
MS.417         	9.305          	0.113
MS.418         	9.285          	0.113
MS.419         	9.267          	0.117
MS.420         	9.247          	0.117
MS.421         	9.23           	0.113
MS.422         	9.21           	0.113
MS.423         	9.193          	0.113
MS.424         	9.175          	0.111
MS.425         	9.155          	0.117
MS.426         	9.137          	0.117
MS.427         	9.12           	0.115
MS.428         	9.102          	0.109
MS.429         	9.082          	0.107
MS.430         	9.065          	0.113
MS.431         	9.047          	0.117
MS.432         	9.03           	0.109
MS.433         	9.01           	0.117
MS.434         	8.992          	0.115
MS.435         	8.975          	0.117
MS.436         	8.957          	0.117
MS.437         	8.94           	0.107
MS.438         	8.92           	0.111
MS.439         	8.903          	0.113
MS.440         	8.885          	0.117
MS.441         	8.867          	0.109
MS.442         	8.85           	0.119
MS.443         	8.832          	0.111
MS.444         	8.815          	0.117
MS.445         	8.797          	0.109
MS.446         	8.78           	0.117
MS.447         	8.762          	0.117
MS.448         	8.745          	0.107
MS.449         	8.727          	0.109
MS.450         	8.71           	0.115
MS.451         	8.693          	0.107
MS.452         	8.675          	0.113
MS.453         	8.658          	0.109
MS.454         	8.64           	0.113
MS.455         	8.622          	0.113
MS.456         	8.605          	0.113
MS.457         	8.587          	0.113
MS.458         	8.573          	0.111
MS.459         	8.555          	0.113
MS.460         	8.537          	0.113
MS.461         	8.52           	0.117
MS.462         	8.502          	0.111
MS.463         	8.485          	0.115
MS.464         	8.47           	0.115
MS.465         	8.452          	0.119
MS.466         	8.435          	0.111
MS.467         	8.417          	0.115
MS.468         	8.403          	0.121
MS.469         	8.385          	0.119
MS.470         	8.367          	0.107
MS.471         	8.352          	0.107
MS.472         	8.335          	0.119
MS.473         	8.318          	0.117
MS.474         	8.302          	0.115
MS.475         	8.285          	0.113
MS.476         	8.267          	0.109
MS.477         	8.252          	0.109
MS.478         	8.235          	0.109
MS.479         	8.22           	0.117
MS.480         	8.202          	0.107
MS.481         	8.185          	0.111
MS.482         	8.17           	0.107
MS.483         	8.153          	0.119
MS.484         	8.137          	0.113
MS.485         	8.12           	0.119
MS.486         	8.105          	0.117
MS.487         	8.087          	0.111
MS.488         	8.073          	0.119
MS.489         	8.055          	0.111
MS.490         	8.04           	0.115
MS.491         	8.025          	0.115
MS.492         	8.007          	0.117
MS.493         	7.992          	0.105
MS.494         	7.975          	0.109
MS.495         	7.96           	0.113
MS.496         	7.945          	0.115
MS.497         	7.927          	0.105
MS.498         	7.912          	0.117
