File:              	C:\Qtrac\Data\Daniel M Sørensen\MScan multicentre study\Data from centres\Toronto\Processed data\MSCC01113F.QZD
Name:              	CA.TOR.NC.5.1
Protocol:          	MSCAN-R2
Date:              	13/11/20
Start time:        	17:23:27
Age:               	53
Sex:               	M
Temperature:       	32
S/R sites:         	ADM
NC/disease:        	NC
Operator:          	LP
Comments:
M-SCAN DATA (5.5-1.5m)
Scanpts: 12, 17, 426, 448
Stim. (mA)     	Amp. (mV)
MS.1           	27.5           	9.543
MS.2           	27.5           	9.545
MS.3           	27.5           	9.551
MS.4           	27.5           	9.545
MS.5           	27.5           	9.535
MS.6           	27.5           	9.575
MS.7           	27.5           	9.622
MS.8           	27.5           	9.589
MS.9           	27.5           	9.626
MS.10          	27.5           	9.672
MS.11          	27.5           	9.626
MS.12          	27.5           	9.608
MS.13          	27.5           	9.63
MS.14          	27.5           	9.65
MS.15          	27.5           	9.579
MS.16          	27.5           	9.604
MS.17          	27.5           	9.614
MS.18          	27.5           	9.63
MS.19          	27.5           	9.553
MS.20          	27.5           	9.573
MS.21          	27.5           	9.66
MS.22          	27.5           	9.644
MS.23          	27.5           	9.638
MS.24          	27.39          	9.674
MS.25          	27.335         	9.606
MS.26          	27.28          	9.521
MS.27          	27.227         	9.597
MS.28          	27.172         	9.575
MS.29          	27.118         	9.591
MS.30          	27.062         	9.557
MS.31          	27.01          	9.569
MS.32          	26.955         	9.527
MS.33          	26.903         	9.551
MS.34          	26.847         	9.507
MS.35          	26.795         	9.531
MS.36          	26.74          	9.575
MS.37          	26.688         	9.555
MS.38          	26.635         	9.575
MS.39          	26.58          	9.626
MS.40          	26.528         	9.577
MS.41          	26.475         	9.408
MS.42          	26.422         	9.489
MS.43          	26.37          	9.527
MS.44          	26.315         	9.515
MS.45          	26.262         	9.456
MS.46          	26.21          	9.322
MS.47          	26.157         	9.485
MS.48          	26.108         	9.531
MS.49          	26.055         	9.338
MS.50          	26.002         	9.174
MS.51          	25.95          	9.358
MS.52          	25.897         	9.539
MS.53          	25.847         	9.493
MS.54          	25.795         	9.501
MS.55          	25.743         	9.392
MS.56          	25.692         	9.491
MS.57          	25.64          	9.358
MS.58          	25.59          	9.174
MS.59          	25.538         	9.13
MS.60          	25.487         	9.326
MS.61          	25.438         	9.138
MS.62          	25.385         	9.311
MS.63          	25.335         	9.456
MS.64          	25.285         	9.122
MS.65          	25.233         	9.044
MS.66          	25.182         	9.253
MS.67          	25.132         	8.965
MS.68          	25.082         	9.156
MS.69          	25.032         	9.223
MS.70          	24.983         	8.983
MS.71          	24.932         	8.959
MS.72          	24.882         	8.82
MS.73          	24.832         	8.848
MS.74          	24.782         	8.598
MS.75          	24.735         	8.594
MS.76          	24.685         	8.552
MS.77          	24.635         	8.373
MS.78          	24.585         	8.852
MS.79          	24.538         	8.363
MS.80          	24.487         	8.401
MS.81          	24.44          	8.532
MS.82          	24.39          	8.528
MS.83          	24.342         	8.133
MS.84          	24.292         	8.246
MS.85          	24.245         	8.375
MS.86          	24.195         	8.155
MS.87          	24.147         	8.081
MS.88          	24.1           	8.043
MS.89          	24.05          	8.099
MS.90          	24.002         	7.93
MS.91          	23.955         	8.256
MS.92          	23.907         	7.96
MS.93          	23.86          	7.918
MS.94          	23.812         	8.028
MS.95          	23.765         	7.988
MS.96          	23.717         	8.024
MS.97          	23.67          	7.974
MS.98          	23.622         	7.95
MS.99          	23.575         	7.859
MS.100         	23.528         	7.777
MS.101         	23.48          	7.632
MS.102         	23.435         	7.831
MS.103         	23.387         	7.746
MS.104         	23.34          	7.932
MS.105         	23.292         	7.74
MS.106         	23.247         	7.624
MS.107         	23.2           	7.618
MS.108         	23.155         	7.726
MS.109         	23.108         	7.674
MS.110         	23.062         	7.493
MS.111         	23.015         	7.519
MS.112         	22.97          	7.654
MS.113         	22.925         	7.612
MS.114         	22.877         	7.593
MS.115         	22.832         	7.456
MS.116         	22.788         	7.499
MS.117         	22.743         	7.456
MS.118         	22.695         	7.211
MS.119         	22.65          	7.344
MS.120         	22.605         	7.426
MS.121         	22.56          	7.303
MS.122         	22.515         	7.34
MS.123         	22.47          	7.223
MS.124         	22.425         	7.269
MS.125         	22.38          	7.305
MS.126         	22.335         	7.182
MS.127         	22.29          	7.221
MS.128         	22.247         	7.126
MS.129         	22.202         	7.189
MS.130         	22.157         	7.205
MS.131         	22.112         	7.16
MS.132         	22.07          	7.267
MS.133         	22.025         	7.223
MS.134         	21.98          	7.112
MS.135         	21.938         	7.118
MS.136         	21.892         	7.104
MS.137         	21.85          	7.042
MS.138         	21.805         	7.033
MS.139         	21.762         	7.048
MS.140         	21.72          	6.782
MS.141         	21.675         	7.388
MS.142         	21.632         	6.909
MS.143         	21.59          	6.886
MS.144         	21.545         	6.969
MS.145         	21.502         	6.981
MS.146         	21.46          	6.834
MS.147         	21.417         	6.733
MS.148         	21.375         	6.995
MS.149         	21.333         	6.917
MS.150         	21.29          	6.782
MS.151         	21.247         	6.61
MS.152         	21.205         	6.542
MS.153         	21.163         	6.854
MS.154         	21.12          	6.953
MS.155         	21.077         	6.516
MS.156         	21.035         	6.729
MS.157         	20.993         	6.818
MS.158         	20.95          	6.776
MS.159         	20.91          	6.554
MS.160         	20.868         	6.196
MS.161         	20.825         	6.478
MS.162         	20.785         	6.387
MS.163         	20.743         	6.198
MS.164         	20.7           	5.95
MS.165         	20.66          	6.053
MS.166         	20.618         	6.026
MS.167         	20.577         	5.859
MS.168         	20.535         	5.996
MS.169         	20.495         	5.763
MS.170         	20.455         	5.674
MS.171         	20.413         	5.758
MS.172         	20.372         	5.658
MS.173         	20.333         	5.863
MS.174         	20.29          	5.662
MS.175         	20.25          	5.497
MS.176         	20.21          	5.368
MS.177         	20.17          	5.299
MS.178         	20.13          	5.233
MS.179         	20.09          	5.573
MS.180         	20.05          	5.011
MS.181         	20.01          	5.126
MS.182         	19.97          	5.041
MS.183         	19.93          	5.096
MS.184         	19.89          	5.352
MS.185         	19.85          	5.08
MS.186         	19.81          	5.062
MS.187         	19.77          	4.985
MS.188         	19.73          	4.828
MS.189         	19.692         	4.816
MS.190         	19.653         	4.741
MS.191         	19.612         	4.23
MS.192         	19.573         	4.665
MS.193         	19.535         	4.643
MS.194         	19.495         	4.433
MS.195         	19.458         	4.5
MS.196         	19.417         	4.417
MS.197         	19.38          	4.159
MS.198         	19.34          	4.439
MS.199         	19.302         	4.195
MS.200         	19.262         	4.044
MS.201         	19.225         	4.087
MS.202         	19.185         	4.042
MS.203         	19.147         	3.994
MS.204         	19.11          	3.654
MS.205         	19.07          	3.704
MS.206         	19.032         	3.849
MS.207         	18.995         	3.881
MS.208         	18.958         	3.954
MS.209         	18.92          	3.646
MS.210         	18.882         	3.621
MS.211         	18.845         	3.333
MS.212         	18.805         	3.642
MS.213         	18.767         	3.402
MS.214         	18.73          	3.211
MS.215         	18.692         	3.339
MS.216         	18.657         	3.339
MS.217         	18.62          	3.277
MS.218         	18.583         	3.249
MS.219         	18.545         	3.245
MS.220         	18.507         	3.037
MS.221         	18.47          	3.239
MS.222         	18.432         	2.892
MS.223         	18.397         	2.898
MS.224         	18.36          	2.826
MS.225         	18.323         	2.79
MS.226         	18.288         	2.929
MS.227         	18.25          	2.846
MS.228         	18.215         	2.842
MS.229         	18.177         	2.87
MS.230         	18.14          	2.665
MS.231         	18.105         	2.715
MS.232         	18.067         	2.514
MS.233         	18.032         	2.355
MS.234         	17.997         	2.334
MS.235         	17.96          	2.568
MS.236         	17.925         	2.431
MS.237         	17.89          	2.355
MS.238         	17.852         	2.288
MS.239         	17.817         	2.26
MS.240         	17.782         	2.272
MS.241         	17.747         	2.083
MS.242         	17.71          	2.062
MS.243         	17.675         	2.093
MS.244         	17.64          	2.03
MS.245         	17.605         	1.968
MS.246         	17.57          	1.96
MS.247         	17.535         	2.01
MS.248         	17.5           	1.938
MS.249         	17.465         	1.831
MS.250         	17.43          	1.928
MS.251         	17.395         	1.829
MS.252         	17.36          	1.815
MS.253         	17.325         	1.815
MS.254         	17.29          	1.795
MS.255         	17.257         	1.774
MS.256         	17.222         	1.7
MS.257         	17.188         	1.781
MS.258         	17.153         	1.758
MS.259         	17.12          	1.742
MS.260         	17.085         	1.839
MS.261         	17.05          	1.619
MS.262         	17.017         	1.436
MS.263         	16.983         	1.621
MS.264         	16.948         	1.561
MS.265         	16.915         	1.585
MS.266         	16.88          	1.472
MS.267         	16.847         	1.364
MS.268         	16.812         	1.517
MS.269         	16.78          	1.233
MS.270         	16.747         	1.251
MS.271         	16.712         	1.166
MS.272         	16.68          	1.094
MS.273         	16.645         	1.019
MS.274         	16.612         	1.007
MS.275         	16.58          	1.251
MS.276         	16.547         	1.168
MS.277         	16.512         	1.019
MS.278         	16.48          	1.152
MS.279         	16.448         	0.89
MS.280         	16.415         	0.979
MS.281         	16.382         	0.92
MS.282         	16.35          	0.888
MS.283         	16.317         	1.124
MS.284         	16.285         	1.08
MS.285         	16.253         	0.848
MS.286         	16.22          	0.751
MS.287         	16.188         	0.888
MS.288         	16.155         	0.757
MS.289         	16.122         	0.693
MS.290         	16.09          	0.679
MS.291         	16.057         	0.697
MS.292         	16.025         	0.701
MS.293         	15.992         	0.753
MS.294         	15.962         	0.693
MS.295         	15.93          	0.634
MS.296         	15.898         	0.691
MS.297         	15.865         	0.663
MS.298         	15.835         	0.638
MS.299         	15.802         	0.61
MS.300         	15.77          	0.606
MS.301         	15.74          	0.57
MS.302         	15.707         	0.58
MS.303         	15.677         	0.604
MS.304         	15.645         	0.5
MS.305         	15.615         	0.61
MS.306         	15.582         	0.502
MS.307         	15.552         	0.526
MS.308         	15.52          	0.524
MS.309         	15.49          	0.574
MS.310         	15.46          	0.506
MS.311         	15.427         	0.463
MS.312         	15.398         	0.534
MS.313         	15.367         	0.483
MS.314         	15.335         	0.514
MS.315         	15.305         	0.447
MS.316         	15.275         	0.433
MS.317         	15.245         	0.383
MS.318         	15.212         	0.377
MS.319         	15.182         	0.421
MS.320         	15.152         	0.465
MS.321         	15.122         	0.389
MS.322         	15.092         	0.407
MS.323         	15.062         	0.385
MS.324         	15.032         	0.425
MS.325         	15.002         	0.361
MS.326         	14.972         	0.373
MS.327         	14.943         	0.367
MS.328         	14.912         	0.314
MS.329         	14.882         	0.338
MS.330         	14.852         	0.393
MS.331         	14.822         	0.27
MS.332         	14.792         	0.306
MS.333         	14.765         	0.324
MS.334         	14.735         	0.375
MS.335         	14.705         	0.266
MS.336         	14.675         	0.226
MS.337         	14.645         	0.183
MS.338         	14.617         	0.298
MS.339         	14.587         	0.284
MS.340         	14.557         	0.278
MS.341         	14.53          	0.189
MS.342         	14.5           	0.286
MS.343         	14.472         	0.185
MS.344         	14.443         	0.228
MS.345         	14.412         	0.214
MS.346         	14.385         	0.218
MS.347         	14.355         	0.214
MS.348         	14.327         	0.177
MS.349         	14.3           	0.232
MS.350         	14.27          	0.167
MS.351         	14.242         	0.216
MS.352         	14.212         	0.187
MS.353         	14.185         	0.159
MS.354         	14.157         	0.175
MS.355         	14.127         	0.115
MS.356         	14.1           	0.155
MS.357         	14.072         	0.171
MS.358         	14.045         	0.157
MS.359         	14.015         	0.177
MS.360         	13.987         	0.141
MS.361         	13.96          	0.173
MS.362         	13.932         	0.129
MS.363         	13.905         	0.147
MS.364         	13.877         	0.157
MS.365         	13.847         	0.161
MS.366         	13.82          	0.177
MS.367         	13.792         	0.139
MS.368         	13.765         	0.145
MS.369         	13.737         	0.141
MS.370         	13.71          	0.141
MS.371         	13.682         	0.099
MS.372         	13.655         	0.139
MS.373         	13.63          	0.127
MS.374         	13.602         	0.139
MS.375         	13.575         	0.137
MS.376         	13.547         	0.135
MS.377         	13.52          	0.095
MS.378         	13.492         	0.113
MS.379         	13.465         	0.129
MS.380         	13.44          	0.121
MS.381         	13.412         	0.075
MS.382         	13.385         	0.064
MS.383         	13.36          	0.087
MS.384         	13.332         	0.107
MS.385         	13.305         	0.05
MS.386         	13.28          	0.066
MS.387         	13.252         	0.085
MS.388         	13.225         	0.07
MS.389         	13.2           	0.121
MS.390         	13.172         	0.099
MS.391         	13.148         	0.058
MS.392         	13.12          	0.073
MS.393         	13.095         	0.058
MS.394         	13.068         	0.111
MS.395         	13.042         	0.085
MS.396         	13.015         	0.06
MS.397         	12.99          	0.06
MS.398         	12.965         	0.032
MS.399         	12.938         	0.066
MS.400         	12.912         	0.036
MS.401         	12.887         	0.046
MS.402         	12.86          	0.052
MS.403         	12.835         	0.004
MS.404         	12.81          	0.058
MS.405         	12.785         	0.052
MS.406         	12.757         	0.048
MS.407         	12.733         	0.012
MS.408         	12.707         	0.022
MS.409         	12.682         	0.062
MS.410         	12.657         	0.06
MS.411         	12.632         	0.006
MS.412         	12.605         	0.006
MS.413         	12.58          	0.022
MS.414         	12.555         	0.012
MS.415         	12.53          	0.006
MS.416         	12.505         	0.01
MS.417         	12.48          	0.006
MS.418         	12.455         	0.004
MS.419         	12.43          	0.006
MS.420         	12.405         	0.008
MS.421         	12.38          	0.006
MS.422         	12.358         	0.000
MS.423         	12.332         	0.002
MS.424         	12.307         	0.006
MS.425         	12.282         	0.004
MS.426         	12.257         	0.006
MS.427         	12.233         	0.01
MS.428         	12.21          	0.006
MS.429         	12.185         	0.008
MS.430         	12.16          	0.006
MS.431         	12.135         	0.012
MS.432         	12.113         	0.006
MS.433         	12.087         	0.008
MS.434         	12.062         	0.008
MS.435         	12.04          	0.008
MS.436         	12.015         	0.004
MS.437         	11.992         	0.004
MS.438         	11.967         	0.008
MS.439         	11.943         	0.008
MS.440         	11.92          	0.008
MS.441         	11.895         	0.004
MS.442         	11.872         	0.008
MS.443         	11.847         	0.004
MS.444         	11.825         	0.006
MS.445         	11.8           	0.000
MS.446         	11.778         	0.002
MS.447         	11.755         	0.01
MS.448         	11.73          	0.012
DERIVED EXCITABILITY VARIABLES
Program = QTracP 3/4/2020
Threshold method = 6 (optimised for CAP, using data for present condition only)
SR method = 1 (using actual data values)
6.                 	0.000               	Peak response\(mV)
9.                 	32                  	Temperature ( C)
17.                	53                  	Age (years)
18.                	1                   	Sex (M=1, F=2)

EXTRA VARIABLES

MScPeak(mV) = 9.59
MScS5(mA) = 15.39
MScS50(mA) = 19.68
MScS95(mA) = 25.15
MScNSteps = 2
MScSteps(%) = 4.6
MScStepMax(%) = 2.3
MScD50 = 47
MScSlope = 4.8
MSFPeakAmp(mV) = 9.61
MSFNUnits = 151
MSFMeanUnitAmp(uV) = 63.6
MSFHuntTime(m) = 3.18
MSFError(%) = 3.71
MSFNLarge = 41.4
MSFMedianAmp(%) = 0.509
MSFMedianAmp(mV) = 0.0489
MSFHalfAmpAmp(%) = 0.767
MSFHalfAmpAmp(mV) = 0.0737
MSFLargestAmp(%) = 2.45
MSFLargestAmp(mV) = 0.236
MSFMeanRS(%) = 2
MSFOpts = 10106121
MScDuration(min) = 4
MSFTraces = 437
MSFSizeLimit(uV) = 24
MSFLimitType = 1
MSFSmallestAmp(uV) = 24.5

EXTRA WAVEFORMS


!MScan Model
!151
	1	12.84	0.44	2
	2	13.3	0.33	2
	3	13.53	0.51	2
	4	14.23	0.56	2
	5	14.35	0.27	2
	6	14.58	0.45	2
	7	14.73	0.39	2
	8	14.81	0.3	2
	9	14.94	0.45	2
	10	15.17	0.56	2
	11	15.24	0.27	2
	12	15.4	0.49	2
	13	15.54	0.62	2
	14	15.75	0.67	2
	15	15.86	0.43	2
	16	15.93	0.28	2
	17	16	0.29	2
	18	16.06	0.29	2
	19	16.13	0.48	2
	20	16.19	0.64	2
	21	16.44	1.89	2
	22	16.61	1.32	2
	23	16.67	0.46	2
	24	16.7	0.26	2
	25	16.73	0.26	2
	26	16.76	0.26	2
	27	16.78	0.3	2
	28	16.81	0.46	2
	29	16.84	0.46	2
	30	16.9	1.01	2
	31	16.97	1.05	2
	32	17.05	0.87	2
	33	17.15	0.43	2
	34	17.2	0.45	2
	35	17.26	0.45	2
	36	17.34	0.53	2
	37	17.45	0.58	2
	38	17.49	0.27	2
	39	17.53	0.29	2
	40	17.56	0.26	2
	41	17.6	0.45	2
	42	17.65	0.47	2
	43	17.7	0.54	2
	44	17.74	0.51	2
	45	17.79	0.51	2
	46	17.83	0.51	2
	47	17.88	0.51	2
	48	17.91	0.39	2
	49	17.94	0.47	2
	50	17.97	0.56	2
	51	18	0.53	2
	52	18.03	0.49	2
	53	18.1	0.99	2
	54	18.16	0.59	2
	55	18.22	0.65	2
	56	18.27	0.52	2
	57	18.31	0.52	2
