File:              	C:\Qtrac\Data\Daniel M Sørensen\MScan multicentre study\Data from centres\Toronto\Processed data\MSCC01113G.QZD
Name:              	CA.TOR.NC.5.1
Protocol:          	MSCAN-R2
Date:              	13/11/20
Start time:        	17:49:23
Age:               	53
Sex:               	M
Temperature:       	31.3
S/R sites:         	TA
NC/disease:        	NC
Operator:          	LP
Comments:
M-SCAN DATA (8.7-2m)
Scanpts: 15, 25, 678, 690
Stim. (mA)     	Amp. (mV)
MS.1           	41             	7.968
MS.2           	41             	8.081
MS.3           	41             	7.97
MS.4           	41             	7.851
MS.5           	41             	7.811
MS.6           	41             	7.807
MS.7           	41             	7.835
MS.8           	41             	7.849
MS.9           	41             	7.887
MS.10          	41             	7.859
MS.11          	41             	7.736
MS.12          	41             	7.825
MS.13          	41             	7.823
MS.14          	41             	7.797
MS.15          	41             	7.748
MS.16          	41             	7.835
MS.17          	41             	7.829
MS.18          	41             	7.789
MS.19          	41             	7.791
MS.20          	41             	7.736
MS.21          	41             	7.797
MS.22          	41             	7.775
MS.23          	41             	7.726
MS.24          	40.835         	7.672
MS.25          	40.755         	7.755
MS.26          	40.673         	7.748
MS.27          	40.592         	7.698
MS.28          	40.51          	7.761
MS.29          	40.43          	7.694
MS.30          	40.35          	7.7
MS.31          	40.267         	7.674
MS.32          	40.188         	7.676
MS.33          	40.107         	7.662
MS.34          	40.028         	7.692
MS.35          	39.947         	7.638
MS.36          	39.868         	7.68
MS.37          	39.787         	7.654
MS.38          	39.708         	7.648
MS.39          	39.63          	7.678
MS.40          	39.55          	7.688
MS.41          	39.47          	7.67
MS.42          	39.392         	7.672
MS.43          	39.312         	7.658
MS.44          	39.235         	7.626
MS.45          	39.157         	7.632
MS.46          	39.077         	7.634
MS.47          	39             	7.666
MS.48          	38.923         	7.666
MS.49          	38.845         	7.65
MS.50          	38.767         	7.638
MS.51          	38.69          	7.652
MS.52          	38.612         	7.62
MS.53          	38.535         	7.616
MS.54          	38.458         	7.607
MS.55          	38.38          	7.593
MS.56          	38.305         	7.634
MS.57          	38.228         	7.616
MS.58          	38.153         	7.589
MS.59          	38.075         	7.573
MS.60          	38             	7.612
MS.61          	37.923         	7.557
MS.62          	37.847         	7.587
MS.63          	37.772         	7.571
MS.64          	37.697         	7.672
MS.65          	37.62          	7.587
MS.66          	37.545         	7.557
MS.67          	37.47          	7.557
MS.68          	37.395         	7.616
MS.69          	37.322         	7.543
MS.70          	37.247         	7.597
MS.71          	37.173         	7.535
MS.72          	37.097         	7.561
MS.73          	37.025         	7.565
MS.74          	36.95          	7.519
MS.75          	36.875         	7.495
MS.76          	36.802         	7.491
MS.77          	36.73          	7.519
MS.78          	36.655         	7.561
MS.79          	36.583         	7.517
MS.80          	36.51          	7.473
MS.81          	36.438         	7.539
MS.82          	36.362         	7.489
MS.83          	36.29          	7.471
MS.84          	36.217         	7.505
MS.85          	36.145         	7.42
MS.86          	36.075         	7.42
MS.87          	36.002         	7.46
MS.88          	35.93          	7.46
MS.89          	35.857         	7.398
MS.90          	35.787         	7.332
MS.91          	35.715         	7.408
MS.92          	35.642         	7.344
MS.93          	35.572         	7.344
MS.94          	35.5           	7.37
MS.95          	35.43          	7.33
MS.96          	35.36          	7.398
MS.97          	35.29          	7.305
MS.98          	35.217         	7.319
MS.99          	35.147         	7.299
MS.100         	35.077         	7.283
MS.101         	35.007         	7.281
MS.102         	34.938         	7.299
MS.103         	34.868         	7.279
MS.104         	34.798         	7.283
MS.105         	34.73          	7.213
MS.106         	34.66          	7.299
MS.107         	34.59          	7.235
MS.108         	34.52          	7.253
MS.109         	34.452         	7.225
MS.110         	34.382         	7.251
MS.111         	34.315         	7.227
MS.112         	34.245         	7.255
MS.113         	34.177         	7.195
MS.114         	34.11          	7.225
MS.115         	34.04          	7.17
MS.116         	33.972         	7.197
MS.117         	33.905         	7.189
MS.118         	33.837         	7.207
MS.119         	33.77          	7.223
MS.120         	33.702         	7.191
MS.121         	33.635         	7.18
MS.122         	33.568         	7.213
MS.123         	33.5           	7.138
MS.124         	33.435         	7.156
MS.125         	33.368         	7.122
MS.126         	33.3           	7.158
MS.127         	33.235         	7.144
MS.128         	33.167         	7.118
MS.129         	33.1           	7.203
MS.130         	33.035         	7.128
MS.131         	32.97          	7.205
MS.132         	32.903         	7.138
MS.133         	32.837         	7.072
MS.134         	32.772         	7.068
MS.135         	32.708         	7.14
MS.136         	32.64          	7.134
MS.137         	32.575         	7.16
MS.138         	32.51          	7.162
MS.139         	32.445         	7.118
MS.140         	32.38          	7.078
MS.141         	32.315         	7.106
MS.142         	32.252         	7.078
MS.143         	32.188         	7.037
MS.144         	32.122         	7.078
MS.145         	32.057         	7.033
MS.146         	31.995         	7.031
MS.147         	31.93          	7.229
MS.148         	31.867         	7.08
MS.149         	31.802         	7.13
MS.150         	31.74          	6.983
MS.151         	31.677         	7.003
MS.152         	31.612         	7.019
MS.153         	31.55          	7.074
MS.154         	31.487         	7.138
MS.155         	31.425         	6.981
MS.156         	31.36          	7.122
MS.157         	31.297         	7.082
MS.158         	31.235         	6.965
MS.159         	31.172         	7.096
MS.160         	31.11          	6.977
MS.161         	31.05          	7.058
MS.162         	30.987         	7.023
MS.163         	30.925         	6.929
MS.164         	30.862         	7.068
MS.165         	30.802         	7.06
MS.166         	30.74          	7.052
MS.167         	30.677         	7.06
MS.168         	30.617         	7.009
MS.169         	30.555         	7.013
MS.170         	30.495         	6.985
MS.171         	30.435         	6.913
MS.172         	30.372         	7.013
MS.173         	30.312         	7.023
MS.174         	30.252         	7.054
MS.175         	30.192         	7.005
MS.176         	30.132         	7.011
MS.177         	30.07          	6.991
MS.178         	30.01          	7.001
MS.179         	29.95          	7.013
MS.180         	29.892         	6.963
MS.181         	29.832         	7.019
MS.182         	29.772         	6.963
MS.183         	29.712         	6.921
MS.184         	29.653         	6.965
MS.185         	29.595         	6.919
MS.186         	29.535         	6.973
MS.187         	29.475         	6.957
MS.188         	29.417         	6.963
MS.189         	29.358         	6.915
MS.190         	29.3           	6.866
MS.191         	29.24          	6.872
MS.192         	29.182         	6.945
MS.193         	29.125         	6.905
MS.194         	29.065         	6.866
MS.195         	29.007         	6.86
MS.196         	28.95          	6.872
MS.197         	28.892         	6.866
MS.198         	28.835         	6.832
MS.199         	28.778         	6.903
MS.200         	28.72          	6.834
MS.201         	28.662         	6.854
MS.202         	28.605         	6.836
MS.203         	28.547         	6.812
MS.204         	28.49          	6.86
MS.205         	28.432         	6.898
MS.206         	28.377         	6.772
MS.207         	28.32          	6.788
MS.208         	28.262         	6.729
MS.209         	28.207         	6.723
MS.210         	28.15          	6.667
MS.211         	28.095         	6.737
MS.212         	28.037         	6.695
MS.213         	27.983         	6.663
MS.214         	27.927         	6.764
MS.215         	27.87          	6.735
MS.216         	27.815         	6.649
MS.217         	27.76          	6.691
MS.218         	27.705         	6.606
MS.219         	27.647         	6.641
MS.220         	27.592         	6.667
MS.221         	27.537         	6.588
MS.222         	27.483         	6.623
MS.223         	27.427         	6.552
MS.224         	27.372         	6.542
MS.225         	27.317         	6.615
MS.226         	27.265         	6.536
MS.227         	27.21          	6.556
MS.228         	27.155         	6.536
MS.229         	27.1           	6.526
MS.230         	27.047         	6.474
MS.231         	26.993         	6.564
MS.232         	26.94          	6.445
MS.233         	26.885         	6.467
MS.234         	26.832         	6.457
MS.235         	26.778         	6.469
MS.236         	26.725         	6.415
MS.237         	26.67          	6.492
MS.238         	26.618         	6.492
MS.239         	26.565         	6.365
MS.240         	26.51          	6.453
MS.241         	26.457         	6.331
MS.242         	26.405         	6.399
MS.243         	26.352         	6.331
MS.244         	26.3           	6.324
MS.245         	26.247         	6.343
MS.246         	26.195         	6.314
MS.247         	26.142         	6.232
MS.248         	26.09          	6.192
MS.249         	26.037         	6.296
MS.250         	25.987         	6.254
MS.251         	25.935         	6.224
MS.252         	25.882         	6.175
MS.253         	25.83          	6.288
MS.254         	25.78          	6.238
MS.255         	25.727         	6.151
MS.256         	25.677         	6.145
MS.257         	25.625         	6.105
MS.258         	25.575         	6.192
MS.259         	25.522         	6.163
MS.260         	25.472         	6.059
MS.261         	25.42          	6.214
MS.262         	25.37          	6.123
MS.263         	25.32          	6.192
MS.264         	25.267         	6.075
MS.265         	25.217         	6.089
MS.266         	25.167         	6.081
MS.267         	25.118         	6.061
MS.268         	25.067         	6.083
MS.269         	25.017         	6.04
MS.270         	24.967         	5.96
MS.271         	24.917         	5.992
MS.272         	24.868         	6.004
MS.273         	24.817         	5.982
MS.274         	24.767         	5.968
MS.275         	24.72          	6.01
MS.276         	24.67          	5.994
MS.277         	24.62          	5.988
MS.278         	24.57          	5.968
MS.279         	24.522         	6.024
MS.280         	24.472         	5.942
MS.281         	24.425         	5.984
MS.282         	24.375         	5.887
MS.283         	24.327         	5.859
MS.284         	24.278         	5.95
MS.285         	24.23          	5.821
MS.286         	24.18          	5.849
MS.287         	24.132         	5.96
MS.288         	24.085         	5.914
MS.289         	24.038         	5.859
MS.290         	23.987         	5.906
MS.291         	23.94          	5.817
MS.292         	23.892         	5.791
MS.293         	23.845         	5.76
MS.294         	23.797         	5.815
MS.295         	23.75          	5.724
MS.296         	23.702         	5.799
MS.297         	23.655         	5.698
MS.298         	23.608         	5.779
MS.299         	23.56          	5.72
MS.300         	23.512         	5.7
MS.301         	23.467         	5.694
MS.302         	23.42          	5.714
MS.303         	23.372         	5.68
MS.304         	23.325         	5.718
MS.305         	23.28          	5.668
MS.306         	23.233         	5.702
MS.307         	23.188         	5.714
MS.308         	23.14          	5.65
MS.309         	23.095         	5.624
MS.310         	23.047         	5.581
MS.311         	23.002         	5.68
MS.312         	22.955         	5.634
MS.313         	22.91          	5.642
MS.314         	22.865         	5.583
MS.315         	22.817         	5.557
MS.316         	22.772         	5.634
MS.317         	22.727         	5.565
MS.318         	22.682         	5.523
MS.319         	22.637         	5.535
MS.320         	22.592         	5.503
MS.321         	22.545         	5.511
MS.322         	22.5           	5.462
MS.323         	22.455         	5.452
MS.324         	22.413         	5.432
MS.325         	22.368         	5.444
MS.326         	22.323         	5.364
MS.327         	22.278         	5.267
MS.328         	22.233         	5.4
MS.329         	22.188         	5.37
MS.330         	22.145         	5.438
MS.331         	22.1           	5.323
MS.332         	22.055         	5.362
MS.333         	22.012         	5.414
MS.334         	21.967         	5.41
MS.335         	21.922         	5.39
MS.336         	21.88          	5.325
MS.337         	21.835         	5.295
MS.338         	21.792         	5.338
MS.339         	21.75          	5.362
MS.340         	21.705         	5.378
MS.341         	21.663         	5.352
MS.342         	21.62          	5.317
MS.343         	21.575         	5.233
MS.344         	21.532         	5.323
MS.345         	21.49          	5.321
MS.346         	21.448         	5.338
MS.347         	21.405         	5.253
MS.348         	21.36          	5.291
MS.349         	21.317         	5.303
MS.350         	21.275         	5.301
MS.351         	21.233         	5.251
MS.352         	21.19          	5.049
MS.353         	21.147         	5.172
MS.354         	21.105         	5.136
MS.355         	21.065         	5.178
MS.356         	21.022         	5.023
MS.357         	20.98          	5.015
MS.358         	20.938         	4.856
MS.359         	20.895         	5.023
MS.360         	20.855         	4.995
MS.361         	20.812         	4.929
MS.362         	20.77          	4.816
MS.363         	20.73          	4.753
MS.364         	20.688         	4.786
MS.365         	20.647         	4.727
MS.366         	20.605         	4.882
MS.367         	20.565         	4.776
MS.368         	20.522         	4.667
MS.369         	20.483         	4.647
MS.370         	20.442         	4.695
MS.371         	20.4           	4.586
MS.372         	20.36          	4.598
MS.373         	20.32          	4.558
MS.374         	20.278         	4.625
MS.375         	20.237         	4.52
MS.376         	20.198         	4.562
MS.377         	20.157         	4.494
MS.378         	20.118         	4.33
MS.379         	20.077         	4.425
MS.380         	20.038         	4.429
MS.381         	19.997         	4.343
MS.382         	19.958         	4.145
MS.383         	19.917         	4.308
MS.384         	19.877         	4.306
MS.385         	19.837         	4.256
MS.386         	19.797         	4.183
MS.387         	19.757         	4.099
MS.388         	19.717         	4.052
MS.389         	19.68          	4.083
MS.390         	19.64          	4.103
MS.391         	19.6           	4.038
MS.392         	19.562         	4.022
MS.393         	19.522         	3.936
MS.394         	19.483         	3.887
MS.395         	19.445         	3.958
MS.396         	19.405         	3.885
MS.397         	19.368         	3.716
MS.398         	19.327         	3.869
MS.399         	19.29          	3.762
MS.400         	19.25          	3.73
MS.401         	19.212         	3.694
MS.402         	19.175         	3.551
MS.403         	19.135         	3.668
MS.404         	19.097         	3.569
MS.405         	19.06          	3.605
MS.406         	19.022         	3.549
MS.407         	18.983         	3.557
MS.408         	18.945         	3.382
MS.409         	18.907         	3.388
MS.410         	18.87          	3.416
MS.411         	18.833         	3.527
MS.412         	18.795         	3.47
MS.413         	18.757         	3.416
MS.414         	18.72          	3.456
MS.415         	18.682         	3.247
MS.416         	18.645         	3.249
MS.417         	18.608         	3.299
MS.418         	18.57          	3.36
MS.419         	18.532         	3.198
MS.420         	18.497         	3.086
MS.421         	18.46          	3.283
MS.422         	18.422         	3.011
MS.423         	18.385         	3.134
MS.424         	18.35          	2.965
MS.425         	18.312         	3.003
MS.426         	18.275         	3.009
MS.427         	18.24          	3.009
MS.428         	18.202         	2.949
MS.429         	18.167         	2.943
MS.430         	18.13          	2.906
MS.431         	18.095         	2.898
MS.432         	18.057         	2.983
MS.433         	18.022         	2.846
MS.434         	17.985         	2.965
MS.435         	17.95          	2.773
MS.436         	17.913         	2.816
MS.437         	17.878         	2.659
MS.438         	17.842         	2.598
MS.439         	17.807         	2.562
MS.440         	17.77          	2.681
MS.441         	17.735         	2.649
MS.442         	17.7           	2.701
MS.443         	17.665         	2.516
MS.444         	17.63          	2.455
MS.445         	17.595         	2.542
MS.446         	17.56          	2.443
MS.447         	17.525         	2.433
MS.448         	17.49          	2.401
MS.449         	17.455         	2.367
MS.450         	17.42          	2.415
MS.451         	17.385         	2.504
MS.452         	17.35          	2.361
MS.453         	17.315         	2.351
MS.454         	17.28          	2.375
MS.455         	17.245         	2.266
MS.456         	17.212         	2.27
MS.457         	17.177         	2.302
MS.458         	17.142         	2.278
MS.459         	17.108         	2.252
MS.460         	17.075         	2.097
MS.461         	17.04          	2.201
MS.462         	17.005         	2.218
MS.463         	16.972         	2.085
MS.464         	16.938         	2.056
MS.465         	16.905         	2.071
MS.466         	16.87          	2.034
MS.467         	16.837         	2.038
MS.468         	16.802         	2.042
MS.469         	16.77          	1.913
MS.470         	16.735         	2.024
MS.471         	16.702         	1.946
MS.472         	16.67          	1.976
MS.473         	16.635         	1.897
MS.474         	16.602         	1.849
MS.475         	16.57          	1.813
MS.476         	16.538         	1.903
MS.477         	16.503         	1.901
MS.478         	16.47          	1.811
MS.479         	16.438         	1.819
MS.480         	16.405         	1.797
MS.481         	16.372         	1.768
MS.482         	16.34          	1.867
MS.483         	16.307         	1.654
MS.484         	16.275         	1.71
MS.485         	16.243         	1.781
MS.486         	16.21          	1.652
MS.487         	16.177         	1.766
MS.488         	16.145         	1.702
MS.489         	16.112         	1.565
MS.490         	16.08          	1.577
MS.491         	16.047         	1.644
MS.492         	16.015         	1.609
MS.493         	15.983         	1.591
MS.494         	15.952         	1.579
MS.495         	15.92          	1.593
MS.496         	15.887         	1.579
MS.497         	15.858         	1.486
MS.498         	15.825         	1.527
MS.499         	15.792         	1.476
MS.500         	15.762         	1.541
MS.501         	15.73          	1.672
