File:              	C:\Qtrac\Data\Daniel M Sørensen\MScan multicentre study\Data from centres\Toronto\Processed data\MSCC01209I.QZD
Name:              	CA.TOR.NC.10.1
Protocol:          	MSCAN-R2
Date:              	9/12/20
Start time:        	15:23:27
Age:               	49
Sex:               	M
Temperature:       	30.1
S/R sites:         	TA
NC/disease:        	NC
Operator:          	LP
Comments:          	MFF60ON
M-SCAN DATA (8.7-2.3m)
Scanpts: 10, 24, 583, 623
Stim. (mA)     	Amp. (mV)
MS.1           	22             	4.64
MS.2           	22             	4.625
MS.3           	22             	4.645
MS.4           	22             	4.615
MS.5           	22             	4.614
MS.6           	22             	4.576
MS.7           	22             	4.586
MS.8           	22             	4.615
MS.9           	22             	4.607
MS.10          	22             	4.603
MS.11          	22             	4.647
MS.12          	22             	4.614
MS.13          	22             	4.584
MS.14          	22             	4.624
MS.15          	22             	4.613
MS.16          	22             	4.608
MS.17          	22             	4.612
MS.18          	22             	4.589
MS.19          	22             	4.585
MS.20          	22             	4.62
MS.21          	22             	4.592
MS.22          	22             	4.607
MS.23          	22             	4.607
MS.24          	21.913         	4.602
MS.25          	21.868         	4.617
MS.26          	21.825         	4.604
MS.27          	21.78          	4.602
MS.28          	21.737         	4.62
MS.29          	21.695         	4.591
MS.30          	21.65          	4.583
MS.31          	21.608         	4.579
MS.32          	21.565         	4.656
MS.33          	21.52          	4.631
MS.34          	21.477         	4.59
MS.35          	21.435         	4.623
MS.36          	21.392         	4.592
MS.37          	21.35          	4.567
MS.38          	21.307         	4.628
MS.39          	21.265         	4.601
MS.40          	21.222         	4.583
MS.41          	21.18          	4.65
MS.42          	21.137         	4.601
MS.43          	21.095         	4.64
MS.44          	21.052         	4.614
MS.45          	21.01          	4.607
MS.46          	20.97          	4.639
MS.47          	20.927         	4.597
MS.48          	20.885         	4.65
MS.49          	20.842         	4.503
MS.50          	20.802         	4.537
MS.51          	20.76          	4.583
MS.52          	20.717         	4.519
MS.53          	20.677         	4.524
MS.54          	20.635         	4.512
MS.55          	20.595         	4.529
MS.56          	20.552         	4.518
MS.57          	20.512         	4.531
MS.58          	20.472         	4.506
MS.59          	20.43          	4.541
MS.60          	20.39          	4.525
MS.61          	20.35          	4.644
MS.62          	20.307         	4.513
MS.63          	20.267         	4.524
MS.64          	20.227         	4.572
MS.65          	20.188         	4.526
MS.66          	20.147         	4.554
MS.67          	20.108         	4.509
MS.68          	20.065         	4.536
MS.69          	20.025         	4.554
MS.70          	19.985         	4.568
MS.71          	19.945         	4.54
MS.72          	19.907         	4.576
MS.73          	19.868         	4.586
MS.74          	19.827         	4.561
MS.75          	19.788         	4.523
MS.76          	19.747         	4.58
MS.77          	19.708         	4.583
MS.78          	19.67          	4.584
MS.79          	19.63          	4.591
MS.80          	19.59          	4.578
MS.81          	19.55          	4.587
MS.82          	19.512         	4.594
MS.83          	19.472         	4.578
MS.84          	19.435         	4.551
MS.85          	19.395         	4.572
MS.86          	19.358         	4.59
MS.87          	19.317         	4.556
MS.88          	19.28          	4.559
MS.89          	19.24          	4.574
MS.90          	19.202         	4.563
MS.91          	19.165         	4.486
MS.92          	19.125         	4.521
MS.93          	19.087         	4.531
MS.94          	19.05          	4.547
MS.95          	19.012         	4.52
MS.96          	18.972         	4.525
MS.97          	18.935         	4.596
MS.98          	18.897         	4.518
MS.99          	18.86          	4.52
MS.100         	18.823         	4.504
MS.101         	18.785         	4.517
MS.102         	18.747         	4.572
MS.103         	18.71          	4.554
MS.104         	18.672         	4.595
MS.105         	18.635         	4.534
MS.106         	18.597         	4.554
MS.107         	18.56          	4.508
MS.108         	18.522         	4.569
MS.109         	18.487         	4.532
MS.110         	18.45          	4.526
MS.111         	18.413         	4.539
MS.112         	18.375         	4.569
MS.113         	18.34          	4.474
MS.114         	18.302         	4.447
MS.115         	18.265         	4.502
MS.116         	18.23          	4.424
MS.117         	18.192         	4.391
MS.118         	18.157         	4.504
MS.119         	18.12          	4.485
MS.120         	18.085         	4.432
MS.121         	18.047         	4.429
MS.122         	18.012         	4.448
MS.123         	17.975         	4.447
MS.124         	17.94          	4.443
MS.125         	17.905         	4.506
MS.126         	17.868         	4.478
MS.127         	17.833         	4.429
MS.128         	17.797         	4.493
MS.129         	17.762         	4.417
MS.130         	17.725         	4.388
MS.131         	17.69          	4.419
MS.132         	17.655         	4.44
MS.133         	17.62          	4.419
MS.134         	17.585         	4.468
MS.135         	17.55          	4.421
MS.136         	17.515         	4.448
MS.137         	17.48          	4.453
MS.138         	17.445         	4.425
MS.139         	17.41          	4.484
MS.140         	17.375         	4.445
MS.141         	17.34          	4.438
MS.142         	17.305         	4.462
MS.143         	17.27          	4.459
MS.144         	17.237         	4.446
MS.145         	17.202         	4.432
MS.146         	17.167         	4.451
MS.147         	17.132         	4.432
MS.148         	17.1           	4.431
MS.149         	17.065         	4.438
MS.150         	17.03          	4.451
MS.151         	16.997         	4.437
MS.152         	16.962         	4.436
MS.153         	16.93          	4.414
MS.154         	16.895         	4.445
MS.155         	16.862         	4.423
MS.156         	16.827         	4.413
MS.157         	16.795         	4.492
MS.158         	16.76          	4.449
MS.159         	16.727         	4.53
MS.160         	16.695         	4.485
MS.161         	16.66          	4.402
MS.162         	16.628         	4.431
MS.163         	16.595         	4.47
MS.164         	16.56          	4.49
MS.165         	16.528         	4.403
MS.166         	16.495         	4.398
MS.167         	16.462         	4.363
MS.168         	16.43          	4.386
MS.169         	16.395         	4.343
MS.170         	16.362         	4.403
MS.171         	16.33          	4.319
MS.172         	16.297         	4.392
MS.173         	16.265         	4.418
MS.174         	16.233         	4.369
MS.175         	16.2           	4.346
MS.176         	16.167         	4.183
MS.177         	16.135         	4.369
MS.178         	16.102         	4.414
MS.179         	16.073         	4.36
MS.180         	16.04          	4.343
MS.181         	16.007         	4.355
MS.182         	15.975         	4.252
MS.183         	15.943         	4.243
MS.184         	15.912         	4.343
MS.185         	15.88          	4.343
MS.186         	15.847         	4.247
MS.187         	15.818         	4.29
MS.188         	15.785         	4.286
MS.189         	15.752         	4.209
MS.190         	15.722         	4.166
MS.191         	15.69          	4.242
MS.192         	15.66          	4.178
MS.193         	15.627         	4.048
MS.194         	15.597         	4.181
MS.195         	15.565         	4.064
MS.196         	15.535         	4.108
MS.197         	15.502         	4.12
MS.198         	15.472         	3.997
MS.199         	15.44          	4
MS.200         	15.41          	4.015
MS.201         	15.38          	3.949
MS.202         	15.35          	4.25
MS.203         	15.318         	4.102
MS.204         	15.287         	3.966
MS.205         	15.257         	3.939
MS.206         	15.227         	3.939
MS.207         	15.195         	3.925
MS.208         	15.165         	3.92
MS.209         	15.135         	3.944
MS.210         	15.105         	3.929
MS.211         	15.075         	3.953
MS.212         	15.045         	3.927
MS.213         	15.015         	3.92
MS.214         	14.985         	3.916
MS.215         	14.955         	3.865
MS.216         	14.925         	3.86
MS.217         	14.895         	3.79
MS.218         	14.865         	3.855
MS.219         	14.835         	3.84
MS.220         	14.805         	3.75
MS.221         	14.777         	3.824
MS.222         	14.747         	3.805
MS.223         	14.717         	3.779
MS.224         	14.688         	3.79
MS.225         	14.66          	3.783
MS.226         	14.63          	3.733
MS.227         	14.6           	3.756
MS.228         	14.57          	3.772
MS.229         	14.542         	3.717
MS.230         	14.512         	3.745
MS.231         	14.485         	3.782
MS.232         	14.455         	3.696
MS.233         	14.425         	3.658
MS.234         	14.398         	3.708
MS.235         	14.367         	3.644
MS.236         	14.34          	3.719
MS.237         	14.31          	3.662
MS.238         	14.282         	3.575
MS.239         	14.255         	3.671
MS.240         	14.225         	3.618
MS.241         	14.197         	3.735
MS.242         	14.167         	3.55
MS.243         	14.14          	3.539
MS.244         	14.112         	3.572
MS.245         	14.085         	3.605
MS.246         	14.055         	3.594
MS.247         	14.028         	3.591
MS.248         	14             	3.535
MS.249         	13.972         	3.45
MS.250         	13.945         	3.514
MS.251         	13.915         	3.571
MS.252         	13.887         	3.49
MS.253         	13.86          	3.56
MS.254         	13.832         	3.507
MS.255         	13.805         	3.561
MS.256         	13.778         	3.423
MS.257         	13.75          	3.502
MS.258         	13.722         	3.477
MS.259         	13.695         	3.457
MS.260         	13.667         	3.359
MS.261         	13.64          	3.329
MS.262         	13.612         	3.441
MS.263         	13.585         	3.275
MS.264         	13.56          	3.484
MS.265         	13.532         	3.358
MS.266         	13.505         	3.35
MS.267         	13.477         	3.322
MS.268         	13.45          	3.275
MS.269         	13.425         	3.322
MS.270         	13.398         	3.157
MS.271         	13.37          	3.263
MS.272         	13.342         	3.198
MS.273         	13.318         	3.071
MS.274         	13.29          	3.267
MS.275         	13.265         	3.186
MS.276         	13.237         	3.025
MS.277         	13.21          	3.052
MS.278         	13.185         	2.983
MS.279         	13.157         	3.042
MS.280         	13.132         	3.127
MS.281         	13.105         	3.029
MS.282         	13.08          	2.986
MS.283         	13.052         	2.943
MS.284         	13.028         	2.926
MS.285         	13             	2.793
MS.286         	12.975         	2.865
MS.287         	12.95          	2.981
MS.288         	12.922         	2.747
MS.289         	12.898         	2.681
MS.290         	12.872         	2.618
MS.291         	12.845         	2.71
MS.292         	12.82          	2.732
MS.293         	12.795         	2.676
MS.294         	12.77          	2.516
MS.295         	12.742         	2.695
MS.296         	12.717         	2.662
MS.297         	12.693         	2.513
MS.298         	12.667         	2.511
MS.299         	12.642         	2.556
MS.300         	12.617         	2.435
MS.301         	12.592         	2.351
MS.302         	12.568         	2.341
MS.303         	12.542         	2.397
MS.304         	12.517         	2.418
MS.305         	12.492         	2.346
MS.306         	12.467         	2.412
MS.307         	12.443         	2.379
MS.308         	12.417         	2.332
MS.309         	12.392         	2.211
MS.310         	12.367         	2.201
MS.311         	12.342         	2.263
MS.312         	12.318         	2.305
MS.313         	12.292         	2.224
MS.314         	12.267         	2.266
MS.315         	12.245         	2.246
MS.316         	12.22          	2.209
MS.317         	12.195         	2.195
MS.318         	12.17          	2.189
MS.319         	12.148         	2.134
MS.320         	12.122         	2.095
MS.321         	12.097         	2.213
MS.322         	12.075         	2.195
MS.323         	12.05          	2.085
MS.324         	12.025         	2.184
MS.325         	12.002         	2.174
MS.326         	11.977         	2.053
MS.327         	11.952         	2.169
MS.328         	11.93          	2.1
MS.329         	11.905         	1.968
MS.330         	11.882         	2.179
MS.331         	11.858         	2.141
MS.332         	11.835         	2.108
MS.333         	11.81          	2.05
MS.334         	11.787         	2.062
MS.335         	11.765         	2.084
MS.336         	11.74          	2.124
MS.337         	11.717         	1.971
MS.338         	11.693         	2
MS.339         	11.67          	2.013
MS.340         	11.648         	1.97
MS.341         	11.622         	1.93
MS.342         	11.6           	1.908
MS.343         	11.577         	2.037
MS.344         	11.555         	2.01
MS.345         	11.53          	1.891
MS.346         	11.507         	1.958
MS.347         	11.485         	1.827
MS.348         	11.462         	1.918
MS.349         	11.44          	1.938
MS.350         	11.415         	1.727
MS.351         	11.392         	1.86
MS.352         	11.37          	1.84
MS.353         	11.347         	1.814
MS.354         	11.325         	1.776
MS.355         	11.302         	1.81
MS.356         	11.28          	1.831
MS.357         	11.257         	1.805
MS.358         	11.235         	1.787
MS.359         	11.212         	1.663
MS.360         	11.19          	1.694
MS.361         	11.167         	1.686
MS.362         	11.145         	1.654
MS.363         	11.122         	1.609
MS.364         	11.1           	1.636
MS.365         	11.08          	1.598
MS.366         	11.057         	1.677
MS.367         	11.035         	1.57
MS.368         	11.012         	1.604
MS.369         	10.99          	1.392
MS.370         	10.967         	1.555
MS.371         	10.948         	1.484
MS.372         	10.925         	1.514
MS.373         	10.903         	1.5
MS.374         	10.88          	1.405
MS.375         	10.86          	1.473
MS.376         	10.837         	1.32
MS.377         	10.815         	1.436
MS.378         	10.795         	1.427
MS.379         	10.773         	1.398
MS.380         	10.752         	1.355
MS.381         	10.73          	1.346
MS.382         	10.707         	1.284
MS.383         	10.688         	1.257
MS.384         	10.665         	1.313
MS.385         	10.645         	1.206
MS.386         	10.622         	1.23
MS.387         	10.602         	1.188
MS.388         	10.58          	1.176
MS.389         	10.56          	1.093
MS.390         	10.537         	1.117
MS.391         	10.517         	0.988
MS.392         	10.497         	1.082
MS.393         	10.475         	1.09
MS.394         	10.455         	1.162
MS.395         	10.432         	0.972
MS.396         	10.412         	0.908
MS.397         	10.392         	0.941
MS.398         	10.372         	0.996
MS.399         	10.35          	0.901
MS.400         	10.33          	0.887
MS.401         	10.31          	0.88
MS.402         	10.287         	0.89
MS.403         	10.267         	0.922
MS.404         	10.247         	0.884
MS.405         	10.227         	0.964
MS.406         	10.207         	0.834
MS.407         	10.185         	0.889
MS.408         	10.165         	0.768
MS.409         	10.145         	0.835
MS.410         	10.125         	0.909
MS.411         	10.105         	0.736
MS.412         	10.085         	0.797
MS.413         	10.065         	0.698
MS.414         	10.045         	0.732
MS.415         	10.025         	0.746
MS.416         	10.005         	0.728
MS.417         	9.985          	0.717
MS.418         	9.965          	0.704
MS.419         	9.945          	0.721
MS.420         	9.925          	0.691
MS.421         	9.905          	0.758
MS.422         	9.885          	0.682
MS.423         	9.865          	0.676
MS.424         	9.845          	0.632
MS.425         	9.825          	0.715
MS.426         	9.807          	0.724
MS.427         	9.787          	0.725
MS.428         	9.767          	0.608
MS.429         	9.747          	0.66
MS.430         	9.727          	0.642
MS.431         	9.71           	0.646
MS.432         	9.69           	0.674
MS.433         	9.67           	0.645
MS.434         	9.65           	0.697
MS.435         	9.632          	0.576
MS.436         	9.613          	0.554
MS.437         	9.592          	0.538
MS.438         	9.575          	0.544
MS.439         	9.555          	0.522
MS.440         	9.535          	0.482
MS.441         	9.517          	0.511
MS.442         	9.497          	0.535
MS.443         	9.477          	0.466
MS.444         	9.46           	0.442
MS.445         	9.44           	0.408
MS.446         	9.422          	0.446
MS.447         	9.403          	0.431
MS.448         	9.385          	0.416
MS.449         	9.365          	0.408
MS.450         	9.347          	0.358
MS.451         	9.327          	0.372
MS.452         	9.31           	0.341
MS.453         	9.29           	0.358
MS.454         	9.273          	0.284
MS.455         	9.255          	0.277
MS.456         	9.235          	0.236
MS.457         	9.217          	0.309
MS.458         	9.198          	0.299
MS.459         	9.18           	0.24
MS.460         	9.162          	0.225
MS.461         	9.142          	0.243
MS.462         	9.125          	0.228
MS.463         	9.108          	0.177
MS.464         	9.09           	0.222
MS.465         	9.07           	0.183
MS.466         	9.052          	0.233
MS.467         	9.035          	0.222
MS.468         	9.017          	0.221
MS.469         	8.997          	0.194
MS.470         	8.98           	0.181
MS.471         	8.962          	0.159
MS.472         	8.945          	0.265
MS.473         	8.927          	0.182
MS.474         	8.91           	0.171
MS.475         	8.89           	0.176
MS.476         	8.872          	0.167
MS.477         	8.855          	0.184
MS.478         	8.837          	0.177
MS.479         	8.82           	0.172
MS.480         	8.802          	0.159
MS.481         	8.785          	0.166
MS.482         	8.767          	0.149
MS.483         	8.75           	0.134
MS.484         	8.733          	0.146
MS.485         	8.715          	0.145
MS.486         	8.698          	0.117
MS.487         	8.68           	0.148
MS.488         	8.662          	0.129
MS.489         	8.645          	0.145
MS.490         	8.627          	0.167
MS.491         	8.61           	0.149
MS.492         	8.595          	0.123
MS.493         	8.577          	0.072
MS.494         	8.56           	0.106
MS.495         	8.542          	0.109
MS.496         	8.525          	0.12
MS.497         	8.507          	0.149
MS.498         	8.492          	0.125
MS.499         	8.475          	0.107
MS.500         	8.457          	0.089
MS.501         	8.44           	0.101
