File:              	C:\Qtrac\Data\Daniel M Sørensen\MScan multicentre study\Data from centres\Toronto\Processed data\MSCC01110D.QZD
Name:              	CA.TOR.NC.2.1
Protocol:          	MSCAN-R2
Date:              	10/11/20
Start time:        	18:29:10
Age:               	25
Sex:               	F
Temperature:       	29.2
S/R sites:         	TA
NC/disease:        	NC
Operator:          	LP
Comments:
M-SCAN DATA (10.2-1.5m)
Scanpts: 92, 99, 562, 562
Stim. (mA)     	Amp. (mV)
MS.1           	36             	4.128
MS.2           	36             	4.071
MS.3           	36             	4.102
MS.4           	36             	4.106
MS.5           	36             	4.111
MS.6           	36             	4.106
MS.7           	36             	4.105
MS.8           	36             	4.117
MS.9           	36             	4.102
MS.10          	36             	4.121
MS.11          	36             	4.11
MS.12          	36             	4.146
MS.13          	36             	4.122
MS.14          	36             	4.093
MS.15          	36             	4.122
MS.16          	36             	4.109
MS.17          	36             	4.125
MS.18          	36             	4.081
MS.19          	36             	4.08
MS.20          	36             	4.089
MS.21          	36             	4.091
MS.22          	36             	4.089
MS.23          	36             	4.133
MS.24          	35.855         	4.098
MS.25          	35.785         	4.056
MS.26          	35.712         	4.05
MS.27          	35.642         	4.031
MS.28          	35.57          	4.066
MS.29          	35.5           	4.056
MS.30          	35.427         	4.052
MS.31          	35.357         	4.07
MS.32          	35.287         	4.097
MS.33          	35.217         	4.054
MS.34          	35.145         	4.032
MS.35          	35.075         	4.066
MS.36          	35.005         	4.052
MS.37          	34.935         	4.062
MS.38          	34.865         	4.082
MS.39          	34.798         	4.089
MS.40          	34.728         	4.08
MS.41          	34.657         	4.072
MS.42          	34.587         	4.026
MS.43          	34.52          	4.054
MS.44          	34.45          	4.053
MS.45          	34.382         	4.07
MS.46          	34.312         	4.062
MS.47          	34.245         	4.086
MS.48          	34.175         	4.066
MS.49          	34.107         	4.116
MS.50          	34.04          	4.088
MS.51          	33.972         	4.117
MS.52          	33.903         	4.133
MS.53          	33.835         	4.089
MS.54          	33.767         	4.144
MS.55          	33.7           	4.083
MS.56          	33.632         	4.119
MS.57          	33.565         	4.109
MS.58          	33.5           	4.098
MS.59          	33.432         	4.065
MS.60          	33.365         	4.114
MS.61          	33.298         	4.093
MS.62          	33.232         	4.177
MS.63          	33.165         	4.124
MS.64          	33.1           	4.126
MS.65          	33.032         	4.137
MS.66          	32.967         	4.105
MS.67          	32.903         	4.119
MS.68          	32.835         	4.153
MS.69          	32.77          	4.104
MS.70          	32.705         	4.092
MS.71          	32.64          	4.138
MS.72          	32.575         	4.117
MS.73          	32.51          	4.126
MS.74          	32.445         	4.097
MS.75          	32.38          	4.142
MS.76          	32.315         	4.12
MS.77          	32.25          	4.137
MS.78          	32.185         	4.083
MS.79          	32.12          	4.146
MS.80          	32.057         	4.105
MS.81          	31.992         	4.156
MS.82          	31.93          	4.12
MS.83          	31.865         	4.13
MS.84          	31.802         	4.154
MS.85          	31.737         	4.125
MS.86          	31.675         	4.135
MS.87          	31.612         	4.109
MS.88          	31.547         	4.163
MS.89          	31.485         	4.132
MS.90          	31.422         	4.159
MS.91          	31.36          	4.125
MS.92          	31.297         	4.132
MS.93          	31.235         	4.131
MS.94          	31.172         	4.131
MS.95          	31.11          	4.141
MS.96          	31.047         	4.159
MS.97          	30.985         	4.189
MS.98          	30.922         	4.138
MS.99          	30.862         	4.166
MS.100         	30.8           	4.192
MS.101         	30.737         	4.103
MS.102         	30.677         	4.141
MS.103         	30.615         	4.075
MS.104         	30.555         	4.125
MS.105         	30.492         	4.149
MS.106         	30.432         	4.125
MS.107         	30.372         	4.148
MS.108         	30.31          	4.108
MS.109         	30.25          	4.104
MS.110         	30.19          	4.113
MS.111         	30.13          	4.143
MS.112         	30.07          	4.147
MS.113         	30.01          	4.165
MS.114         	29.95          	4.117
MS.115         	29.89          	4.133
MS.116         	29.83          	4.171
MS.117         	29.77          	4.161
MS.118         	29.71          	4.12
MS.119         	29.653         	4.109
MS.120         	29.592         	4.058
MS.121         	29.532         	4.142
MS.122         	29.475         	4.127
MS.123         	29.415         	4.115
MS.124         	29.358         	4.191
MS.125         	29.297         	4.078
MS.126         	29.24          	4.16
MS.127         	29.18          	4.117
MS.128         	29.122         	4.108
MS.129         	29.065         	4.108
MS.130         	29.007         	4.093
MS.131         	28.948         	4.109
MS.132         	28.89          	4.109
MS.133         	28.832         	4.066
MS.134         	28.775         	4.084
MS.135         	28.717         	4.073
MS.136         	28.66          	4.113
MS.137         	28.602         	4.061
MS.138         	28.545         	4.006
MS.139         	28.49          	4.005
MS.140         	28.432         	4.014
MS.141         	28.375         	4.045
MS.142         	28.317         	4.045
MS.143         	28.262         	4.054
MS.144         	28.205         	4.058
MS.145         	28.15          	3.992
MS.146         	28.092         	3.997
MS.147         	28.037         	4
MS.148         	27.98          	4.047
MS.149         	27.925         	4.062
MS.150         	27.87          	4.047
MS.151         	27.812         	4.081
MS.152         	27.757         	4.059
MS.153         	27.702         	4.026
MS.154         	27.647         	4.02
MS.155         	27.592         	4.009
MS.156         	27.537         	3.967
MS.157         	27.483         	3.97
MS.158         	27.427         	3.948
MS.159         	27.372         	3.958
MS.160         	27.317         	3.967
MS.161         	27.262         	4.025
MS.162         	27.207         	4.01
MS.163         	27.153         	4.025
MS.164         	27.1           	3.915
MS.165         	27.045         	4.015
MS.166         	26.993         	3.909
MS.167         	26.938         	3.884
MS.168         	26.882         	3.967
MS.169         	26.83          	4.017
MS.170         	26.775         	4.021
MS.171         	26.722         	3.976
MS.172         	26.67          	3.94
MS.173         	26.615         	3.949
MS.174         	26.562         	3.923
MS.175         	26.51          	3.927
MS.176         	26.457         	3.862
MS.177         	26.405         	3.971
MS.178         	26.35          	3.911
MS.179         	26.297         	3.865
MS.180         	26.245         	3.861
MS.181         	26.192         	3.885
MS.182         	26.14          	3.911
MS.183         	26.09          	3.766
MS.184         	26.037         	3.848
MS.185         	25.985         	3.798
MS.186         	25.932         	3.799
MS.187         	25.88          	3.845
MS.188         	25.83          	3.751
MS.189         	25.778         	3.752
MS.190         	25.727         	3.774
MS.191         	25.675         	3.694
MS.192         	25.622         	3.657
MS.193         	25.573         	3.717
MS.194         	25.522         	3.71
MS.195         	25.47          	3.658
MS.196         	25.42          	3.663
MS.197         	25.368         	3.661
MS.198         	25.317         	3.684
MS.199         	25.267         	3.655
MS.200         	25.217         	3.678
MS.201         	25.167         	3.619
MS.202         	25.115         	3.633
MS.203         	25.065         	3.638
MS.204         	25.015         	3.617
MS.205         	24.965         	3.66
MS.206         	24.915         	3.539
MS.207         	24.868         	3.489
MS.208         	24.817         	3.572
MS.209         	24.767         	3.534
MS.210         	24.717         	3.519
MS.211         	24.667         	3.574
MS.212         	24.62          	3.567
MS.213         	24.57          	3.566
MS.214         	24.52          	3.56
MS.215         	24.472         	3.53
MS.216         	24.422         	3.494
MS.217         	24.375         	3.544
MS.218         	24.325         	3.419
MS.219         	24.278         	3.461
MS.220         	24.227         	3.422
MS.221         	24.18          	3.481
MS.222         	24.132         	3.518
MS.223         	24.082         	3.403
MS.224         	24.035         	3.433
MS.225         	23.987         	3.489
MS.226         	23.94          	3.359
MS.227         	23.892         	3.372
MS.228         	23.842         	3.411
MS.229         	23.795         	3.345
MS.230         	23.747         	3.401
MS.231         	23.7           	3.304
MS.232         	23.653         	3.252
MS.233         	23.608         	3.311
MS.234         	23.56          	3.265
MS.235         	23.512         	3.26
MS.236         	23.465         	3.217
MS.237         	23.417         	3.243
MS.238         	23.372         	3.219
MS.239         	23.325         	3.221
MS.240         	23.278         	3.251
MS.241         	23.233         	3.276
MS.242         	23.185         	3.228
MS.243         	23.14          	3.207
MS.244         	23.092         	3.162
MS.245         	23.047         	3.218
MS.246         	23             	3.16
MS.247         	22.955         	3.104
MS.248         	22.907         	3.048
MS.249         	22.862         	3.203
MS.250         	22.817         	3.109
MS.251         	22.772         	3.123
MS.252         	22.725         	3.176
MS.253         	22.68          	3.024
MS.254         	22.635         	3.242
MS.255         	22.59          	3.252
MS.256         	22.545         	2.959
MS.257         	22.5           	2.904
MS.258         	22.455         	2.935
MS.259         	22.41          	2.897
MS.260         	22.365         	2.952
MS.261         	22.32          	2.937
MS.262         	22.275         	2.969
MS.263         	22.233         	2.952
MS.264         	22.188         	2.704
MS.265         	22.142         	2.899
MS.266         	22.097         	2.875
MS.267         	22.055         	2.747
MS.268         	22.01          	2.739
MS.269         	21.967         	2.686
MS.270         	21.922         	2.621
MS.271         	21.877         	2.799
MS.272         	21.835         	2.688
MS.273         	21.792         	2.665
MS.274         	21.747         	2.668
MS.275         	21.705         	2.627
MS.276         	21.66          	2.603
MS.277         	21.618         	3.051
MS.278         	21.575         	2.528
MS.279         	21.532         	2.531
MS.280         	21.487         	2.389
MS.281         	21.445         	2.643
MS.282         	21.403         	2.559
MS.283         	21.36          	2.65
MS.284         	21.317         	2.533
MS.285         	21.275         	2.511
MS.286         	21.233         	2.402
MS.287         	21.19          	2.323
MS.288         	21.147         	2.198
MS.289         	21.105         	2.147
MS.290         	21.062         	2.194
MS.291         	21.02          	2.258
MS.292         	20.98          	2.184
MS.293         	20.938         	2.15
MS.294         	20.895         	2.251
MS.295         	20.852         	2.219
MS.296         	20.812         	2.115
MS.297         	20.77          	2.178
MS.298         	20.727         	2.026
MS.299         	20.688         	1.893
MS.300         	20.645         	1.949
MS.301         	20.605         	2.003
MS.302         	20.562         	2.106
MS.303         	20.522         	1.981
MS.304         	20.483         	1.918
MS.305         	20.44          	1.835
MS.306         	20.4           	1.908
MS.307         	20.36          	2.104
MS.308         	20.317         	1.923
MS.309         	20.278         	1.931
MS.310         	20.237         	1.832
MS.311         	20.198         	1.814
MS.312         	20.157         	1.761
MS.313         	20.115         	1.669
MS.314         	20.075         	1.719
MS.315         	20.035         	1.666
MS.316         	19.995         	1.599
MS.317         	19.955         	1.678
MS.318         	19.915         	1.632
MS.319         	19.875         	1.556
MS.320         	19.837         	1.595
MS.321         	19.797         	1.591
MS.322         	19.757         	1.559
MS.323         	19.717         	1.621
MS.324         	19.677         	1.582
MS.325         	19.64          	1.495
MS.326         	19.6           	1.497
MS.327         	19.56          	1.539
MS.328         	19.522         	1.501
MS.329         	19.483         	1.411
MS.330         	19.442         	1.476
MS.331         	19.405         	1.439
MS.332         	19.365         	1.417
MS.333         	19.327         	1.379
MS.334         	19.288         	1.411
MS.335         	19.25          	1.383
MS.336         	19.212         	1.32
MS.337         	19.172         	1.281
MS.338         	19.135         	1.24
MS.339         	19.097         	1.202
MS.340         	19.057         	1.235
MS.341         	19.02          	1.176
MS.342         	18.983         	1.215
MS.343         	18.945         	1.185
MS.344         	18.907         	1.193
MS.345         	18.87          	1.202
MS.346         	18.83          	1.112
MS.347         	18.792         	1.099
MS.348         	18.755         	1.052
MS.349         	18.717         	1.042
MS.350         	18.68          	1.061
MS.351         	18.645         	0.981
MS.352         	18.608         	0.928
MS.353         	18.57          	1.029
MS.354         	18.532         	0.897
MS.355         	18.495         	0.922
MS.356         	18.458         	0.854
MS.357         	18.422         	0.886
MS.358         	18.385         	0.865
MS.359         	18.347         	0.857
MS.360         	18.31          	0.823
MS.361         	18.275         	0.79
MS.362         	18.237         	0.88
MS.363         	18.202         	0.791
MS.364         	18.165         	0.817
MS.365         	18.13          	0.812
MS.366         	18.092         	0.77
MS.367         	18.057         	0.815
MS.368         	18.02          	0.718
MS.369         	17.985         	0.759
MS.370         	17.948         	0.721
MS.371         	17.913         	0.677
MS.372         	17.878         	0.636
MS.373         	17.842         	0.718
MS.374         	17.805         	0.646
MS.375         	17.77          	0.61
MS.376         	17.735         	0.582
MS.377         	17.7           	0.54
MS.378         	17.665         	0.516
MS.379         	17.628         	0.508
MS.380         	17.592         	0.443
MS.381         	17.557         	0.508
MS.382         	17.522         	0.488
MS.383         	17.487         	0.509
MS.384         	17.452         	0.53
MS.385         	17.417         	0.492
MS.386         	17.382         	0.499
MS.387         	17.347         	0.468
MS.388         	17.315         	0.526
MS.389         	17.28          	0.498
MS.390         	17.245         	0.544
MS.391         	17.21          	0.459
MS.392         	17.175         	0.472
MS.393         	17.142         	0.464
MS.394         	17.108         	0.475
MS.395         	17.073         	0.403
MS.396         	17.04          	0.331
MS.397         	17.005         	0.332
MS.398         	16.97          	0.338
MS.399         	16.938         	0.306
MS.400         	16.903         	0.358
MS.401         	16.87          	0.293
MS.402         	16.835         	0.308
MS.403         	16.802         	0.321
MS.404         	16.767         	0.278
MS.405         	16.735         	0.273
MS.406         	16.702         	0.282
MS.407         	16.667         	0.284
MS.408         	16.635         	0.267
MS.409         	16.602         	0.292
MS.410         	16.567         	0.253
MS.411         	16.535         	0.24
MS.412         	16.503         	0.214
MS.413         	16.47          	0.259
MS.414         	16.438         	0.234
MS.415         	16.405         	0.231
MS.416         	16.37          	0.2
MS.417         	16.337         	0.223
MS.418         	16.305         	0.197
MS.419         	16.272         	0.187
MS.420         	16.24          	0.204
MS.421         	16.208         	0.201
MS.422         	16.175         	0.16
MS.423         	16.142         	0.183
MS.424         	16.11          	0.168
MS.425         	16.08          	0.201
MS.426         	16.047         	0.167
MS.427         	16.015         	0.156
MS.428         	15.983         	0.166
MS.429         	15.95          	0.131
MS.430         	15.92          	0.133
MS.431         	15.887         	0.146
MS.432         	15.855         	0.126
MS.433         	15.825         	0.131
MS.434         	15.792         	0.138
MS.435         	15.76          	0.114
MS.436         	15.73          	0.129
MS.437         	15.697         	0.134
MS.438         	15.667         	0.117
MS.439         	15.635         	0.127
MS.440         	15.605         	0.131
MS.441         	15.572         	0.126
MS.442         	15.542         	0.132
MS.443         	15.51          	0.094
MS.444         	15.48          	0.112
MS.445         	15.447         	0.121
MS.446         	15.417         	0.12
MS.447         	15.387         	0.134
MS.448         	15.355         	0.115
MS.449         	15.325         	0.105
MS.450         	15.295         	0.133
MS.451         	15.265         	0.125
MS.452         	15.235         	0.111
MS.453         	15.202         	0.103
MS.454         	15.172         	0.096
MS.455         	15.142         	0.125
MS.456         	15.112         	0.078
MS.457         	15.082         	0.096
MS.458         	15.052         	0.11
MS.459         	15.023         	0.079
MS.460         	14.992         	0.093
MS.461         	14.962         	0.115
MS.462         	14.932         	0.09
MS.463         	14.902         	0.082
MS.464         	14.872         	0.079
MS.465         	14.842         	0.082
MS.466         	14.812         	0.073
MS.467         	14.782         	0.068
MS.468         	14.755         	0.076
MS.469         	14.725         	0.076
MS.470         	14.695         	0.06
MS.471         	14.665         	0.059
MS.472         	14.637         	0.068
MS.473         	14.608         	0.077
MS.474         	14.577         	0.065
MS.475         	14.55          	0.044
MS.476         	14.52          	0.059
MS.477         	14.49          	0.066
MS.478         	14.462         	0.044
MS.479         	14.432         	0.06
MS.480         	14.405         	0.065
MS.481         	14.375         	0.063
MS.482         	14.347         	0.056
MS.483         	14.318         	0.056
MS.484         	14.29          	0.073
MS.485         	14.26          	0.044
MS.486         	14.233         	0.063
MS.487         	14.205         	0.049
MS.488         	14.175         	0.045
MS.489         	14.148         	0.048
MS.490         	14.12          	0.035
MS.491         	14.09          	0.035
MS.492         	14.062         	0.009
MS.493         	14.035         	0.024
MS.494         	14.007         	0.043
MS.495         	13.977         	0.006
MS.496         	13.95          	0.021
MS.497         	13.922         	0.037
MS.498         	13.895         	0.029
MS.499         	13.867         	0.031
MS.500         	13.84          	0.032
MS.501         	13.812         	0.013
