File:              	C:\Qtrac\Data\Daniel M Sørensen\MScan multicentre study\Data from centres\Toronto\Processed data\MSCC01209C.QZD
Name:              	CA.TOR.NC.7.2
Protocol:          	MSCAN-R2
Date:              	9/12/20
Start time:        	11:08:21
Age:               	43
Sex:               	F
Temperature:       	30.3
S/R sites:         	TA
NC/disease:        	NC
Operator:          	LP
Comments:          	MFF60ON, 2nd trial OK
M-SCAN DATA (Repeat 2/2, 8.1-3.2m)
Scanpts: 58, 61, 467, 474
Stim. (mA)     	Amp. (mV)
MS.1           	26             	9.058
MS.2           	26             	9.055
MS.3           	25.948         	9.056
MS.4           	25.895         	9.05
MS.5           	25.845         	9.06
MS.6           	25.792         	9.065
MS.7           	25.743         	9.075
MS.8           	25.69          	9.093
MS.9           	25.637         	9.091
MS.10          	25.587         	9.087
MS.11          	25.535         	9.071
MS.12          	25.485         	9.08
MS.13          	25.435         	9.088
MS.14          	25.382         	9.084
MS.15          	25.332         	9.055
MS.16          	25.282         	9.075
MS.17          	25.233         	9.062
MS.18          	25.18          	9.069
MS.19          	25.13          	9.053
MS.20          	25.08          	9.034
MS.21          	25.03          	9.094
MS.22          	24.98          	9.071
MS.23          	24.93          	9.087
MS.24          	24.88          	9.052
MS.25          	24.83          	9.017
MS.26          	24.782         	9.042
MS.27          	24.733         	9.017
MS.28          	24.682         	9.066
MS.29          	24.632         	9.043
MS.30          	24.585         	9.044
MS.31          	24.535         	9.031
MS.32          	24.485         	9.036
MS.33          	24.438         	9.054
MS.34          	24.387         	9.052
MS.35          	24.34          	9.056
MS.36          	24.29          	9.044
MS.37          	24.243         	9.054
MS.38          	24.195         	9.053
MS.39          	24.145         	9.067
MS.40          	24.097         	9.05
MS.41          	24.05          	9.06
MS.42          	24             	9.094
MS.43          	23.952         	9.064
MS.44          	23.905         	9.072
MS.45          	23.858         	9.067
MS.46          	23.81          	9.086
MS.47          	23.762         	9.076
MS.48          	23.715         	9.053
MS.49          	23.667         	9.056
MS.50          	23.62          	9.07
MS.51          	23.573         	9.058
MS.52          	23.525         	9.066
MS.53          	23.48          	9.054
MS.54          	23.432         	9.1
MS.55          	23.385         	9.082
MS.56          	23.337         	9.081
MS.57          	23.292         	9.078
MS.58          	23.245         	9.076
MS.59          	23.198         	9.059
MS.60          	23.153         	9.099
MS.61          	23.105         	9.081
MS.62          	23.06          	9.078
MS.63          	23.015         	9.091
MS.64          	22.967         	9.061
MS.65          	22.922         	9.072
MS.66          	22.875         	9.056
MS.67          	22.83          	9.056
MS.68          	22.785         	9.069
MS.69          	22.74          	9.069
MS.70          	22.695         	9.037
MS.71          	22.647         	9.048
MS.72          	22.602         	9.06
MS.73          	22.557         	9.015
MS.74          	22.512         	9.004
MS.75          	22.467         	9.031
MS.76          	22.422         	9.061
MS.77          	22.377         	9.032
MS.78          	22.332         	9.028
MS.79          	22.29          	9.048
MS.80          	22.245         	9
MS.81          	22.2           	9.03
MS.82          	22.155         	9.036
MS.83          	22.112         	9.012
MS.84          	22.067         	9.012
MS.85          	22.022         	9.001
MS.86          	21.98          	8.984
MS.87          	21.935         	9.003
MS.88          	21.892         	8.975
MS.89          	21.847         	8.927
MS.90          	21.805         	8.942
MS.91          	21.76          	8.986
MS.92          	21.717         	8.961
MS.93          	21.672         	8.973
MS.94          	21.63          	8.943
MS.95          	21.587         	8.951
MS.96          	21.545         	8.92
MS.97          	21.5           	8.91
MS.98          	21.458         	8.932
MS.99          	21.415         	8.915
MS.100         	21.372         	8.928
MS.101         	21.33          	8.895
MS.102         	21.288         	8.915
MS.103         	21.245         	8.883
MS.104         	21.202         	8.918
MS.105         	21.16          	8.878
MS.106         	21.118         	8.85
MS.107         	21.075         	8.822
MS.108         	21.032         	8.872
MS.109         	20.99          	8.843
MS.110         	20.95          	8.806
MS.111         	20.907         	8.864
MS.112         	20.865         	8.75
MS.113         	20.825         	8.741
MS.114         	20.782         	8.798
MS.115         	20.74          	8.694
MS.116         	20.7           	8.762
MS.117         	20.657         	8.727
MS.118         	20.618         	8.718
MS.119         	20.575         	8.691
MS.120         	20.535         	8.66
MS.121         	20.493         	8.73
MS.122         	20.452         	8.66
MS.123         	20.413         	8.676
MS.124         	20.37          	8.65
MS.125         	20.33          	8.662
MS.126         	20.29          	8.612
MS.127         	20.25          	8.634
MS.128         	20.208         	8.611
MS.129         	20.167         	8.593
MS.130         	20.127         	8.588
MS.131         	20.087         	8.521
MS.132         	20.047         	8.539
MS.133         	20.007         	8.56
MS.134         	19.967         	8.461
MS.135         	19.927         	8.549
MS.136         	19.887         	8.44
MS.137         	19.847         	8.492
MS.138         	19.807         	8.453
MS.139         	19.767         	8.489
MS.140         	19.73          	8.367
MS.141         	19.69          	8.346
MS.142         	19.65          	8.32
MS.143         	19.61          	8.368
MS.144         	19.573         	8.389
MS.145         	19.532         	8.337
MS.146         	19.495         	8.306
MS.147         	19.455         	8.319
MS.148         	19.415         	8.278
MS.149         	19.377         	8.284
MS.150         	19.337         	8.258
MS.151         	19.3           	8.25
MS.152         	19.262         	8.333
MS.153         	19.222         	8.158
MS.154         	19.185         	8.201
MS.155         	19.145         	8.262
MS.156         	19.108         	8.157
MS.157         	19.07          	8.124
MS.158         	19.032         	8.087
MS.159         	18.993         	8.191
MS.160         	18.955         	8.141
MS.161         	18.917         	7.98
MS.162         	18.88          	7.983
MS.163         	18.842         	7.963
MS.164         	18.805         	8.038
MS.165         	18.767         	7.917
MS.166         	18.73          	7.972
MS.167         	18.692         	8.038
MS.168         	18.655         	7.954
MS.169         	18.618         	7.906
MS.170         	18.58          	7.889
MS.171         	18.542         	7.887
MS.172         	18.505         	7.894
MS.173         	18.47          	7.872
MS.174         	18.432         	7.822
MS.175         	18.395         	7.842
MS.176         	18.358         	7.747
MS.177         	18.323         	7.699
MS.178         	18.285         	7.77
MS.179         	18.25          	7.773
MS.180         	18.212         	7.69
MS.181         	18.175         	7.557
MS.182         	18.14          	7.563
MS.183         	18.102         	7.539
MS.184         	18.067         	7.572
MS.185         	18.03          	7.511
MS.186         	17.995         	7.483
MS.187         	17.96          	7.404
MS.188         	17.922         	7.427
MS.189         	17.887         	7.4
MS.190         	17.852         	7.318
MS.191         	17.815         	7.349
MS.192         	17.78          	7.314
MS.193         	17.745         	7.305
MS.194         	17.71          	7.233
MS.195         	17.675         	7.236
MS.196         	17.637         	7.096
MS.197         	17.602         	7.061
MS.198         	17.567         	7.277
MS.199         	17.532         	7.177
MS.200         	17.497         	7.103
MS.201         	17.462         	6.981
MS.202         	17.427         	6.876
MS.203         	17.392         	6.793
MS.204         	17.36          	6.852
MS.205         	17.325         	6.901
MS.206         	17.29          	6.803
MS.207         	17.255         	6.797
MS.208         	17.22          	6.644
MS.209         	17.185         	6.715
MS.210         	17.153         	6.697
MS.211         	17.118         	6.55
MS.212         	17.083         	6.697
MS.213         	17.05          	6.462
MS.214         	17.015         	6.475
MS.215         	16.98          	6.461
MS.216         	16.948         	6.482
MS.217         	16.913         	6.254
MS.218         	16.88          	6.367
MS.219         	16.845         	6.11
MS.220         	16.812         	6.23
MS.221         	16.778         	6.256
MS.222         	16.745         	6.003
MS.223         	16.712         	6.138
MS.224         	16.677         	5.941
MS.225         	16.645         	5.983
MS.226         	16.612         	6.023
MS.227         	16.577         	5.897
MS.228         	16.545         	5.936
MS.229         	16.512         	5.814
MS.230         	16.48          	5.894
MS.231         	16.445         	5.835
MS.232         	16.413         	5.42
MS.233         	16.38          	5.582
MS.234         	16.347         	5.559
MS.235         	16.315         	5.522
MS.236         	16.282         	5.565
MS.237         	16.25          	5.479
MS.238         	16.217         	5.331
MS.239         	16.185         	5.446
MS.240         	16.153         	5.342
MS.241         	16.12          	5.234
MS.242         	16.087         	5.315
MS.243         	16.055         	5.192
MS.244         	16.025         	5.239
MS.245         	15.992         	5.219
MS.246         	15.96          	5.146
MS.247         	15.927         	5.114
MS.248         	15.898         	4.948
MS.249         	15.865         	5.072
MS.250         	15.832         	5.01
MS.251         	15.802         	4.933
MS.252         	15.77          	4.897
MS.253         	15.737         	4.874
MS.254         	15.707         	4.823
MS.255         	15.675         	4.81
MS.256         	15.645         	4.672
MS.257         	15.612         	4.766
MS.258         	15.582         	4.727
MS.259         	15.55          	4.703
MS.260         	15.52          	4.607
MS.261         	15.487         	4.57
MS.262         	15.457         	4.633
MS.263         	15.427         	4.545
MS.264         	15.395         	4.469
MS.265         	15.365         	4.497
MS.266         	15.335         	4.484
MS.267         	15.302         	4.412
MS.268         	15.273         	4.459
MS.269         	15.242         	4.359
MS.270         	15.212         	4.293
MS.271         	15.182         	4.353
MS.272         	15.152         	4.298
MS.273         	15.12          	4.208
MS.274         	15.09          	4.269
MS.275         	15.06          	4.132
MS.276         	15.03          	3.955
MS.277         	15             	3.947
MS.278         	14.97          	4.03
MS.279         	14.94          	4.033
MS.280         	14.91          	3.851
MS.281         	14.88          	3.792
MS.282         	14.852         	3.831
MS.283         	14.822         	3.793
MS.284         	14.792         	3.826
MS.285         	14.762         	3.66
MS.286         	14.733         	3.65
MS.287         	14.702         	3.617
MS.288         	14.675         	3.678
MS.289         	14.645         	3.516
MS.290         	14.615         	3.405
MS.291         	14.587         	3.466
MS.292         	14.557         	3.297
MS.293         	14.527         	3.289
MS.294         	14.5           	3.212
MS.295         	14.47          	3.286
MS.296         	14.443         	3.12
MS.297         	14.412         	3.053
MS.298         	14.382         	3.077
MS.299         	14.355         	2.958
MS.300         	14.327         	2.983
MS.301         	14.297         	2.817
MS.302         	14.27          	2.93
MS.303         	14.24          	2.826
MS.304         	14.212         	2.798
MS.305         	14.185         	2.777
MS.306         	14.155         	2.772
MS.307         	14.127         	2.535
MS.308         	14.1           	2.72
MS.309         	14.07          	2.65
MS.310         	14.042         	2.567
MS.311         	14.015         	2.355
MS.312         	13.987         	2.416
MS.313         	13.957         	2.391
MS.314         	13.93          	2.347
MS.315         	13.903         	2.437
MS.316         	13.875         	2.23
MS.317         	13.847         	2.218
MS.318         	13.82          	2.168
MS.319         	13.792         	2.217
MS.320         	13.765         	2.073
MS.321         	13.737         	2.139
MS.322         	13.71          	2.083
MS.323         	13.682         	1.958
MS.324         	13.655         	1.915
MS.325         	13.627         	1.881
MS.326         	13.6           	1.992
MS.327         	13.572         	1.962
MS.328         	13.545         	1.721
MS.329         	13.52          	1.759
MS.330         	13.492         	1.688
MS.331         	13.465         	1.654
MS.332         	13.438         	1.638
MS.333         	13.412         	1.649
MS.334         	13.385         	1.581
MS.335         	13.358         	1.598
MS.336         	13.33          	1.554
MS.337         	13.305         	1.498
MS.338         	13.278         	1.497
MS.339         	13.252         	1.447
MS.340         	13.225         	1.427
MS.341         	13.197         	1.306
MS.342         	13.172         	1.34
MS.343         	13.145         	1.31
MS.344         	13.12          	1.299
MS.345         	13.092         	1.326
MS.346         	13.068         	1.217
MS.347         	13.04          	1.188
MS.348         	13.015         	1.199
MS.349         	12.99          	1.149
MS.350         	12.962         	1.18
MS.351         	12.938         	1.195
MS.352         	12.91          	1.218
MS.353         	12.885         	1.074
MS.354         	12.86          	1.075
MS.355         	12.835         	0.97
MS.356         	12.807         	1.135
MS.357         	12.782         	1.01
MS.358         	12.757         	0.973
MS.359         	12.733         	1.007
MS.360         	12.707         	0.935
MS.361         	12.68          	0.958
MS.362         	12.655         	0.967
MS.363         	12.63          	0.874
MS.364         	12.605         	0.885
MS.365         	12.58          	0.934
MS.366         	12.555         	0.906
MS.367         	12.53          	0.861
MS.368         	12.505         	0.824
MS.369         	12.48          	0.78
MS.370         	12.455         	0.762
MS.371         	12.43          	0.813
MS.372         	12.405         	0.715
MS.373         	12.38          	0.691
MS.374         	12.355         	0.702
MS.375         	12.33          	0.74
MS.376         	12.305         	0.603
MS.377         	12.282         	0.664
MS.378         	12.257         	0.638
MS.379         	12.233         	0.74
MS.380         	12.207         	0.642
MS.381         	12.182         	0.555
MS.382         	12.16          	0.585
MS.383         	12.135         	0.583
MS.384         	12.11          	0.519
MS.385         	12.087         	0.581
MS.386         	12.062         	0.603
MS.387         	12.037         	0.553
MS.388         	12.015         	0.481
MS.389         	11.99          	0.482
MS.390         	11.967         	0.557
MS.391         	11.943         	0.503
MS.392         	11.917         	0.499
MS.393         	11.895         	0.41
MS.394         	11.87          	0.38
MS.395         	11.847         	0.352
MS.396         	11.822         	0.427
MS.397         	11.8           	0.433
MS.398         	11.778         	0.404
MS.399         	11.752         	0.402
MS.400         	11.73          	0.363
MS.401         	11.705         	0.382
MS.402         	11.682         	0.314
MS.403         	11.66          	0.305
MS.404         	11.635         	0.31
MS.405         	11.613         	0.333
MS.406         	11.59          	0.332
MS.407         	11.568         	0.288
MS.408         	11.542         	0.276
MS.409         	11.52          	0.228
MS.410         	11.497         	0.237
MS.411         	11.475         	0.236
MS.412         	11.45          	0.264
MS.413         	11.427         	0.269
MS.414         	11.405         	0.231
MS.415         	11.382         	0.201
MS.416         	11.36          	0.237
MS.417         	11.337         	0.217
MS.418         	11.315         	0.182
MS.419         	11.292         	0.236
MS.420         	11.27          	0.178
MS.421         	11.247         	0.192
MS.422         	11.225         	0.197
MS.423         	11.202         	0.172
MS.424         	11.18          	0.157
MS.425         	11.157         	0.187
MS.426         	11.135         	0.148
MS.427         	11.113         	0.126
MS.428         	11.09          	0.15
MS.429         	11.068         	0.157
MS.430         	11.047         	0.131
MS.431         	11.025         	0.149
MS.432         	11.002         	0.12
MS.433         	10.98          	0.14
MS.434         	10.957         	0.09
MS.435         	10.938         	0.125
MS.436         	10.915         	0.098
MS.437         	10.892         	0.109
MS.438         	10.87          	0.095
MS.439         	10.85          	0.116
MS.440         	10.827         	0.114
MS.441         	10.805         	0.052
MS.442         	10.785         	0.106
MS.443         	10.762         	0.104
MS.444         	10.742         	0.066
MS.445         	10.72          	0.085
MS.446         	10.698         	0.087
MS.447         	10.677         	0.1
MS.448         	10.655         	0.087
MS.449         	10.635         	0.088
MS.450         	10.613         	0.09
MS.451         	10.592         	0.057
MS.452         	10.57          	0.057
MS.453         	10.55          	0.051
MS.454         	10.528         	0.074
MS.455         	10.507         	0.076
MS.456         	10.488         	0.068
MS.457         	10.465         	0.068
MS.458         	10.445         	0.079
MS.459         	10.425         	0.07
MS.460         	10.403         	0.065
MS.461         	10.382         	0.062
MS.462         	10.363         	0.066
MS.463         	10.34          	0.072
MS.464         	10.32          	0.063
MS.465         	10.3           	0.056
MS.466         	10.28          	0.062
MS.467         	10.257         	0.067
MS.468         	10.238         	0.046
MS.469         	10.217         	0.059
MS.470         	10.198         	0.048
MS.471         	10.177         	0.045
MS.472         	10.157         	0.057
MS.473         	10.135         	0.056
MS.474         	10.115         	0.049
MS.475         	10.095         	0.059
MS.476         	10.075         	0.051
MS.477         	10.055         	0.042
MS.478         	10.035         	0.05
MS.479         	10.015         	0.046
MS.480         	9.995          	0.044
MS.481         	9.975          	0.049
MS.482         	9.955          	0.045
DERIVED EXCITABILITY VARIABLES
Program = QTracP 3/4/2020
Threshold method = 6 (optimised for CAP, using data for present condition only)
SR method = 1 (using actual data values)
6.                 	0.000               	Peak response\(mV)
9.                 	30.3                	Temperature ( C)
17.                	43                  	Age (years)
18.                	2                   	Sex (M=1, F=2)

EXTRA VARIABLES

MScPeak(mV) = 9.06
MScS5(mA) = 11.91
MScS50(mA) = 15.42
MScS95(mA) = 20.19
MScNSteps = 1
MScSteps(%) = 2.6
MScStepMax(%) = 2.6
MScD50 = 60
MScSlope = 4.57
MSFPeakAmp(mV) = 9.03
MSFNUnits = 189
MSFMeanUnitAmp(uV) = 47.8
MSFHuntTime(m) = 2.92
MSFError(%) = 1.95
MSFNLarge = 64.67
