File:              	C:\Qtrac\Data\Daniel M Sørensen\MScan multicentre study\Data from centres\Toronto\Processed data\MSCC01120A.QZD
Name:              	CA.TOR.NC.4.2
Protocol:          	MSCAN-R2
Date:              	20/11/20
Start time:        	09:51:20
Age:               	30
Sex:               	M
Temperature:       	32.2
S/R sites:         	APB
NC/disease:        	NC
Operator:          	LP
Comments:
M-SCAN DATA (5.1-1.2m)
Scanpts: 86, 93, 415, 437
Stim. (mA)     	Amp. (mV)
MS.1           	20             	12.649
MS.2           	20             	12.659
MS.3           	20             	12.653
MS.4           	20             	12.631
MS.5           	20             	12.621
MS.6           	20             	12.617
MS.7           	20             	12.627
MS.8           	20             	12.621
MS.9           	20             	12.629
MS.10          	20             	12.631
MS.11          	20             	12.643
MS.12          	20             	12.655
MS.13          	20             	12.657
MS.14          	20             	12.673
MS.15          	20             	12.671
MS.16          	20             	12.663
MS.17          	20             	12.673
MS.18          	20             	12.665
MS.19          	20             	12.673
MS.20          	20             	12.671
MS.21          	20             	12.683
MS.22          	20             	12.671
MS.23          	20             	12.671
MS.24          	19.92          	12.683
MS.25          	19.88          	12.671
MS.26          	19.84          	12.693
MS.27          	19.8           	12.689
MS.28          	19.762         	12.689
MS.29          	19.722         	12.691
MS.30          	19.682         	12.697
MS.31          	19.642         	12.689
MS.32          	19.605         	12.695
MS.33          	19.565         	12.693
MS.34          	19.525         	12.703
MS.35          	19.487         	12.689
MS.36          	19.448         	12.695
MS.37          	19.41          	12.703
MS.38          	19.37          	12.715
MS.39          	19.333         	12.707
MS.40          	19.292         	12.744
MS.41          	19.255         	12.707
MS.42          	19.215         	12.738
MS.43          	19.177         	12.748
MS.44          	19.14          	12.76
MS.45          	19.1           	12.788
MS.46          	19.062         	12.762
MS.47          	19.025         	12.719
MS.48          	18.987         	12.683
MS.49          	18.948         	12.79
MS.50          	18.91          	12.725
MS.51          	18.872         	12.548
MS.52          	18.835         	12.655
MS.53          	18.797         	12.748
MS.54          	18.76          	12.738
MS.55          	18.722         	12.597
MS.56          	18.685         	12.836
MS.57          	18.647         	12.732
MS.58          	18.61          	12.683
MS.59          	18.573         	12.564
MS.60          	18.535         	12.687
MS.61          	18.5           	12.595
MS.62          	18.462         	12.566
MS.63          	18.425         	12.611
MS.64          	18.387         	12.772
MS.65          	18.352         	12.756
MS.66          	18.315         	12.607
MS.67          	18.278         	12.613
MS.68          	18.243         	12.621
MS.69          	18.205         	12.709
MS.70          	18.17          	12.635
MS.71          	18.132         	12.619
MS.72          	18.097         	12.619
MS.73          	18.06          	12.631
MS.74          	18.025         	12.631
MS.75          	17.987         	12.635
MS.76          	17.952         	12.621
MS.77          	17.917         	12.635
MS.78          	17.88          	12.645
MS.79          	17.845         	12.623
MS.80          	17.81          	12.617
MS.81          	17.775         	12.639
MS.82          	17.737         	12.631
MS.83          	17.702         	12.647
MS.84          	17.667         	12.663
MS.85          	17.632         	12.661
MS.86          	17.597         	12.673
MS.87          	17.562         	12.663
MS.88          	17.528         	12.671
MS.89          	17.493         	12.671
MS.90          	17.458         	12.681
MS.91          	17.422         	12.691
MS.92          	17.387         	12.699
MS.93          	17.352         	12.717
MS.94          	17.317         	12.633
MS.95          	17.282         	12.732
MS.96          	17.247         	12.738
MS.97          	17.215         	12.701
MS.98          	17.18          	12.746
MS.99          	17.145         	12.637
MS.100         	17.11          	12.627
MS.101         	17.077         	12.647
MS.102         	17.042         	12.655
MS.103         	17.01          	12.649
MS.104         	16.975         	12.629
MS.105         	16.94          	12.707
MS.106         	16.907         	12.687
MS.107         	16.872         	12.665
MS.108         	16.84          	12.782
MS.109         	16.805         	12.645
MS.110         	16.772         	12.667
MS.111         	16.74          	12.643
MS.112         	16.705         	12.681
MS.113         	16.672         	12.705
MS.114         	16.637         	12.655
MS.115         	16.605         	12.677
MS.116         	16.573         	12.693
MS.117         	16.54          	12.645
MS.118         	16.505         	12.709
MS.119         	16.472         	12.633
MS.120         	16.44          	12.689
MS.121         	16.407         	12.486
MS.122         	16.375         	12.633
MS.123         	16.342         	12.635
MS.124         	16.31          	12.381
MS.125         	16.278         	12.339
MS.126         	16.245         	12.439
MS.127         	16.212         	12.371
MS.128         	16.18          	12.393
MS.129         	16.147         	12.407
MS.130         	16.115         	12.365
MS.131         	16.083         	12.397
MS.132         	16.05          	12.339
MS.133         	16.017         	12.369
MS.134         	15.985         	12.339
MS.135         	15.955         	12.256
MS.136         	15.922         	12.274
MS.137         	15.89          	12.317
MS.138         	15.86          	12.266
MS.139         	15.827         	12.222
MS.140         	15.795         	12.284
MS.141         	15.765         	12.3
MS.142         	15.733         	12.172
MS.143         	15.7           	12.174
MS.144         	15.67          	12.254
MS.145         	15.637         	12.248
MS.146         	15.608         	12.226
MS.147         	15.575         	12.059
MS.148         	15.545         	12.008
MS.149         	15.515         	11.871
MS.150         	15.483         	11.785
MS.151         	15.452         	12.19
MS.152         	15.42          	12.01
MS.153         	15.39          	11.922
MS.154         	15.36          	11.624
MS.155         	15.327         	11.531
MS.156         	15.297         	11.865
MS.157         	15.267         	11.71
MS.158         	15.237         	11.481
MS.159         	15.207         	11.374
MS.160         	15.175         	11.503
MS.161         	15.145         	11.251
MS.162         	15.115         	11.223
MS.163         	15.085         	11.122
MS.164         	15.055         	11.44
MS.165         	15.025         	10.921
MS.166         	14.995         	11.096
MS.167         	14.965         	11.412
MS.168         	14.935         	10.373
MS.169         	14.905         	10.671
MS.170         	14.875         	10.21
MS.171         	14.845         	10.043
MS.172         	14.818         	10.073
MS.173         	14.787         	10.294
MS.174         	14.757         	10.101
MS.175         	14.727         	10.52
MS.176         	14.697         	9.773
MS.177         	14.67          	10.2
MS.178         	14.64          	9.869
MS.179         	14.61          	9.942
MS.180         	14.58          	9.67
MS.181         	14.552         	9.493
MS.182         	14.523         	9.751
MS.183         	14.495         	9.573
MS.184         	14.465         	9.154
MS.185         	14.435         	9.436
MS.186         	14.407         	9.086
MS.187         	14.377         	9.148
MS.188         	14.35          	9.122
MS.189         	14.32          	9.042
MS.190         	14.292         	9.374
MS.191         	14.265         	8.884
MS.192         	14.235         	8.784
MS.193         	14.207         	8.584
MS.194         	14.177         	8.558
MS.195         	14.15          	8.341
MS.196         	14.122         	7.845
MS.197         	14.092         	8.01
MS.198         	14.065         	8.063
MS.199         	14.037         	8.27
MS.200         	14.01          	8.123
MS.201         	13.983         	7.658
MS.202         	13.952         	7.428
MS.203         	13.925         	7.855
MS.204         	13.898         	7.013
MS.205         	13.87          	7.332
MS.206         	13.842         	7.757
MS.207         	13.815         	7.084
MS.208         	13.787         	7.634
MS.209         	13.76          	6.755
MS.210         	13.733         	7.023
MS.211         	13.705         	6.665
MS.212         	13.677         	6.876
MS.213         	13.65          	6.387
MS.214         	13.622         	6.218
MS.215         	13.595         	6.419
MS.216         	13.568         	6.433
MS.217         	13.54          	6.109
MS.218         	13.515         	6.32
MS.219         	13.487         	5.978
MS.220         	13.46          	5.968
MS.221         	13.432         	6.002
MS.222         	13.407         	5.893
MS.223         	13.38          	6.032
MS.224         	13.352         	5.517
MS.225         	13.325         	5.813
MS.226         	13.3           	5.37
MS.227         	13.273         	5.62
MS.228         	13.247         	5.203
MS.229         	13.22          	5.076
MS.230         	13.193         	5.368
MS.231         	13.167         	5.241
MS.232         	13.14          	5.017
MS.233         	13.115         	4.999
MS.234         	13.087         	4.77
MS.235         	13.062         	4.546
MS.236         	13.035         	4.659
MS.237         	13.01          	4.713
MS.238         	12.985         	4.248
MS.239         	12.957         	4.524
MS.240         	12.932         	4.222
MS.241         	12.907         	3.924
MS.242         	12.88          	4.218
MS.243         	12.855         	4.256
MS.244         	12.83          	4.131
MS.245         	12.802         	3.64
MS.246         	12.778         	3.583
MS.247         	12.752         	3.394
MS.248         	12.727         	3.537
MS.249         	12.702         	3.607
MS.250         	12.675         	3.309
MS.251         	12.65          	3.648
MS.252         	12.625         	3.577
MS.253         	12.6           	3.243
MS.254         	12.575         	3.307
MS.255         	12.55          	3.066
MS.256         	12.525         	3.005
MS.257         	12.5           	3.015
MS.258         	12.475         	3.062
MS.259         	12.45          	2.931
MS.260         	12.425         	2.955
MS.261         	12.4           	2.788
MS.262         	12.375         	2.949
MS.263         	12.35          	2.693
MS.264         	12.325         	2.653
MS.265         	12.302         	2.79
MS.266         	12.278         	2.683
MS.267         	12.252         	2.562
MS.268         	12.227         	2.199
MS.269         	12.202         	2.854
MS.270         	12.18          	2.433
MS.271         	12.155         	2.363
MS.272         	12.13          	2.284
MS.273         	12.108         	2.103
MS.274         	12.082         	2.272
MS.275         	12.057         	2.22
MS.276         	12.035         	2.181
MS.277         	12.01          	1.956
MS.278         	11.985         	1.821
MS.279         	11.962         	2.022
MS.280         	11.938         	2.115
MS.281         	11.915         	1.809
MS.282         	11.89          	1.76
MS.283         	11.867         	1.901
MS.284         	11.842         	1.682
MS.285         	11.82          	1.672
MS.286         	11.795         	1.629
MS.287         	11.773         	1.605
MS.288         	11.747         	1.452
MS.289         	11.725         	1.529
MS.290         	11.702         	1.46
MS.291         	11.677         	1.398
MS.292         	11.655         	1.418
MS.293         	11.632         	1.269
MS.294         	11.608         	1.335
MS.295         	11.585         	1.257
MS.296         	11.562         	1.233
MS.297         	11.54          	1.118
MS.298         	11.515         	1.17
MS.299         	11.492         	1.12
MS.300         	11.47          	0.898
MS.301         	11.447         	1.096
MS.302         	11.425         	0.973
MS.303         	11.403         	0.918
MS.304         	11.377         	0.747
MS.305         	11.355         	0.947
MS.306         	11.332         	0.765
MS.307         	11.31          	0.955
MS.308         	11.287         	0.842
MS.309         	11.265         	0.709
MS.310         	11.242         	0.852
MS.311         	11.22          	0.81
MS.312         	11.197         	0.667
MS.313         	11.175         	0.604
MS.314         	11.153         	0.721
MS.315         	11.13          	0.594
MS.316         	11.108         	0.55
MS.317         	11.087         	0.59
MS.318         	11.065         	0.562
MS.319         	11.042         	0.528
MS.320         	11.02          	0.502
MS.321         	10.997         	0.431
MS.322         	10.975         	0.473
MS.323         	10.955         	0.526
MS.324         	10.932         	0.423
MS.325         	10.91          	0.389
MS.326         	10.887         	0.459
MS.327         	10.867         	0.35
MS.328         	10.845         	0.457
MS.329         	10.823         	0.477
MS.330         	10.802         	0.421
MS.331         	10.78          	0.308
MS.332         	10.76          	0.28
MS.333         	10.738         	0.375
MS.334         	10.715         	0.316
MS.335         	10.695         	0.354
MS.336         	10.672         	0.26
MS.337         	10.653         	0.336
MS.338         	10.63          	0.346
MS.339         	10.61          	0.296
MS.340         	10.587         	0.23
MS.341         	10.568         	0.23
MS.342         	10.545         	0.28
MS.343         	10.525         	0.189
MS.344         	10.502         	0.244
MS.345         	10.483         	0.218
MS.346         	10.462         	0.24
MS.347         	10.44          	0.211
MS.348         	10.42          	0.195
MS.349         	10.4           	0.187
MS.350         	10.377         	0.228
MS.351         	10.358         	0.205
MS.352         	10.337         	0.201
MS.353         	10.318         	0.189
MS.354         	10.295         	0.207
MS.355         	10.275         	0.195
MS.356         	10.255         	0.242
MS.357         	10.235         	0.201
MS.358         	10.212         	0.163
MS.359         	10.193         	0.183
MS.360         	10.172         	0.199
MS.361         	10.153         	0.087
MS.362         	10.132         	0.189
MS.363         	10.113         	0.129
MS.364         	10.092         	0.151
MS.365         	10.073         	0.075
MS.366         	10.052         	0.073
MS.367         	10.032         	0.081
MS.368         	10.012         	0.139
MS.369         	9.992          	0.135
MS.370         	9.972          	0.048
MS.371         	9.952          	0.028
MS.372         	9.932          	0.016
MS.373         	9.912          	0.016
MS.374         	9.892          	0.06
MS.375         	9.872          	0.016
MS.376         	9.852          	0.026
MS.377         	9.832          	0.028
MS.378         	9.812          	0.064
MS.379         	9.792          	0.012
MS.380         	9.775          	0.012
MS.381         	9.755          	0.02
MS.382         	9.735          	0.024
MS.383         	9.715          	0.06
MS.384         	9.695          	0.018
MS.385         	9.677          	0.014
MS.386         	9.657          	0.012
MS.387         	9.637          	0.008
MS.388         	9.62           	0.008
MS.389         	9.6            	0.004
MS.390         	9.58           	0.014
MS.391         	9.562          	0.018
MS.392         	9.542          	-0.002
MS.393         	9.523          	0.018
MS.394         	9.505          	0.02
MS.395         	9.485          	0.006
MS.396         	9.465          	0.022
MS.397         	9.448          	0.022
MS.398         	9.427          	-0.004
MS.399         	9.41           	0.000
MS.400         	9.39           	0.012
MS.401         	9.372          	0.014
MS.402         	9.352          	0.01
MS.403         	9.335          	0.006
MS.404         	9.315          	0.014
MS.405         	9.297          	0.006
MS.406         	9.28           	0.012
MS.407         	9.26           	0.012
MS.408         	9.242          	0.004
MS.409         	9.222          	0.000
MS.410         	9.205          	0.000
MS.411         	9.188          	0.000
MS.412         	9.167          	0.006
MS.413         	9.15           	0.006
MS.414         	9.132          	0.002
MS.415         	9.113          	-0.004
MS.416         	9.095          	0.002
MS.417         	9.077          	0.000
MS.418         	9.057          	0.002
MS.419         	9.04           	0.004
MS.420         	9.023          	0.000
MS.421         	9.005          	0.004
MS.422         	8.988          	-0.002
MS.423         	8.967          	0.002
MS.424         	8.95           	-0.002
MS.425         	8.932          	0.004
MS.426         	8.915          	0.006
MS.427         	8.898          	0.004
MS.428         	8.88           	0.000
MS.429         	8.863          	0.004
MS.430         	8.845          	0.000
MS.431         	8.825          	0.004
MS.432         	8.807          	-0.002
MS.433         	8.79           	0.000
MS.434         	8.773          	0.002
MS.435         	8.755          	0.002
MS.436         	8.738          	0.002
MS.437         	8.72           	0.002
DERIVED EXCITABILITY VARIABLES
Program = QTracP 3/4/2020
Threshold method = 6 (optimised for CAP, using data for present condition only)
SR method = 1 (using actual data values)
6.                 	0.000               	Peak response\(mV)
9.                 	32.2                	Temperature ( C)
17.                	30                  	Age (years)
18.                	1                   	Sex (M=1, F=2)

EXTRA VARIABLES

MScPeak(mV) = 12.65
MScS5(mA) = 11.16
MScS50(mA) = 13.6
MScS95(mA) = 15.48
MScNSteps = 1
MScSteps(%) = 2.1
MScStepMax(%) = 2.1
MScD50 = 42
MScSlope = 7.05
MSFPeakAmp(mV) = 12.7
MSFNUnits = 150
MSFMeanUnitAmp(uV) = 84.5
MSFHuntTime(m) = 2.27
MSFError(%) = 4.59
MSFNLarge = 46.03
MSFMedianAmp(%) = 0.565
MSFMedianAmp(mV) = 0.0716
MSFHalfAmpAmp(%) = 0.653
MSFHalfAmpAmp(mV) = 0.0829
MSFLargestAmp(%) = 3.08
MSFLargestAmp(mV) = 0.39
MSFMeanRS(%) = 2
MSFOpts = 10106121
MScDuration(min) = 3.9
MSFTraces = 352
MSFSizeLimit(uV) = 31.7
MSFLimitType = 1
MSFSmallestAmp(uV) = 34.1

EXTRA WAVEFORMS


!MScan Model
!150
	1	9.92	0.38	2
	2	10.03	0.49	2
	3	10.04	0.4	2
	4	10.16	0.44	2
	5	10.58	0.43	2
	6	10.67	0.27	2
	7	10.8	0.6	2
	8	10.89	0.38	2
	9	10.97	0.41	2
	10	11.03	0.38	2
	11	11.07	0.36	2
	12	11.12	0.39	2
	13	11.17	0.46	2
	14	11.21	0.34	2
	15	11.28	0.62	2
	16	11.34	0.5	2
	17	11.38	0.39	2
	18	11.41	0.39	2
	19	11.45	0.6	2
	20	11.49	0.39	2
	21	11.52	0.4	2
	22	11.54	0.29	2
	23	11.57	0.44	2
	24	11.6	0.51	2
	25	11.64	0.5	2
	26	11.67	0.31	2
	27	11.69	0.33	2
	28	11.71	0.35	2
	29	11.74	0.36	2
	30	11.76	0.4	2
	31	11.79	0.42	2
	32	11.8	0.27	2
	33	11.82	0.35	2
	34	11.85	0.39	2
	35	11.89	0.48	2
	36	11.92	0.49	2
	37	11.95	0.49	2
	38	11.98	0.5	2
	39	12.01	0.46	2
	40	12.04	0.45	2
	41	12.07	0.55	2
	42	12.11	0.56	2
	43	12.15	0.8	2
	44	12.19	0.79	2
	45	12.24	0.62	2
	46	12.28	0.74	2
	47	12.31	0.46	2
	48	12.34	0.29	2
	49	12.37	0.44	2
	50	12.4	0.45	2
	51	12.43	0.45	2
	52	12.45	0.59	2
	53	12.48	0.57	2
	54	12.51	0.51	2
	55	12.55	0.78	2
	56	12.61	0.88	2
	57	12.66	0.77	2
	58	12.71	1.28	2
	59	12.76	1.18	2
	60	12.79	0.73	2
	61	12.82	0.51	2
	62	12.87	0.64	2
	63	12.89	0.62	2
	64	12.91	0.52	2
	65	12.92	0.52	2
	66	12.94	0.59	2
	67	12.96	0.63	2
	68	12.98	0.57	2
	69	13	0.54	2
	70	13.01	0.51	2
