File:              	C:\Qtrac\Data\Daniel M Sørensen\MScan multicentre study\Data from centres\Oulu\Processed data\OUHC01024B.QZD
Name:              	FL.OUL.NC.1.1
Protocol:          	MSCAN-R2
Date:              	24/10/20
Start time:        	11:56:10
Age:               	21
Sex:               	M
Temperature:       	33,3
S/R sites:         	ADM
NC/disease:        	NC
Operator:          	MK
Comments:          	One out of two on ADM on this NC
M-SCAN DATA (2.4-0.0m)
Scanpts: 2, 15, 490, 506
Stim. (mA)     	Amp. (mV)
MS.1           	38             	9.217
MS.2           	38             	9.048
MS.3           	37.925         	9.036
MS.4           	37.847         	9.219
MS.5           	37.772         	9.076
MS.6           	37.697         	9.183
MS.7           	37.622         	9.092
MS.8           	37.548         	8.991
MS.9           	37.472         	9.249
MS.10          	37.397         	9.12
MS.11          	37.322         	9.04
MS.12          	37.247         	9.036
MS.13          	37.173         	9.217
MS.14          	37.1           	9.05
MS.15          	37.025         	8.949
MS.16          	36.95          	9.146
MS.17          	36.877         	8.969
MS.18          	36.802         	9.015
MS.19          	36.73          	9.168
MS.20          	36.657         	9.088
MS.21          	36.583         	8.963
MS.22          	36.51          	8.915
MS.23          	36.438         	8.983
MS.24          	36.365         	8.607
MS.25          	36.292         	8.913
MS.26          	36.22          	8.85
MS.27          	36.147         	8.977
MS.28          	36.075         	8.84
MS.29          	36.002         	8.903
MS.30          	35.93          	8.929
MS.31          	35.857         	9.064
MS.32          	35.787         	8.913
MS.33          	35.715         	8.895
MS.34          	35.645         	8.828
MS.35          	35.572         	8.876
MS.36          	35.502         	8.886
MS.37          	35.43          	8.852
MS.38          	35.36          	8.816
MS.39          	35.29          	8.77
MS.40          	35.22          	8.852
MS.41          	35.147         	8.768
MS.42          	35.077         	8.852
MS.43          	35.007         	8.798
MS.44          	34.938         	8.886
MS.45          	34.868         	8.822
MS.46          	34.8           	8.915
MS.47          	34.73          	8.882
MS.48          	34.66          	9.023
MS.49          	34.59          	8.987
MS.50          	34.522         	9.003
MS.51          	34.452         	8.901
MS.52          	34.385         	8.852
MS.53          	34.315         	8.854
MS.54          	34.247         	9.011
MS.55          	34.177         	8.868
MS.56          	34.11          	8.949
MS.57          	34.042         	8.75
MS.58          	33.972         	8.778
MS.59          	33.905         	8.784
MS.60          	33.837         	8.754
MS.61          	33.77          	8.933
MS.62          	33.702         	8.762
MS.63          	33.635         	8.609
MS.64          	33.568         	8.917
MS.65          	33.502         	8.899
MS.66          	33.435         	8.884
MS.67          	33.368         	8.915
MS.68          	33.3           	8.745
MS.69          	33.235         	8.878
MS.70          	33.167         	8.832
MS.71          	33.103         	8.824
MS.72          	33.035         	8.727
MS.73          	32.97          	8.893
MS.74          	32.903         	8.81
MS.75          	32.837         	8.558
MS.76          	32.772         	8.752
MS.77          	32.708         	8.84
MS.78          	32.642         	8.538
MS.79          	32.577         	8.727
MS.80          	32.513         	8.528
MS.81          	32.447         	8.494
MS.82          	32.382         	8.776
MS.83          	32.318         	8.568
MS.84          	32.252         	8.516
MS.85          	32.188         	8.691
MS.86          	32.122         	8.147
MS.87          	32.06          	8.741
MS.88          	31.995         	8.403
MS.89          	31.932         	8.814
MS.90          	31.867         	8.466
MS.91          	31.805         	8.588
MS.92          	31.74          	8.568
MS.93          	31.677         	8.494
MS.94          	31.612         	8.447
MS.95          	31.55          	8.592
MS.96          	31.487         	8.566
MS.97          	31.425         	8.522
MS.98          	31.362         	8.683
MS.99          	31.3           	8.494
MS.100         	31.237         	8.548
MS.101         	31.175         	8.466
MS.102         	31.112         	8.502
MS.103         	31.05          	8.482
MS.104         	30.987         	8.419
MS.105         	30.925         	8.401
MS.106         	30.865         	8.486
MS.107         	30.802         	8.447
MS.108         	30.74          	8.248
MS.109         	30.68          	8.415
MS.110         	30.617         	8.369
MS.111         	30.557         	8.292
MS.112         	30.495         	8.367
MS.113         	30.435         	8.379
MS.114         	30.375         	8.228
MS.115         	30.312         	8.407
MS.116         	30.252         	8.18
MS.117         	30.192         	8.429
MS.118         	30.132         	8.111
MS.119         	30.073         	8.26
MS.120         	30.012         	8.286
MS.121         	29.952         	8.349
MS.122         	29.892         	8.248
MS.123         	29.832         	8.268
MS.124         	29.772         	8.081
MS.125         	29.712         	8.214
MS.126         	29.653         	8.32
MS.127         	29.595         	8.141
MS.128         	29.535         	8.157
MS.129         	29.477         	8.095
MS.130         	29.417         	8.155
MS.131         	29.358         	8.103
MS.132         	29.3           	8.224
MS.133         	29.242         	8.224
MS.134         	29.182         	8.351
MS.135         	29.125         	7.962
MS.136         	29.067         	8.069
MS.137         	29.007         	7.769
MS.138         	28.95          	7.833
MS.139         	28.892         	8.306
MS.140         	28.835         	8.087
MS.141         	28.778         	7.865
MS.142         	28.72          	7.769
MS.143         	28.662         	8.004
MS.144         	28.605         	7.634
MS.145         	28.547         	7.918
MS.146         	28.49          	7.648
MS.147         	28.435         	7.761
MS.148         	28.377         	7.473
MS.149         	28.32          	7.704
MS.150         	28.265         	7.734
MS.151         	28.207         	7.928
MS.152         	28.15          	7.38
MS.153         	28.095         	7.664
MS.154         	28.037         	7.372
MS.155         	27.983         	7.519
MS.156         	27.927         	7.483
MS.157         	27.87          	7.243
MS.158         	27.815         	7.162
MS.159         	27.76          	7.346
MS.160         	27.705         	7.422
MS.161         	27.65          	7.154
MS.162         	27.592         	7.203
MS.163         	27.537         	7.255
MS.164         	27.483         	7.072
MS.165         	27.427         	7.122
MS.166         	27.375         	7.219
MS.167         	27.32          	6.919
MS.168         	27.265         	6.977
MS.169         	27.21          	6.776
MS.170         	27.155         	6.856
MS.171         	27.102         	6.814
MS.172         	27.047         	6.79
MS.173         	26.993         	6.621
MS.174         	26.94          	6.445
MS.175         	26.885         	6.661
MS.176         	26.832         	6.409
MS.177         	26.778         	6.222
MS.178         	26.725         	6.655
MS.179         	26.672         	6.802
MS.180         	26.618         	6.361
MS.181         	26.565         	6.677
MS.182         	26.512         	6.097
MS.183         	26.457         	6.413
MS.184         	26.405         	6.222
MS.185         	26.352         	6.474
MS.186         	26.3           	6.25
MS.187         	26.247         	6.175
MS.188         	26.195         	5.94
MS.189         	26.142         	6.413
MS.190         	26.09          	6.256
MS.191         	26.04          	6.337
MS.192         	25.987         	5.984
MS.193         	25.935         	5.879
MS.194         	25.882         	6.304
MS.195         	25.832         	5.676
MS.196         	25.78          	5.72
MS.197         	25.727         	5.702
MS.198         	25.677         	6.185
MS.199         	25.625         	5.487
MS.200         	25.575         	5.843
MS.201         	25.522         	5.69
MS.202         	25.472         	5.91
MS.203         	25.422         	5.571
MS.204         	25.37          	5.821
MS.205         	25.32          	5.634
MS.206         	25.27          	5.789
MS.207         	25.217         	5.686
MS.208         	25.167         	5.622
MS.209         	25.118         	5.565
MS.210         	25.067         	5.547
MS.211         	25.017         	5.565
MS.212         	24.967         	5.605
MS.213         	24.917         	5.344
MS.214         	24.868         	5.579
MS.215         	24.817         	5.422
MS.216         	24.77          	5.344
MS.217         	24.72          	5.277
MS.218         	24.67          	5.422
MS.219         	24.62          	5.4
MS.220         	24.573         	5.416
MS.221         	24.522         	5.227
MS.222         	24.472         	5.178
MS.223         	24.425         	5.313
MS.224         	24.375         	4.917
MS.225         	24.327         	5.148
MS.226         	24.278         	5.142
MS.227         	24.23          	5.227
MS.228         	24.182         	4.957
MS.229         	24.132         	4.417
MS.230         	24.085         	4.808
MS.231         	24.038         	5.009
MS.232         	23.99          	5.086
MS.233         	23.94          	4.888
MS.234         	23.892         	4.608
MS.235         	23.845         	4.888
MS.236         	23.797         	4.921
MS.237         	23.75          	4.625
MS.238         	23.702         	4.862
MS.239         	23.655         	4.405
MS.240         	23.608         	4.604
MS.241         	23.56          	4.264
MS.242         	23.515         	4.363
MS.243         	23.467         	4.282
MS.244         	23.42          	4.318
MS.245         	23.372         	4.292
MS.246         	23.327         	4.26
MS.247         	23.28          	4.212
MS.248         	23.233         	4.548
MS.249         	23.188         	4.264
MS.250         	23.14          	4.135
MS.251         	23.095         	4.236
MS.252         	23.047         	4.242
MS.253         	23.002         	4.216
MS.254         	22.955         	4.157
MS.255         	22.91          	4.173
MS.256         	22.865         	4.077
MS.257         	22.82          	4.101
MS.258         	22.772         	4.079
MS.259         	22.727         	4.125
MS.260         	22.682         	4.002
MS.261         	22.637         	4.129
MS.262         	22.592         	4.079
MS.263         	22.547         	3.998
MS.264         	22.502         	3.926
MS.265         	22.457         	3.909
MS.266         	22.413         	4.061
MS.267         	22.368         	3.559
MS.268         	22.323         	3.956
MS.269         	22.278         	3.867
MS.270         	22.233         	3.764
MS.271         	22.19          	3.736
MS.272         	22.145         	3.75
MS.273         	22.1           	3.851
MS.274         	22.055         	3.682
MS.275         	22.012         	3.581
MS.276         	21.967         	3.833
MS.277         	21.925         	3.613
MS.278         	21.88          	3.73
MS.279         	21.837         	3.696
MS.280         	21.792         	3.527
MS.281         	21.75          	3.66
MS.282         	21.705         	3.513
MS.283         	21.663         	3.484
MS.284         	21.62          	3.644
MS.285         	21.575         	3.728
MS.286         	21.532         	3.493
MS.287         	21.49          	3.386
MS.288         	21.448         	3.499
MS.289         	21.405         	3.348
MS.290         	21.362         	3.489
MS.291         	21.32          	3.354
MS.292         	21.275         	3.348
MS.293         	21.233         	3.376
MS.294         	21.19          	3.285
MS.295         	21.15          	3.378
MS.296         	21.108         	3.386
MS.297         	21.065         	3.301
MS.298         	21.022         	2.983
MS.299         	20.98          	3.36
MS.300         	20.938         	3.323
MS.301         	20.897         	3.219
MS.302         	20.855         	3.303
MS.303         	20.812         	3.009
MS.304         	20.772         	2.818
MS.305         	20.73          	3.031
MS.306         	20.688         	2.755
MS.307         	20.647         	2.904
MS.308         	20.605         	2.908
MS.309         	20.565         	3.158
MS.310         	20.525         	2.739
MS.311         	20.483         	2.963
MS.312         	20.442         	2.753
MS.313         	20.4           	2.949
MS.314         	20.36          	2.858
MS.315         	20.32          	2.854
MS.316         	20.28          	2.763
MS.317         	20.237         	2.818
MS.318         	20.198         	2.709
MS.319         	20.157         	2.749
MS.320         	20.118         	2.788
MS.321         	20.077         	2.941
MS.322         	20.038         	2.63
MS.323         	19.997         	2.713
MS.324         	19.958         	2.721
MS.325         	19.917         	2.695
MS.326         	19.877         	2.663
MS.327         	19.837         	2.735
MS.328         	19.797         	2.649
MS.329         	19.757         	2.719
MS.330         	19.72          	2.671
MS.331         	19.68          	2.741
MS.332         	19.64          	2.602
MS.333         	19.6           	2.713
MS.334         	19.562         	2.604
MS.335         	19.522         	2.459
MS.336         	19.485         	2.661
MS.337         	19.445         	2.473
MS.338         	19.405         	2.586
MS.339         	19.368         	2.375
MS.340         	19.327         	2.558
MS.341         	19.29          	2.441
MS.342         	19.252         	2.397
MS.343         	19.212         	2.399
MS.344         	19.175         	2.264
MS.345         	19.137         	2.274
MS.346         	19.097         	2.492
MS.347         	19.06          	2.222
MS.348         	19.022         	2.266
MS.349         	18.985         	2.101
MS.350         	18.945         	2.203
MS.351         	18.907         	1.972
MS.352         	18.87          	2.129
MS.353         	18.833         	1.994
MS.354         	18.795         	2.042
MS.355         	18.757         	2.087
MS.356         	18.72          	1.901
MS.357         	18.682         	2.024
MS.358         	18.645         	1.897
MS.359         	18.608         	1.972
MS.360         	18.57          	2.016
MS.361         	18.532         	2.038
MS.362         	18.497         	1.905
MS.363         	18.46          	1.732
MS.364         	18.422         	1.94
MS.365         	18.385         	1.75
MS.366         	18.35          	1.897
MS.367         	18.312         	1.793
MS.368         	18.275         	1.817
MS.369         	18.24          	1.682
MS.370         	18.202         	1.94
MS.371         	18.167         	1.734
MS.372         	18.13          	1.915
MS.373         	18.095         	1.899
MS.374         	18.057         	1.462
MS.375         	18.022         	1.654
MS.376         	17.985         	1.734
MS.377         	17.95          	1.654
MS.378         	17.915         	1.732
MS.379         	17.878         	1.787
MS.380         	17.842         	1.783
MS.381         	17.807         	1.748
MS.382         	17.772         	1.599
MS.383         	17.735         	1.627
MS.384         	17.7           	1.597
MS.385         	17.665         	1.611
MS.386         	17.63          	1.571
MS.387         	17.595         	1.567
MS.388         	17.56          	1.36
MS.389         	17.525         	1.511
MS.390         	17.49          	1.47
MS.391         	17.455         	1.339
MS.392         	17.42          	1.225
MS.393         	17.385         	1.267
MS.394         	17.35          	1.156
MS.395         	17.315         	1.134
MS.396         	17.28          	1.116
MS.397         	17.245         	1.227
MS.398         	17.212         	1.265
MS.399         	17.177         	1.126
MS.400         	17.142         	1.285
MS.401         	17.108         	0.991
MS.402         	17.075         	1.122
MS.403         	17.04          	0.596
MS.404         	17.007         	0.864
MS.405         	16.972         	1.013
MS.406         	16.938         	0.393
MS.407         	16.905         	0.248
MS.408         	16.87          	0.739
MS.409         	16.837         	0.179
MS.410         	16.802         	1.045
MS.411         	16.77          	0.763
MS.412         	16.737         	0.276
MS.413         	16.702         	0.216
MS.414         	16.67          	0.725
MS.415         	16.637         	0.25
MS.416         	16.602         	0.256
MS.417         	16.57          	0.332
MS.418         	16.538         	0.284
MS.419         	16.503         	0.226
MS.420         	16.47          	0.749
MS.421         	16.438         	0.203
MS.422         	16.405         	0.612
MS.423         	16.372         	0.214
MS.424         	16.34          	0.737
MS.425         	16.307         	0.171
MS.426         	16.275         	0.733
MS.427         	16.243         	0.25
MS.428         	16.21          	0.211
MS.429         	16.177         	0.062
MS.430         	16.145         	0.234
MS.431         	16.112         	0.566
MS.432         	16.08          	0.236
MS.433         	16.047         	0.187
MS.434         	16.015         	0.211
MS.435         	15.985         	0.133
MS.436         	15.952         	0.197
MS.437         	15.92          	0.175
MS.438         	15.887         	0.228
MS.439         	15.858         	0.07
MS.440         	15.825         	0.175
MS.441         	15.792         	0.153
MS.442         	15.762         	0.512
MS.443         	15.73          	0.06
MS.444         	15.7           	0.07
MS.445         	15.667         	0.06
MS.446         	15.635         	0.064
MS.447         	15.605         	0.117
MS.448         	15.572         	0.141
MS.449         	15.542         	0.052
MS.450         	15.512         	0.056
MS.451         	15.48          	0.05
MS.452         	15.45          	0.058
MS.453         	15.42          	0.062
MS.454         	15.387         	0.107
MS.455         	15.358         	0.05
MS.456         	15.327         	0.05
MS.457         	15.295         	0.054
MS.458         	15.265         	0.054
MS.459         	15.235         	0.052
MS.460         	15.205         	0.05
MS.461         	15.175         	0.048
MS.462         	15.142         	0.064
MS.463         	15.112         	0.052
MS.464         	15.082         	0.05
MS.465         	15.052         	0.046
MS.466         	15.023         	0.048
MS.467         	14.992         	0.046
MS.468         	14.962         	0.042
MS.469         	14.932         	0.048
MS.470         	14.902         	0.044
MS.471         	14.872         	0.054
MS.472         	14.845         	0.05
MS.473         	14.815         	0.036
MS.474         	14.785         	0.048
MS.475         	14.755         	0.036
MS.476         	14.725         	0.038
MS.477         	14.695         	0.036
MS.478         	14.667         	0.032
MS.479         	14.637         	0.034
MS.480         	14.608         	0.032
MS.481         	14.58          	0.048
MS.482         	14.55          	0.032
MS.483         	14.52          	0.038
MS.484         	14.492         	0.05
MS.485         	14.462         	0.038
MS.486         	14.435         	0.03
MS.487         	14.405         	0.034
MS.488         	14.377         	0.048
MS.489         	14.347         	0.04
MS.490         	14.32          	0.03
MS.491         	14.29          	0.03
MS.492         	14.262         	0.03
MS.493         	14.233         	0.038
MS.494         	14.205         	0.032
MS.495         	14.177         	0.032
MS.496         	14.148         	0.032
MS.497         	14.12          	0.038
MS.498         	14.092         	0.032
MS.499         	14.062         	0.034
MS.500         	14.035         	0.028
