File:              	C:\Qtrac\Data\Daniel M Sørensen\MScan multicentre study\Data from centres\Oulu\Processed data\OUHC01106C.QZD
Name:              	FL.OUL.NC.2.2
Protocol:          	MSCAN-R2
Date:              	6/11/20
Start time:        	09:02:09
Age:               	63
Sex:               	F
Temperature:       	33,9
S/R sites:         	TA
NC/disease:        	NC
Operator:          	MK
Comments:
M-SCAN DATA (1.8-0.0m)
Scanpts: 7, 11, 469, 481
Stim. (mA)     	Amp. (mV)
MS.1           	21             	7.104
MS.2           	21             	7.108
MS.3           	20.915         	7.056
MS.4           	20.875         	7.068
MS.5           	20.833         	7.06
MS.6           	20.79          	7.031
MS.7           	20.75          	7.06
MS.8           	20.708         	7.013
MS.9           	20.667         	7.003
MS.10          	20.625         	7.035
MS.11          	20.585         	7.035
MS.12          	20.542         	7.037
MS.13          	20.502         	7.009
MS.14          	20.46          	7.035
MS.15          	20.42          	7.015
MS.16          	20.38          	6.989
MS.17          	20.337         	6.961
MS.18          	20.297         	6.993
MS.19          	20.257         	6.923
MS.20          	20.217         	6.983
MS.21          	20.177         	6.965
MS.22          	20.135         	6.909
MS.23          	20.095         	6.929
MS.24          	20.055         	6.927
MS.25          	20.015         	6.929
MS.26          	19.975         	6.917
MS.27          	19.935         	6.981
MS.28          	19.895         	6.935
MS.29          	19.855         	6.898
MS.30          	19.817         	6.901
MS.31          	19.778         	6.884
MS.32          	19.737         	6.86
MS.33          	19.698         	6.907
MS.34          	19.657         	6.882
MS.35          	19.62          	6.83
MS.36          	19.58          	6.846
MS.37          	19.54          	6.856
MS.38          	19.502         	6.836
MS.39          	19.462         	6.848
MS.40          	19.425         	6.784
MS.41          	19.385         	6.858
MS.42          	19.347         	6.834
MS.43          	19.307         	6.768
MS.44          	19.27          	6.764
MS.45          	19.23          	6.733
MS.46          	19.192         	6.786
MS.47          	19.155         	6.755
MS.48          	19.115         	6.675
MS.49          	19.077         	6.707
MS.50          	19.04          	6.671
MS.51          	19.002         	6.665
MS.52          	18.962         	6.667
MS.53          	18.925         	6.629
MS.54          	18.887         	6.627
MS.55          	18.85          	6.695
MS.56          	18.812         	6.552
MS.57          	18.775         	6.582
MS.58          	18.737         	6.629
MS.59          	18.7           	6.592
MS.60          	18.663         	6.586
MS.61          	18.625         	6.51
MS.62          	18.587         	6.496
MS.63          	18.55          	6.53
MS.64          	18.515         	6.467
MS.65          	18.477         	6.411
MS.66          	18.44          	6.425
MS.67          	18.403         	6.463
MS.68          	18.368         	6.51
MS.69          	18.33          	6.387
MS.70          	18.292         	6.341
MS.71          	18.257         	6.443
MS.72          	18.22          	6.421
MS.73          	18.182         	6.343
MS.74          	18.147         	6.391
MS.75          	18.11          	6.355
MS.76          	18.075         	6.375
MS.77          	18.038         	6.361
MS.78          	18.003         	6.353
MS.79          	17.967         	6.306
MS.80          	17.93          	6.331
MS.81          	17.895         	6.254
MS.82          	17.86          	6.264
MS.83          	17.823         	6.312
MS.84          	17.788         	6.26
MS.85          	17.753         	6.204
MS.86          	17.717         	6.272
MS.87          	17.682         	6.242
MS.88          	17.645         	6.234
MS.89          	17.61          	6.234
MS.90          	17.575         	6.188
MS.91          	17.54          	6.206
MS.92          	17.505         	6.169
MS.93          	17.47          	6.155
MS.94          	17.435         	6.093
MS.95          	17.4           	6.149
MS.96          	17.365         	6.161
MS.97          	17.333         	6.161
MS.98          	17.297         	6.159
MS.99          	17.262         	6.077
MS.100         	17.227         	6.125
MS.101         	17.192         	5.982
MS.102         	17.16          	6.042
MS.103         	17.125         	6.047
MS.104         	17.09          	6.03
MS.105         	17.057         	5.972
MS.106         	17.022         	6.024
MS.107         	16.987         	5.954
MS.108         	16.955         	5.978
MS.109         	16.92          	5.91
MS.110         	16.887         	5.928
MS.111         	16.852         	5.837
MS.112         	16.82          	5.906
MS.113         	16.785         	5.827
MS.114         	16.753         	5.859
MS.115         	16.717         	5.879
MS.116         	16.685         	5.857
MS.117         	16.653         	5.855
MS.118         	16.618         	5.869
MS.119         	16.585         	5.779
MS.120         	16.552         	5.74
MS.121         	16.52          	5.654
MS.122         	16.485         	5.72
MS.123         	16.452         	5.636
MS.124         	16.42          	5.688
MS.125         	16.387         	5.726
MS.126         	16.355         	5.593
MS.127         	16.323         	5.607
MS.128         	16.29          	5.716
MS.129         	16.257         	5.521
MS.130         	16.225         	5.523
MS.131         	16.192         	5.531
MS.132         	16.16          	5.456
MS.133         	16.128         	5.509
MS.134         	16.095         	5.366
MS.135         	16.062         	5.517
MS.136         	16.03          	5.44
MS.137         	16             	5.378
MS.138         	15.967         	5.247
MS.139         	15.935         	5.366
MS.140         	15.902         	5.287
MS.141         	15.872         	5.466
MS.142         	15.84          	5.323
MS.143         	15.807         	5.209
MS.144         	15.777         	5.17
MS.145         	15.745         	5.257
MS.146         	15.712         	5.16
MS.147         	15.682         	5.168
MS.148         	15.65          	5.084
MS.149         	15.62          	5.08
MS.150         	15.587         	4.987
MS.151         	15.557         	5.019
MS.152         	15.525         	5.003
MS.153         	15.495         	4.923
MS.154         	15.465         	4.886
MS.155         	15.432         	4.82
MS.156         	15.402         	4.874
MS.157         	15.372         	4.786
MS.158         	15.34          	4.747
MS.159         	15.31          	4.866
MS.160         	15.28          	4.846
MS.161         	15.25          	4.81
MS.162         	15.217         	4.822
MS.163         	15.188         	4.695
MS.164         	15.157         	4.657
MS.165         	15.127         	4.562
MS.166         	15.097         	4.558
MS.167         	15.068         	4.612
MS.168         	15.037         	4.528
MS.169         	15.007         	4.526
MS.170         	14.977         	4.5
MS.171         	14.947         	4.475
MS.172         	14.917         	4.385
MS.173         	14.887         	4.459
MS.174         	14.858         	4.429
MS.175         	14.827         	4.371
MS.176         	14.797         	4.266
MS.177         	14.77          	4.298
MS.178         	14.74          	4.496
MS.179         	14.71          	4.294
MS.180         	14.68          	4.208
MS.181         	14.65          	4.32
MS.182         	14.622         	4.21
MS.183         	14.592         	4.208
MS.184         	14.562         	4.05
MS.185         	14.535         	4.248
MS.186         	14.505         	4.163
MS.187         	14.477         	4.129
MS.188         	14.447         	4.153
MS.189         	14.417         	4
MS.190         	14.39          	3.99
MS.191         	14.36          	4.038
MS.192         	14.332         	4.036
MS.193         	14.302         	4.03
MS.194         	14.275         	3.944
MS.195         	14.247         	3.974
MS.196         	14.217         	4.028
MS.197         	14.19          	3.861
MS.198         	14.162         	3.952
MS.199         	14.132         	3.805
MS.200         	14.105         	3.831
MS.201         	14.077         	3.859
MS.202         	14.047         	3.853
MS.203         	14.02          	3.787
MS.204         	13.992         	3.75
MS.205         	13.965         	3.603
MS.206         	13.938         	3.69
MS.207         	13.91          	3.656
MS.208         	13.88          	3.601
MS.209         	13.852         	3.644
MS.210         	13.825         	3.579
MS.211         	13.797         	3.515
MS.212         	13.77          	3.593
MS.213         	13.742         	3.456
MS.214         	13.715         	3.478
MS.215         	13.688         	3.476
MS.216         	13.66          	3.476
MS.217         	13.632         	3.4
MS.218         	13.605         	3.36
MS.219         	13.58          	3.372
MS.220         	13.552         	3.319
MS.221         	13.525         	3.269
MS.222         	13.497         	3.331
MS.223         	13.47          	3.259
MS.224         	13.445         	3.265
MS.225         	13.417         	3.227
MS.226         	13.39          	3.184
MS.227         	13.362         	3.253
MS.228         	13.337         	3.17
MS.229         	13.31          	3.116
MS.230         	13.282         	3.07
MS.231         	13.257         	3.066
MS.232         	13.23          	3.12
MS.233         	13.205         	3.021
MS.234         	13.177         	3.005
MS.235         	13.153         	2.971
MS.236         	13.125         	2.959
MS.237         	13.1           	2.904
MS.238         	13.072         	2.872
MS.239         	13.047         	2.767
MS.240         	13.02          	2.848
MS.241         	12.995         	2.751
MS.242         	12.967         	2.792
MS.243         	12.943         	2.679
MS.244         	12.917         	2.751
MS.245         	12.89          	2.524
MS.246         	12.865         	2.61
MS.247         	12.84          	2.522
MS.248         	12.812         	2.639
MS.249         	12.787         	2.604
MS.250         	12.762         	2.653
MS.251         	12.738         	2.431
MS.252         	12.712         	2.447
MS.253         	12.685         	2.453
MS.254         	12.66          	2.353
MS.255         	12.635         	2.266
MS.256         	12.61          	2.334
MS.257         	12.585         	2.342
MS.258         	12.56          	2.403
MS.259         	12.535         	2.332
MS.260         	12.51          	2.226
MS.261         	12.485         	2.437
MS.262         	12.46          	2.369
MS.263         	12.435         	2.145
MS.264         	12.41          	2.282
MS.265         	12.385         	2.318
MS.266         	12.36          	2.244
MS.267         	12.335         	2.169
MS.268         	12.312         	2.228
MS.269         	12.287         	2.232
MS.270         	12.262         	2.216
MS.271         	12.238         	2.157
MS.272         	12.212         	2.232
MS.273         	12.19          	2.036
MS.274         	12.165         	2.125
MS.275         	12.14          	2.075
MS.276         	12.115         	2.054
MS.277         	12.092         	2
MS.278         	12.068         	2.03
MS.279         	12.042         	1.857
MS.280         	12.02          	1.873
MS.281         	11.995         	1.922
MS.282         	11.972         	1.98
MS.283         	11.947         	1.909
MS.284         	11.922         	1.827
MS.285         	11.9           	1.805
MS.286         	11.875         	1.861
MS.287         	11.852         	1.869
MS.288         	11.827         	1.789
MS.289         	11.805         	1.726
MS.290         	11.782         	1.748
MS.291         	11.757         	1.756
MS.292         	11.735         	1.704
MS.293         	11.71          	1.873
MS.294         	11.688         	1.531
MS.295         	11.665         	1.646
MS.296         	11.64          	1.625
MS.297         	11.617         	1.545
MS.298         	11.595         	1.482
MS.299         	11.57          	1.549
MS.300         	11.547         	1.557
MS.301         	11.525         	1.414
MS.302         	11.502         	1.386
MS.303         	11.48          	1.319
MS.304         	11.455         	1.456
MS.305         	11.432         	1.468
MS.306         	11.41          	1.341
MS.307         	11.387         	1.36
MS.308         	11.365         	1.402
MS.309         	11.342         	1.368
MS.310         	11.32          	1.358
MS.311         	11.297         	1.299
MS.312         	11.275         	1.325
MS.313         	11.252         	1.289
MS.314         	11.23          	1.16
MS.315         	11.207         	1.158
MS.316         	11.185         	1.211
MS.317         	11.162         	1.186
MS.318         	11.14          	1.108
MS.319         	11.117         	1.126
MS.320         	11.095         	1.126
MS.321         	11.073         	1.142
MS.322         	11.05          	1.021
MS.323         	11.03          	0.989
MS.324         	11.007         	1.019
MS.325         	10.985         	0.983
MS.326         	10.962         	1.037
MS.327         	10.94          	0.959
MS.328         	10.92          	1.027
MS.329         	10.898         	0.898
MS.330         	10.875         	0.967
MS.331         	10.855         	0.949
MS.332         	10.832         	0.874
MS.333         	10.81          	0.9
MS.334         	10.79          	0.719
MS.335         	10.767         	0.745
MS.336         	10.745         	0.808
MS.337         	10.725         	0.9
MS.338         	10.702         	0.769
MS.339         	10.682         	0.796
MS.340         	10.66          	0.896
MS.341         	10.64          	0.777
MS.342         	10.617         	0.828
MS.343         	10.597         	0.725
MS.344         	10.575         	0.723
MS.345         	10.555         	0.769
MS.346         	10.532         	0.743
MS.347         	10.512         	0.763
MS.348         	10.49          	0.784
MS.349         	10.47          	0.647
MS.350         	10.45          	0.775
MS.351         	10.427         	0.584
MS.352         	10.407         	0.655
MS.353         	10.387         	0.681
MS.354         	10.365         	0.612
MS.355         	10.345         	0.586
MS.356         	10.325         	0.618
MS.357         	10.305         	0.622
MS.358         	10.282         	0.647
MS.359         	10.262         	0.6
MS.360         	10.242         	0.645
MS.361         	10.222         	0.546
MS.362         	10.202         	0.606
MS.363         	10.18          	0.596
MS.364         	10.16          	0.528
MS.365         	10.14          	0.504
MS.366         	10.12          	0.528
MS.367         	10.1           	0.522
MS.368         	10.08          	0.473
MS.369         	10.06          	0.506
MS.370         	10.04          	0.483
MS.371         	10.02          	0.479
MS.372         	10             	0.51
MS.373         	9.98           	0.497
MS.374         	9.96           	0.481
MS.375         	9.94           	0.459
MS.376         	9.92           	0.421
MS.377         	9.9            	0.365
MS.378         	9.88           	0.308
MS.379         	9.86           	0.397
MS.380         	9.84           	0.344
MS.381         	9.82           	0.294
MS.382         	9.802          	0.373
MS.383         	9.782          	0.316
MS.384         	9.762          	0.258
MS.385         	9.742          	0.417
MS.386         	9.722          	0.258
MS.387         	9.705          	0.29
MS.388         	9.685          	0.272
MS.389         	9.665          	0.201
MS.390         	9.645          	0.23
MS.391         	9.627          	0.334
MS.392         	9.608          	0.163
MS.393         	9.587          	0.187
MS.394         	9.57           	0.24
MS.395         	9.55           	0.189
MS.396         	9.53           	0.244
MS.397         	9.512          	0.175
MS.398         	9.492          	0.167
MS.399         	9.472          	0.228
MS.400         	9.455          	0.189
MS.401         	9.435          	0.147
MS.402         	9.417          	0.197
MS.403         	9.398          	0.214
MS.404         	9.38           	0.189
MS.405         	9.36           	0.123
MS.406         	9.342          	0.201
MS.407         	9.323          	0.153
MS.408         	9.305          	0.161
MS.409         	9.285          	0.137
MS.410         	9.267          	0.145
MS.411         	9.25           	0.101
MS.412         	9.23           	0.119
MS.413         	9.212          	0.101
MS.414         	9.193          	0.125
MS.415         	9.175          	0.125
MS.416         	9.158          	0.089
MS.417         	9.137          	0.062
MS.418         	9.12           	0.042
MS.419         	9.102          	0.085
MS.420         	9.085          	0.093
MS.421         	9.065          	0.099
MS.422         	9.047          	0.121
MS.423         	9.03           	0.077
MS.424         	9.012          	0.101
MS.425         	8.992          	0.056
MS.426         	8.975          	0.06
MS.427         	8.957          	0.038
MS.428         	8.94           	0.04
MS.429         	8.922          	0.054
MS.430         	8.905          	0.026
MS.431         	8.887          	0.028
MS.432         	8.867          	0.018
MS.433         	8.85           	0.034
MS.434         	8.832          	0.004
MS.435         	8.815          	0.006
MS.436         	8.797          	0.006
MS.437         	8.78           	0.006
MS.438         	8.762          	0.034
MS.439         	8.745          	0.000
MS.440         	8.727          	0.008
MS.441         	8.71           	0.004
MS.442         	8.693          	-0.024
MS.443         	8.675          	0.028
MS.444         	8.658          	-0.042
MS.445         	8.64           	-0.038
MS.446         	8.622          	-0.042
MS.447         	8.608          	-0.04
MS.448         	8.59           	-0.04
MS.449         	8.573          	-0.048
MS.450         	8.555          	-0.044
MS.451         	8.537          	-0.03
MS.452         	8.52           	-0.044
MS.453         	8.505          	-0.042
MS.454         	8.488          	-0.038
MS.455         	8.47           	-0.044
MS.456         	8.452          	-0.044
MS.457         	8.435          	-0.042
MS.458         	8.42           	-0.04
MS.459         	8.403          	-0.048
MS.460         	8.385          	-0.04
MS.461         	8.37           	-0.042
MS.462         	8.352          	-0.046
MS.463         	8.335          	-0.042
MS.464         	8.32           	-0.038
MS.465         	8.302          	-0.044
MS.466         	8.285          	-0.044
MS.467         	8.27           	-0.04
MS.468         	8.252          	-0.04
MS.469         	8.235          	-0.042
MS.470         	8.22           	-0.04
MS.471         	8.202          	-0.046
MS.472         	8.188          	-0.038
MS.473         	8.17           	-0.04
MS.474         	8.155          	-0.046
MS.475         	8.137          	-0.042
MS.476         	8.122          	-0.042
MS.477         	8.105          	-0.042
MS.478         	8.09           	-0.042
MS.479         	8.073          	-0.042
MS.480         	8.057          	-0.042
MS.481         	8.04           	-0.038
MS.482         	8.025          	-0.046
MS.483         	8.007          	-0.044
MS.484         	7.992          	-0.044
MS.485         	7.977          	-0.042
MS.486         	7.96           	-0.038
MS.487         	7.945          	-0.042
MS.488         	7.93           	-0.044
MS.489         	7.912          	-0.042
MS.490         	7.898          	-0.04
MS.491         	7.882          	-0.038
MS.492         	7.865          	-0.042
MS.493         	7.85           	-0.044
MS.494         	7.835          	-0.04
MS.495         	7.817          	-0.04
MS.496         	7.802          	-0.044
MS.497         	7.787          	-0.04
MS.498         	7.773          	-0.04
MS.499         	7.757          	-0.046
MS.500         	7.74           	-0.04
