File:              	C:\Qtrac\Data\Daniel M Sørensen\MScan multicentre study\Data from centres\Oulu\Processed data\OUHC01211B.QZD
Name:              	FL.OUL.NC.6.2
Protocol:          	MSCAN-R2
Date:              	11/12/20
Start time:        	08:54:20
Age:               	34
Sex:               	M
Temperature:       	34,2
S/R sites:         	ADM
NC/disease:        	NC
Operator:          	MK
Comments:
M-SCAN DATA (1.8-0.0m)
Scanpts: 3, 13, 479, 528
Stim. (mA)     	Amp. (mV)
MS.1           	29             	11.092
MS.2           	29             	11.108
MS.3           	28.942         	11.052
MS.4           	28.885         	11.1
MS.5           	28.827         	11.1
MS.6           	28.77          	11.048
MS.7           	28.712         	11.094
MS.8           	28.655         	11.11
MS.9           	28.597         	11.048
MS.10          	28.54          	11.062
MS.11          	28.483         	10.999
MS.12          	28.425         	10.985
MS.13          	28.37          	10.929
MS.14          	28.312         	10.951
MS.15          	28.255         	10.715
MS.16          	28.2           	10.921
MS.17          	28.142         	10.667
MS.18          	28.087         	10.689
MS.19          	28.03          	10.911
MS.20          	27.975         	10.433
MS.21          	27.917         	10.514
MS.22          	27.862         	10.462
MS.23          	27.807         	10.621
MS.24          	27.752         	10.401
MS.25          	27.695         	10.445
MS.26          	27.64          	10.379
MS.27          	27.585         	10.492
MS.28          	27.53          	10.367
MS.29          	27.475         	10.345
MS.30          	27.42          	10.357
MS.31          	27.365         	10.321
MS.32          	27.31          	10.242
MS.33          	27.257         	10.248
MS.34          	27.202         	10.292
MS.35          	27.147         	10.19
MS.36          	27.092         	10.101
MS.37          	27.04          	10.167
MS.38          	26.985         	10.031
MS.39          	26.932         	10.091
MS.40          	26.877         	10.024
MS.41          	26.825         	9.992
MS.42          	26.77          	10.01
MS.43          	26.717         	9.962
MS.44          	26.662         	9.988
MS.45          	26.61          	9.849
MS.46          	26.557         	9.859
MS.47          	26.505         	9.922
MS.48          	26.45          	9.817
MS.49          	26.397         	9.871
MS.50          	26.345         	9.765
MS.51          	26.292         	9.736
MS.52          	26.24          	9.545
MS.53          	26.188         	9.392
MS.54          	26.135         	9.612
MS.55          	26.082         	9.454
MS.56          	26.03          	9.384
MS.57          	25.98          	9.209
MS.58          	25.927         	9.207
MS.59          	25.875         	9.249
MS.60          	25.825         	9.11
MS.61          	25.772         	9.154
MS.62          	25.72          	9.122
MS.63          	25.67          	8.915
MS.64          	25.618         	8.866
MS.65          	25.567         	8.935
MS.66          	25.515         	8.725
MS.67          	25.465         	8.814
MS.68          	25.415         	8.884
MS.69          	25.362         	8.969
MS.70          	25.312         	8.81
MS.71          	25.262         	8.818
MS.72          	25.212         	8.747
MS.73          	25.16          	8.52
MS.74          	25.11          	8.375
MS.75          	25.06          	8.437
MS.76          	25.01          	8.57
MS.77          	24.96          	8.21
MS.78          	24.91          	8.095
MS.79          	24.86          	8.2
MS.80          	24.81          	7.974
MS.81          	24.762         	8.389
MS.82          	24.712         	7.851
MS.83          	24.663         	7.954
MS.84          	24.612         	7.946
MS.85          	24.565         	7.684
MS.86          	24.515         	7.918
MS.87          	24.467         	7.664
MS.88          	24.417         	7.99
MS.89          	24.368         	7.734
MS.90          	24.32          	7.545
MS.91          	24.272         	7.547
MS.92          	24.222         	7.458
MS.93          	24.175         	7.394
MS.94          	24.125         	7.33
MS.95          	24.077         	7.43
MS.96          	24.03          	7.34
MS.97          	23.983         	7.434
MS.98          	23.935         	7.352
MS.99          	23.885         	7.166
MS.100         	23.837         	7.267
MS.101         	23.79          	7.019
MS.102         	23.743         	7.102
MS.103         	23.695         	6.814
MS.104         	23.647         	6.88
MS.105         	23.6           	6.876
MS.106         	23.555         	6.699
MS.107         	23.507         	6.721
MS.108         	23.46          	6.602
MS.109         	23.413         	6.514
MS.110         	23.368         	6.717
MS.111         	23.32          	6.606
MS.112         	23.272         	6.582
MS.113         	23.227         	6.508
MS.114         	23.18          	6.399
MS.115         	23.135         	6.367
MS.116         	23.087         	6.357
MS.117         	23.042         	6.32
MS.118         	22.995         	6.246
MS.119         	22.95          	6.407
MS.120         	22.903         	6.312
MS.121         	22.858         	6.192
MS.122         	22.812         	6.171
MS.123         	22.767         	6.145
MS.124         	22.72          	6.115
MS.125         	22.675         	6.167
MS.126         	22.63          	6.099
MS.127         	22.585         	6.099
MS.128         	22.54          	5.962
MS.129         	22.495         	5.849
MS.130         	22.45          	5.811
MS.131         	22.405         	5.98
MS.132         	22.36          	5.833
MS.133         	22.315         	5.777
MS.134         	22.27          	5.791
MS.135         	22.227         	5.752
MS.136         	22.182         	5.579
MS.137         	22.137         	5.857
MS.138         	22.095         	5.74
MS.139         	22.05          	5.67
MS.140         	22.005         	5.65
MS.141         	21.962         	5.477
MS.142         	21.917         	5.605
MS.143         	21.875         	5.462
MS.144         	21.83          	5.44
MS.145         	21.788         	5.293
MS.146         	21.743         	5.408
MS.147         	21.7           	5.529
MS.148         	21.657         	5.507
MS.149         	21.612         	5.303
MS.150         	21.57          	5.193
MS.151         	21.528         	5.193
MS.152         	21.483         	5.321
MS.153         	21.44          	5.134
MS.154         	21.397         	5.072
MS.155         	21.355         	5.158
MS.156         	21.312         	5.227
MS.157         	21.27          	5.19
MS.158         	21.227         	5.025
MS.159         	21.185         	5.043
MS.160         	21.142         	5.082
MS.161         	21.1           	5.007
MS.162         	21.057         	4.917
MS.163         	21.017         	5.092
MS.164         	20.975         	4.768
MS.165         	20.932         	4.844
MS.166         	20.89          	4.776
MS.167         	20.85          	4.925
MS.168         	20.807         	4.898
MS.169         	20.765         	4.749
MS.170         	20.725         	4.667
MS.171         	20.682         	4.778
MS.172         	20.642         	4.838
MS.173         	20.6           	4.671
MS.174         	20.56          	4.761
MS.175         	20.517         	4.514
MS.176         	20.477         	4.606
MS.177         	20.435         	4.608
MS.178         	20.395         	4.622
MS.179         	20.355         	4.631
MS.180         	20.312         	4.622
MS.181         	20.272         	4.542
MS.182         	20.233         	4.61
MS.183         	20.192         	4.631
MS.184         	20.153         	4.695
MS.185         	20.112         	4.576
MS.186         	20.073         	4.614
MS.187         	20.032         	4.574
MS.188         	19.993         	4.578
MS.189         	19.952         	4.578
MS.190         	19.913         	4.62
MS.191         	19.872         	4.494
MS.192         	19.833         	4.399
MS.193         	19.792         	4.49
MS.194         	19.752         	4.469
MS.195         	19.712         	4.58
MS.196         	19.675         	4.5
MS.197         	19.635         	4.389
MS.198         	19.595         	4.326
MS.199         	19.557         	4.492
MS.200         	19.517         	4.588
MS.201         	19.477         	4.469
MS.202         	19.44          	4.377
MS.203         	19.4           	4.383
MS.204         	19.362         	4.165
MS.205         	19.323         	3.708
MS.206         	19.285         	3.899
MS.207         	19.245         	3.924
MS.208         	19.208         	3.829
MS.209         	19.17          	4.258
MS.210         	19.13          	3.704
MS.211         	19.092         	3.99
MS.212         	19.055         	4.014
MS.213         	19.017         	3.335
MS.214         	18.977         	4.308
MS.215         	18.94          	3.771
MS.216         	18.903         	4.272
MS.217         	18.865         	3.724
MS.218         	18.827         	3.438
MS.219         	18.79          	3.462
MS.220         	18.753         	3.376
MS.221         	18.715         	3.376
MS.222         	18.677         	3.021
MS.223         	18.64          	3.396
MS.224         	18.602         	2.914
MS.225         	18.565         	2.921
MS.226         	18.528         	3.356
MS.227         	18.49          	2.955
MS.228         	18.455         	3.233
MS.229         	18.417         	2.937
MS.230         	18.38          	2.935
MS.231         	18.345         	3.047
MS.232         	18.307         	3.136
MS.233         	18.27          	3.142
MS.234         	18.235         	3.144
MS.235         	18.198         	2.9
MS.236         	18.163         	2.919
MS.237         	18.125         	2.85
MS.238         	18.09          	2.894
MS.239         	18.052         	2.854
MS.240         	18.017         	2.798
MS.241         	17.98          	2.852
MS.242         	17.945         	2.655
MS.243         	17.91          	2.639
MS.244         	17.872         	2.312
MS.245         	17.837         	2.773
MS.246         	17.802         	2.784
MS.247         	17.765         	2.82
MS.248         	17.73          	2.588
MS.249         	17.695         	2.673
MS.250         	17.66          	2.534
MS.251         	17.625         	2.514
MS.252         	17.59          	2.383
MS.253         	17.555         	2.522
MS.254         	17.52          	2.665
MS.255         	17.485         	2.405
MS.256         	17.45          	2.363
MS.257         	17.415         	2.069
MS.258         	17.38          	2.149
MS.259         	17.345         	1.974
MS.260         	17.31          	1.915
MS.261         	17.275         	2.141
MS.262         	17.24          	1.668
MS.263         	17.208         	1.825
MS.264         	17.172         	1.877
MS.265         	17.137         	2.01
MS.266         	17.102         	2.085
MS.267         	17.07          	1.684
MS.268         	17.035         	1.442
MS.269         	17.003         	1.803
MS.270         	16.967         	1.241
MS.271         	16.932         	1.609
MS.272         	16.9           	1.597
MS.273         	16.865         	1.182
MS.274         	16.833         	1.239
MS.275         	16.797         	1.412
MS.276         	16.765         	1.015
MS.277         	16.733         	1.416
MS.278         	16.698         	0.981
MS.279         	16.665         	1.015
MS.280         	16.632         	0.989
MS.281         	16.597         	1.021
MS.282         	16.565         	1.021
MS.283         	16.532         	0.995
MS.284         	16.5           	1.025
MS.285         	16.465         	0.856
MS.286         	16.432         	0.904
MS.287         	16.4           	0.953
MS.288         	16.368         	1.033
MS.289         	16.335         	0.981
MS.290         	16.302         	1.029
MS.291         	16.27          	1.031
MS.292         	16.237         	0.993
MS.293         	16.205         	1.005
MS.294         	16.172         	0.661
MS.295         	16.14          	0.872
MS.296         	16.108         	0.667
MS.297         	16.075         	0.665
MS.298         	16.042         	0.673
MS.299         	16.012         	0.669
MS.300         	15.98          	0.671
MS.301         	15.947         	0.701
MS.302         	15.915         	0.673
MS.303         	15.882         	0.596
MS.304         	15.852         	0.707
MS.305         	15.82          	0.596
MS.306         	15.787         	0.596
MS.307         	15.757         	0.594
MS.308         	15.725         	0.612
MS.309         	15.695         	0.693
MS.310         	15.662         	0.6
MS.311         	15.632         	0.602
MS.312         	15.6           	0.636
MS.313         	15.57          	0.667
MS.314         	15.537         	0.651
MS.315         	15.507         	0.6
MS.316         	15.475         	0.598
MS.317         	15.445         	0.604
MS.318         	15.415         	0.574
MS.319         	15.382         	0.606
MS.320         	15.352         	0.564
MS.321         	15.322         	0.576
MS.322         	15.292         	0.332
MS.323         	15.26          	0.574
MS.324         	15.23          	0.606
MS.325         	15.2           	0.568
MS.326         	15.17          	0.361
MS.327         	15.14          	0.25
MS.328         	15.11          	0.473
MS.329         	15.08          	0.246
MS.330         	15.05          	0.57
MS.331         	15.017         	0.34
MS.332         	14.987         	0.26
MS.333         	14.957         	0.332
MS.334         	14.93          	0.582
MS.335         	14.9           	0.25
MS.336         	14.87          	0.248
MS.337         	14.84          	0.252
MS.338         	14.81          	0.334
MS.339         	14.78          	0.153
MS.340         	14.75          	0.254
MS.341         	14.722         	0.254
MS.342         	14.693         	0.165
MS.343         	14.662         	0.066
MS.344         	14.632         	0.066
MS.345         	14.605         	0.256
MS.346         	14.575         	0.258
MS.347         	14.545         	0.159
MS.348         	14.517         	0.165
MS.349         	14.487         	0.062
MS.350         	14.457         	0.165
MS.351         	14.43          	0.06
MS.352         	14.4           	0.066
MS.353         	14.372         	0.06
MS.354         	14.342         	0.064
MS.355         	14.315         	0.068
MS.356         	14.285         	0.066
MS.357         	14.257         	0.062
MS.358         	14.23          	0.064
MS.359         	14.2           	0.058
MS.360         	14.172         	0.062
MS.361         	14.145         	0.064
MS.362         	14.115         	0.066
MS.363         	14.087         	0.06
MS.364         	14.06          	0.07
MS.365         	14.032         	0.058
MS.366         	14.002         	0.062
MS.367         	13.975         	0.062
MS.368         	13.947         	0.062
MS.369         	13.92          	0.062
MS.370         	13.892         	0.062
MS.371         	13.865         	0.058
MS.372         	13.837         	0.06
MS.373         	13.807         	0.06
MS.374         	13.78          	0.064
MS.375         	13.752         	0.058
MS.376         	13.725         	0.062
MS.377         	13.697         	0.064
MS.378         	13.672         	0.062
MS.379         	13.645         	0.064
MS.380         	13.617         	0.062
MS.381         	13.59          	0.064
MS.382         	13.562         	0.064
MS.383         	13.535         	0.062
MS.384         	13.507         	0.062
MS.385         	13.48          	0.066
MS.386         	13.455         	0.032
MS.387         	13.427         	0.066
MS.388         	13.4           	0.032
MS.389         	13.375         	0.064
MS.390         	13.347         	0.066
MS.391         	13.32          	0.03
MS.392         	13.295         	0.068
MS.393         	13.267         	0.062
MS.394         	13.24          	0.036
MS.395         	13.215         	0.028
MS.396         	13.188         	0.032
MS.397         	13.162         	0.032
MS.398         	13.135         	0.032
MS.399         	13.11          	0.026
MS.400         	13.082         	0.07
MS.401         	13.057         	0.064
MS.402         	13.03          	0.064
MS.403         	13.005         	0.034
MS.404         	12.977         	0.028
MS.405         	12.952         	0.03
MS.406         	12.927         	0.028
MS.407         	12.9           	0.032
MS.408         	12.875         	0.034
MS.409         	12.85          	0.034
MS.410         	12.822         	0.034
MS.411         	12.797         	0.028
MS.412         	12.773         	0.034
MS.413         	12.747         	0.012
MS.414         	12.722         	0.012
MS.415         	12.695         	0.03
MS.416         	12.67          	0.014
MS.417         	12.645         	0.028
MS.418         	12.62          	0.032
MS.419         	12.595         	0.028
MS.420         	12.57          	0.012
MS.421         	12.545         	0.014
MS.422         	12.52          	0.014
MS.423         	12.495         	0.03
MS.424         	12.47          	0.014
MS.425         	12.445         	0.038
MS.426         	12.42          	0.018
MS.427         	12.395         	0.016
MS.428         	12.37          	0.034
MS.429         	12.345         	0.01
MS.430         	12.32          	0.014
MS.431         	12.297         	0.018
MS.432         	12.273         	0.014
MS.433         	12.247         	0.03
MS.434         	12.222         	0.014
MS.435         	12.197         	0.014
MS.436         	12.175         	0.03
MS.437         	12.15          	0.016
MS.438         	12.125         	0.014
MS.439         	12.1           	0.016
MS.440         	12.077         	0.012
MS.441         	12.052         	0.012
MS.442         	12.028         	0.014
MS.443         	12.005         	0.016
MS.444         	11.98          	0.016
MS.445         	11.957         	0.016
MS.446         	11.932         	0.016
MS.447         	11.91          	0.014
MS.448         	11.885         	0.016
MS.449         	11.863         	0.014
MS.450         	11.837         	0.016
MS.451         	11.815         	0.018
MS.452         	11.79          	0.014
MS.453         	11.767         	0.018
MS.454         	11.742         	0.018
MS.455         	11.72          	0.016
MS.456         	11.697         	0.016
MS.457         	11.672         	0.016
MS.458         	11.65          	0.016
MS.459         	11.627         	0.016
MS.460         	11.602         	0.018
MS.461         	11.58          	0.018
MS.462         	11.557         	0.016
MS.463         	11.535         	0.014
MS.464         	11.51          	0.016
MS.465         	11.488         	0.016
MS.466         	11.465         	0.02
MS.467         	11.443         	0.018
MS.468         	11.42          	0.014
MS.469         	11.398         	0.018
MS.470         	11.372         	0.016
MS.471         	11.35          	0.02
MS.472         	11.327         	0.018
MS.473         	11.305         	0.018
MS.474         	11.282         	0.016
MS.475         	11.26          	0.016
MS.476         	11.238         	0.016
MS.477         	11.215         	0.018
MS.478         	11.193         	0.018
MS.479         	11.17          	0.018
MS.480         	11.148         	0.016
MS.481         	11.125         	0.016
MS.482         	11.105         	0.02
MS.483         	11.082         	0.018
MS.484         	11.06          	0.02
MS.485         	11.037         	0.018
MS.486         	11.015         	0.016
MS.487         	10.992         	0.014
MS.488         	10.972         	0.02
MS.489         	10.95          	0.016
MS.490         	10.927         	0.016
MS.491         	10.905         	0.016
MS.492         	10.885         	0.016
MS.493         	10.863         	0.02
MS.494         	10.84          	0.018
MS.495         	10.82          	0.016
MS.496         	10.797         	0.016
MS.497         	10.775         	0.018
MS.498         	10.755         	0.018
MS.499         	10.733         	0.02
MS.500         	10.712         	0.016
