File:              	C:\Qtrac\Data\Daniel M Sørensen\MScan multicentre study\Data from centres\Oulu\Processed data\OUHC01101C.QZD
Name:              	FL.OUL.NC.1.2
Protocol:          	MSCAN-R2
Date:              	1/11/20
Start time:        	16:24:02
Age:               	21
Sex:               	M
Temperature:       	34,5
S/R sites:         	TA
NC/disease:        	NC
Operator:          	MK
Comments:
M-SCAN DATA (1.4-0.0m)
Scanpts: 319, 341, 826, 864
Stim. (mA)     	Amp. (mV)
MS.1           	8.5            	7.708
MS.2           	8.5            	7.742
MS.3           	8.483          	7.736
MS.4           	8.465          	7.748
MS.5           	8.45           	7.694
MS.6           	8.432          	7.68
MS.7           	8.415          	7.682
MS.8           	8.398          	7.712
MS.9           	8.382          	7.678
MS.10          	8.365          	7.69
MS.11          	8.347          	7.7
MS.12          	8.332          	7.706
MS.13          	8.315          	7.676
MS.14          	8.297          	7.672
MS.15          	8.283          	7.676
MS.16          	8.265          	7.674
MS.17          	8.25           	7.67
MS.18          	8.233          	7.65
MS.19          	8.215          	7.668
MS.20          	8.2            	7.636
MS.21          	8.182          	7.624
MS.22          	8.167          	7.658
MS.23          	8.15           	7.648
MS.24          	8.135          	7.672
MS.25          	8.117          	7.593
MS.26          	8.102          	7.597
MS.27          	8.085          	7.589
MS.28          	8.07           	7.616
MS.29          	8.052          	7.607
MS.30          	8.037          	7.607
MS.31          	8.02           	7.605
MS.32          	8.005          	7.589
MS.33          	7.99           	7.65
MS.34          	7.972          	7.648
MS.35          	7.957          	7.64
MS.36          	7.94           	7.616
MS.37          	7.925          	7.63
MS.38          	7.91           	7.632
MS.39          	7.892          	7.644
MS.40          	7.878          	7.575
MS.41          	7.862          	7.603
MS.42          	7.847          	7.607
MS.43          	7.83           	7.638
MS.44          	7.815          	7.64
MS.45          	7.8            	7.581
MS.46          	7.785          	7.593
MS.47          	7.767          	7.607
MS.48          	7.753          	7.638
MS.49          	7.737          	7.577
MS.50          	7.722          	7.577
MS.51          	7.707          	7.658
MS.52          	7.69           	7.557
MS.53          	7.675          	7.605
MS.54          	7.66           	7.609
MS.55          	7.645          	7.642
MS.56          	7.63           	7.601
MS.57          	7.615          	7.607
MS.58          	7.6            	7.605
MS.59          	7.585          	7.628
MS.60          	7.57           	7.626
MS.61          	7.555          	7.609
MS.62          	7.54           	7.66
MS.63          	7.525          	7.601
MS.64          	7.507          	7.666
MS.65          	7.492          	7.577
MS.66          	7.48           	7.626
MS.67          	7.465          	7.612
MS.68          	7.45           	7.616
MS.69          	7.435          	7.616
MS.70          	7.42           	7.636
MS.71          	7.405          	7.614
MS.72          	7.39           	7.646
MS.73          	7.375          	7.616
MS.74          	7.36           	7.614
MS.75          	7.345          	7.632
MS.76          	7.33           	7.607
MS.77          	7.315          	7.593
MS.78          	7.302          	7.634
MS.79          	7.287          	7.638
MS.80          	7.273          	7.642
MS.81          	7.257          	7.644
MS.82          	7.242          	7.603
MS.83          	7.23           	7.648
MS.84          	7.215          	7.67
MS.85          	7.2            	7.614
MS.86          	7.185          	7.626
MS.87          	7.17           	7.609
MS.88          	7.157          	7.678
MS.89          	7.142          	7.632
MS.90          	7.128          	7.64
MS.91          	7.115          	7.612
MS.92          	7.1            	7.648
MS.93          	7.085          	7.618
MS.94          	7.072          	7.652
MS.95          	7.057          	7.63
MS.96          	7.043          	7.654
MS.97          	7.03           	7.638
MS.98          	7.015          	7.63
MS.99          	7              	7.583
MS.100         	6.987          	7.628
MS.101         	6.972          	7.65
MS.102         	6.96           	7.603
MS.103         	6.945          	7.668
MS.104         	6.932          	7.644
MS.105         	6.918          	7.605
MS.106         	6.905          	7.624
MS.107         	6.89           	7.624
MS.108         	6.875          	7.638
MS.109         	6.862          	7.632
MS.110         	6.85           	7.624
MS.111         	6.835          	7.64
MS.112         	6.822          	7.634
MS.113         	6.807          	7.634
MS.114         	6.795          	7.646
MS.115         	6.78           	7.579
MS.116         	6.767          	7.654
MS.117         	6.753          	7.63
MS.118         	6.74           	7.601
MS.119         	6.727          	7.648
MS.120         	6.712          	7.616
MS.121         	6.7            	7.634
MS.122         	6.688          	7.652
MS.123         	6.672          	7.642
MS.124         	6.66           	7.628
MS.125         	6.648          	7.632
MS.126         	6.632          	7.67
MS.127         	6.62           	7.642
MS.128         	6.608          	7.638
MS.129         	6.592          	7.636
MS.130         	6.58           	7.676
MS.131         	6.567          	7.67
MS.132         	6.555          	7.609
MS.133         	6.54           	7.664
MS.134         	6.527          	7.624
MS.135         	6.515          	7.68
MS.136         	6.503          	7.656
MS.137         	6.487          	7.642
MS.138         	6.475          	7.656
MS.139         	6.462          	7.676
MS.140         	6.45           	7.646
MS.141         	6.438          	7.638
MS.142         	6.425          	7.666
MS.143         	6.412          	7.67
MS.144         	6.398          	7.712
MS.145         	6.385          	7.684
MS.146         	6.372          	7.718
MS.147         	6.36           	7.658
MS.148         	6.347          	7.712
MS.149         	6.335          	7.676
MS.150         	6.322          	7.656
MS.151         	6.31           	7.698
MS.152         	6.297          	7.702
MS.153         	6.285          	7.662
MS.154         	6.273          	7.634
MS.155         	6.26           	7.597
MS.156         	6.247          	7.684
MS.157         	6.235          	7.748
MS.158         	6.222          	7.753
MS.159         	6.21           	7.708
MS.160         	6.197          	7.75
MS.161         	6.185          	7.706
MS.162         	6.172          	7.757
MS.163         	6.16           	7.716
MS.164         	6.148          	7.65
MS.165         	6.135          	7.7
MS.166         	6.122          	7.694
MS.167         	6.11           	7.748
MS.168         	6.097          	7.648
MS.169         	6.088          	7.652
MS.170         	6.075          	7.682
MS.171         	6.062          	7.718
MS.172         	6.05           	7.742
MS.173         	6.037          	7.706
MS.174         	6.025          	7.622
MS.175         	6.015          	7.738
MS.176         	6.003          	7.759
MS.177         	5.99           	7.732
MS.178         	5.977          	7.738
MS.179         	5.965          	7.777
MS.180         	5.955          	7.702
MS.181         	5.942          	7.718
MS.182         	5.93           	7.706
MS.183         	5.918          	7.813
MS.184         	5.907          	7.688
MS.185         	5.895          	7.662
MS.186         	5.882          	7.682
MS.187         	5.87           	7.702
MS.188         	5.86           	7.694
MS.189         	5.847          	7.767
MS.190         	5.835          	7.738
MS.191         	5.825          	7.75
MS.192         	5.812          	7.69
MS.193         	5.8            	7.706
MS.194         	5.79           	7.694
MS.195         	5.777          	7.753
MS.196         	5.767          	7.75
MS.197         	5.755          	7.712
MS.198         	5.742          	7.821
MS.199         	5.733          	7.753
MS.200         	5.72           	7.789
MS.201         	5.71           	7.779
MS.202         	5.697          	7.72
MS.203         	5.688          	7.664
MS.204         	5.675          	7.761
MS.205         	5.662          	7.732
MS.206         	5.652          	7.769
MS.207         	5.64           	7.672
MS.208         	5.63           	7.698
MS.209         	5.617          	7.726
MS.210         	5.608          	7.785
MS.211         	5.595          	7.694
MS.212         	5.585          	7.658
MS.213         	5.572          	7.744
MS.214         	5.562          	7.714
MS.215         	5.552          	7.714
MS.216         	5.54           	7.626
MS.217         	5.53           	7.674
MS.218         	5.517          	7.684
MS.219         	5.507          	7.708
MS.220         	5.497          	7.773
MS.221         	5.485          	7.787
MS.222         	5.475          	7.686
MS.223         	5.463          	7.664
MS.224         	5.452          	7.71
MS.225         	5.443          	7.837
MS.226         	5.43           	7.755
MS.227         	5.42           	7.676
MS.228         	5.41           	7.688
MS.229         	5.398          	7.807
MS.230         	5.387          	7.704
MS.231         	5.378          	7.765
MS.232         	5.365          	7.686
MS.233         	5.355          	7.726
MS.234         	5.345          	7.684
MS.235         	5.335          	7.732
MS.236         	5.322          	7.718
MS.237         	5.312          	7.704
MS.238         	5.302          	7.672
MS.239         	5.293          	7.757
MS.240         	5.28           	7.889
MS.241         	5.27           	7.75
MS.242         	5.26           	7.765
MS.243         	5.25           	7.682
MS.244         	5.237          	7.849
MS.245         	5.227          	7.771
MS.246         	5.217          	7.69
MS.247         	5.207          	7.777
MS.248         	5.197          	7.759
MS.249         	5.188          	7.908
MS.250         	5.175          	7.728
MS.251         	5.165          	7.829
MS.252         	5.155          	7.755
MS.253         	5.145          	7.787
MS.254         	5.135          	7.789
MS.255         	5.125          	7.833
MS.256         	5.115          	7.825
MS.257         	5.105          	7.885
MS.258         	5.095          	7.827
MS.259         	5.085          	7.708
MS.260         	5.072          	7.857
MS.261         	5.062          	7.765
MS.262         	5.052          	7.728
MS.263         	5.043          	7.893
MS.264         	5.032          	7.759
MS.265         	5.023          	7.734
MS.266         	5.012          	7.742
MS.267         	5.003          	7.748
MS.268         	4.992          	7.589
MS.269         	4.983          	7.714
MS.270         	4.972          	7.775
MS.271         	4.963          	7.74
MS.272         	4.952          	7.783
MS.273         	4.943          	7.799
MS.274         	4.932          	7.757
MS.275         	4.922          	7.779
MS.276         	4.915          	7.769
MS.277         	4.905          	7.716
MS.278         	4.895          	7.801
MS.279         	4.885          	7.821
MS.280         	4.875          	7.738
MS.281         	4.865          	7.803
MS.282         	4.855          	7.706
MS.283         	4.845          	7.704
MS.284         	4.835          	7.65
MS.285         	4.825          	7.761
MS.286         	4.818          	7.69
MS.287         	4.807          	7.777
MS.288         	4.797          	7.753
MS.289         	4.787          	7.873
MS.290         	4.777          	7.883
MS.291         	4.767          	7.855
MS.292         	4.76           	7.793
MS.293         	4.75           	7.839
MS.294         	4.74           	7.799
MS.295         	4.73           	7.871
MS.296         	4.72           	7.684
MS.297         	4.713          	7.859
MS.298         	4.702          	7.881
MS.299         	4.693          	7.847
MS.300         	4.682          	7.912
MS.301         	4.675          	7.71
MS.302         	4.665          	7.843
MS.303         	4.655          	7.849
MS.304         	4.648          	7.924
MS.305         	4.637          	7.952
MS.306         	4.628          	7.861
MS.307         	4.617          	7.948
MS.308         	4.61           	7.849
MS.309         	4.6            	7.684
MS.310         	4.59           	7.849
MS.311         	4.582          	7.922
MS.312         	4.572          	7.904
MS.313         	4.562          	7.922
MS.314         	4.555          	8.053
MS.315         	4.545          	7.988
MS.316         	4.535          	7.769
MS.317         	4.527          	7.92
MS.318         	4.517          	7.829
MS.319         	4.51           	7.932
MS.320         	4.5            	7.904
MS.321         	4.49           	7.97
MS.322         	4.483          	7.974
MS.323         	4.472          	7.875
MS.324         	4.465          	7.896
MS.325         	4.455          	7.863
MS.326         	4.447          	7.956
MS.327         	4.438          	7.898
MS.328         	4.427          	7.932
MS.329         	4.42           	8.047
MS.330         	4.41           	7.99
MS.331         	4.402          	7.97
MS.332         	4.392          	7.934
MS.333         	4.385          	7.978
MS.334         	4.375          	7.865
MS.335         	4.367          	7.777
MS.336         	4.358          	7.958
MS.337         	4.35           	7.95
MS.338         	4.34           	7.843
MS.339         	4.332          	7.966
MS.340         	4.322          	7.906
MS.341         	4.315          	7.962
MS.342         	4.305          	7.825
MS.343         	4.298          	7.944
MS.344         	4.29           	7.924
MS.345         	4.28           	7.946
MS.346         	4.273          	7.984
MS.347         	4.262          	7.946
MS.348         	4.255          	7.91
MS.349         	4.247          	7.896
MS.350         	4.237          	7.833
MS.351         	4.23           	7.801
MS.352         	4.22           	7.922
MS.353         	4.213          	7.861
MS.354         	4.205          	7.865
MS.355         	4.195          	7.803
MS.356         	4.188          	7.714
MS.357         	4.18           	7.93
MS.358         	4.17           	7.797
MS.359         	4.162          	7.777
MS.360         	4.155          	7.839
MS.361         	4.145          	7.761
MS.362         	4.137          	7.843
MS.363         	4.13           	7.769
MS.364         	4.12           	7.684
MS.365         	4.112          	7.825
MS.366         	4.105          	7.791
MS.367         	4.095          	7.676
MS.368         	4.088          	7.662
MS.369         	4.08           	7.724
MS.370         	4.072          	7.589
MS.371         	4.062          	7.734
MS.372         	4.055          	7.662
MS.373         	4.048          	7.603
MS.374         	4.04           	7.682
MS.375         	4.03           	7.658
MS.376         	4.023          	7.402
MS.377         	4.015          	7.408
MS.378         	4.007          	7.527
MS.379         	4              	7.334
MS.380         	3.99           	7.315
MS.381         	3.982          	7.481
MS.382         	3.975          	7.334
MS.383         	3.967          	7.45
MS.384         	3.96           	7.394
MS.385         	3.952          	7.456
MS.386         	3.942          	7.428
MS.387         	3.935          	7.479
MS.388         	3.928          	7.281
MS.389         	3.92           	7.483
MS.390         	3.912          	7.444
MS.391         	3.905          	7.424
MS.392         	3.897          	7.191
MS.393         	3.887          	7.313
MS.394         	3.88           	7.231
MS.395         	3.872          	7.035
MS.396         	3.865          	7.231
MS.397         	3.857          	7.06
MS.398         	3.85           	7.185
MS.399         	3.842          	7.213
MS.400         	3.835          	7.15
MS.401         	3.827          	7.09
MS.402         	3.82           	7.088
MS.403         	3.812          	7.011
MS.404         	3.805          	6.943
MS.405         	3.797          	6.971
MS.406         	3.79           	7.037
MS.407         	3.783          	6.931
MS.408         	3.772          	6.963
MS.409         	3.765          	6.905
MS.410         	3.757          	6.794
MS.411         	3.75           	6.768
MS.412         	3.742          	6.679
MS.413         	3.735          	6.745
MS.414         	3.727          	6.723
MS.415         	3.722          	6.772
MS.416         	3.715          	6.548
MS.417         	3.707          	6.637
MS.418         	3.7            	6.824
MS.419         	3.692          	6.623
MS.420         	3.685          	6.558
MS.421         	3.678          	6.61
MS.422         	3.67           	6.655
MS.423         	3.662          	6.399
MS.424         	3.655          	6.232
MS.425         	3.647          	6.32
MS.426         	3.64           	6.407
MS.427         	3.632          	6.383
MS.428         	3.625          	6.24
MS.429         	3.617          	6.218
MS.430         	3.612          	5.944
MS.431         	3.605          	6.123
MS.432         	3.597          	6.185
MS.433         	3.59           	6.328
MS.434         	3.582          	6.034
MS.435         	3.575          	6.097
MS.436         	3.567          	6.042
MS.437         	3.56           	5.76
MS.438         	3.555          	5.924
MS.439         	3.547          	5.998
MS.440         	3.54           	5.895
MS.441         	3.533          	5.986
MS.442         	3.525          	5.803
MS.443         	3.517          	5.924
MS.444         	3.512          	5.76
MS.445         	3.505          	5.839
MS.446         	3.497          	5.583
MS.447         	3.49           	5.662
MS.448         	3.482          	5.509
MS.449         	3.477          	5.458
MS.450         	3.47           	5.327
MS.451         	3.462          	5.611
MS.452         	3.455          	5.537
MS.453         	3.45           	5.408
MS.454         	3.442          	5.392
MS.455         	3.435          	5.529
MS.456         	3.428          	5.44
MS.457         	3.422          	5.495
MS.458         	3.415          	5.356
MS.459         	3.408          	5.176
MS.460         	3.4            	5.344
MS.461         	3.395          	4.816
MS.462         	3.387          	5.342
MS.463         	3.38           	5.211
MS.464         	3.375          	5.186
MS.465         	3.367          	5.178
MS.466         	3.36           	5.152
MS.467         	3.352          	4.836
MS.468         	3.347          	5.106
MS.469         	3.34           	4.766
MS.470         	3.332          	4.743
MS.471         	3.327          	4.796
MS.472         	3.32           	4.629
MS.473         	3.312          	4.735
MS.474         	3.307          	4.759
MS.475         	3.3            	4.681
MS.476         	3.295          	4.725
MS.477         	3.287          	4.53
MS.478         	3.28           	4.866
MS.479         	3.275          	4.522
MS.480         	3.267          	4.423
MS.481         	3.26           	4.465
MS.482         	3.255          	4.482
MS.483         	3.247          	4.29
MS.484         	3.242          	4.437
MS.485         	3.235          	4.371
MS.486         	3.227          	4.359
MS.487         	3.222          	4.383
MS.488         	3.215          	4.075
MS.489         	3.21           	3.952
MS.490         	3.202          	4.081
MS.491         	3.197          	4.081
MS.492         	3.19           	4.202
MS.493         	3.185          	4.121
MS.494         	3.178          	3.885
MS.495         	3.17           	4.034
MS.496         	3.165          	3.994
MS.497         	3.158          	4.012
MS.498         	3.152          	3.871
MS.499         	3.145          	3.914
MS.500         	3.14           	3.829
MS.501         	3.132          	3.458
