File:              	C:\Qtrac\Data\Daniel M Sørensen\MScan multicentre study\Data from centres\Oulu\Processed data\OUHC01030F.QZD
Name:              	FL.OUL.NC.3.1
Protocol:          	MSCAN-R2
Date:              	30/10/20
Start time:        	12:41:44
Age:               	78
Sex:               	M
Temperature:       	34,5
S/R sites:         	TA
NC/disease:        	NC
Operator:          	MK
Comments:
M-SCAN DATA (2.2-0.0m)
Scanpts: 5, 28, 766, 778
Stim. (mA)     	Amp. (mV)
MS.1           	22             	4.129
MS.2           	21.955         	4.133
MS.3           	21.913         	4.371
MS.4           	21.868         	4.107
MS.5           	21.825         	4.57
MS.6           	21.78          	3.984
MS.7           	21.737         	4.006
MS.8           	21.695         	4.069
MS.9           	21.65          	4.449
MS.10          	21.608         	4.046
MS.11          	21.565         	3.99
MS.12          	21.522         	4.024
MS.13          	21.477         	4.018
MS.14          	21.435         	4.05
MS.15          	21.392         	4.036
MS.16          	21.35          	4.032
MS.17          	21.307         	3.92
MS.18          	21.265         	4.552
MS.19          	21.222         	4.304
MS.20          	21.18          	4.403
MS.21          	21.137         	4.834
MS.22          	21.095         	4.469
MS.23          	21.052         	4.163
MS.24          	21.01          	4.268
MS.25          	20.97          	4.351
MS.26          	20.927         	4.173
MS.27          	20.885         	4.421
MS.28          	20.842         	4.187
MS.29          	20.802         	4.113
MS.30          	20.76          	4.244
MS.31          	20.72          	4.389
MS.32          	20.677         	4.558
MS.33          	20.635         	4.32
MS.34          	20.595         	4.395
MS.35          	20.552         	4.52
MS.36          	20.512         	4.244
MS.37          	20.472         	4.395
MS.38          	20.43          	4.415
MS.39          	20.39          	4.566
MS.40          	20.35          	4.558
MS.41          	20.307         	4.26
MS.42          	20.267         	4.282
MS.43          	20.227         	4.095
MS.44          	20.188         	4.097
MS.45          	20.147         	4.236
MS.46          	20.108         	4.008
MS.47          	20.067         	3.734
MS.48          	20.025         	3.926
MS.49          	19.985         	4.077
MS.50          	19.948         	3.899
MS.51          	19.907         	3.841
MS.52          	19.868         	4.367
MS.53          	19.827         	4.165
MS.54          	19.788         	4.296
MS.55          	19.747         	4.361
MS.56          	19.708         	4.22
MS.57          	19.67          	4.016
MS.58          	19.63          	4.195
MS.59          	19.59          	4.195
MS.60          	19.552         	4.014
MS.61          	19.512         	4.175
MS.62          	19.472         	3.869
MS.63          	19.435         	4.159
MS.64          	19.395         	3.625
MS.65          	19.358         	3.891
MS.66          	19.317         	4.002
MS.67          	19.28          	3.71
MS.68          	19.24          	4.059
MS.69          	19.202         	3.954
MS.70          	19.165         	3.742
MS.71          	19.125         	3.944
MS.72          	19.087         	4.425
MS.73          	19.05          	4.141
MS.74          	19.012         	4.469
MS.75          	18.972         	4.183
MS.76          	18.935         	3.722
MS.77          	18.897         	4.336
MS.78          	18.86          	4.059
MS.79          	18.823         	4.208
MS.80          	18.785         	4.125
MS.81          	18.747         	4.038
MS.82          	18.71          	3.607
MS.83          	18.672         	3.523
MS.84          	18.635         	3.646
MS.85          	18.597         	3.557
MS.86          	18.56          	4.083
MS.87          	18.522         	3.752
MS.88          	18.487         	3.817
MS.89          	18.45          	3.366
MS.90          	18.413         	3.694
MS.91          	18.375         	3.412
MS.92          	18.34          	3.521
MS.93          	18.302         	3.986
MS.94          	18.265         	4.109
MS.95          	18.23          	3.938
MS.96          	18.192         	3.692
MS.97          	18.157         	3.728
MS.98          	18.12          	3.954
MS.99          	18.085         	3.603
MS.100         	18.047         	3.632
MS.101         	18.012         	3.529
MS.102         	17.975         	3.603
MS.103         	17.94          	3.547
MS.104         	17.905         	3.873
MS.105         	17.868         	3.567
MS.106         	17.833         	4.012
MS.107         	17.797         	3.718
MS.108         	17.762         	3.762
MS.109         	17.725         	3.992
MS.110         	17.69          	3.994
MS.111         	17.655         	4.415
MS.112         	17.62          	4.397
MS.113         	17.585         	3.829
MS.114         	17.55          	4.163
MS.115         	17.515         	4.191
MS.116         	17.48          	4.081
MS.117         	17.445         	4.278
MS.118         	17.41          	4.151
MS.119         	17.375         	4.008
MS.120         	17.34          	3.924
MS.121         	17.305         	3.658
MS.122         	17.27          	3.462
MS.123         	17.237         	3.472
MS.124         	17.202         	4.268
MS.125         	17.167         	4.22
MS.126         	17.132         	3.579
MS.127         	17.1           	3.422
MS.128         	17.065         	3.559
MS.129         	17.03          	3.634
MS.130         	16.997         	3.817
MS.131         	16.962         	3.219
MS.132         	16.93          	3.229
MS.133         	16.895         	3.75
MS.134         	16.862         	2.997
MS.135         	16.827         	3.249
MS.136         	16.795         	3.134
MS.137         	16.76          	3.509
MS.138         	16.727         	3.303
MS.139         	16.695         	3.235
MS.140         	16.66          	4.022
MS.141         	16.628         	3.897
MS.142         	16.595         	3.821
MS.143         	16.56          	3.998
MS.144         	16.528         	4.137
MS.145         	16.495         	3.708
MS.146         	16.462         	3.569
MS.147         	16.43          	3.702
MS.148         	16.395         	3.48
MS.149         	16.362         	3.247
MS.150         	16.33          	3.43
MS.151         	16.297         	3.464
MS.152         	16.265         	3.271
MS.153         	16.233         	3.46
MS.154         	16.2           	3.553
MS.155         	16.167         	3.394
MS.156         	16.135         	3.652
MS.157         	16.102         	3.555
MS.158         	16.073         	3.317
MS.159         	16.04          	3.42
MS.160         	16.007         	3.529
MS.161         	15.975         	3.561
MS.162         	15.943         	3.805
MS.163         	15.912         	3.68
MS.164         	15.88          	3.406
MS.165         	15.847         	3.388
MS.166         	15.818         	3.196
MS.167         	15.785         	3.281
MS.168         	15.752         	3.37
MS.169         	15.722         	3.4
MS.170         	15.69          	3.402
MS.171         	15.66          	3.275
MS.172         	15.627         	3.569
MS.173         	15.597         	3.432
MS.174         	15.565         	3.43
MS.175         	15.535         	3.36
MS.176         	15.502         	3.16
MS.177         	15.472         	3.333
MS.178         	15.44          	2.951
MS.179         	15.41          	3.331
MS.180         	15.38          	3.458
MS.181         	15.35          	3.356
MS.182         	15.318         	3.11
MS.183         	15.287         	3.607
MS.184         	15.257         	3.231
MS.185         	15.227         	3.456
MS.186         	15.195         	2.919
MS.187         	15.165         	2.959
MS.188         	15.135         	3.277
MS.189         	15.105         	3.327
MS.190         	15.075         	2.931
MS.191         	15.045         	3.11
MS.192         	15.015         	2.854
MS.193         	14.985         	2.987
MS.194         	14.955         	2.973
MS.195         	14.925         	3.015
MS.196         	14.895         	2.79
MS.197         	14.865         	2.858
MS.198         	14.835         	2.979
MS.199         	14.805         	2.957
MS.200         	14.777         	2.741
MS.201         	14.747         	2.786
MS.202         	14.717         	2.715
MS.203         	14.688         	2.816
MS.204         	14.66          	2.866
MS.205         	14.63          	2.763
MS.206         	14.6           	2.937
MS.207         	14.57          	2.691
MS.208         	14.542         	2.884
MS.209         	14.512         	2.739
MS.210         	14.485         	2.697
MS.211         	14.455         	2.806
MS.212         	14.425         	2.707
MS.213         	14.398         	2.723
MS.214         	14.367         	2.628
MS.215         	14.34          	2.508
MS.216         	14.31          	2.568
MS.217         	14.282         	2.588
MS.218         	14.255         	2.542
MS.219         	14.225         	2.425
MS.220         	14.197         	2.516
MS.221         	14.17          	2.415
MS.222         	14.14          	2.512
MS.223         	14.112         	2.379
MS.224         	14.085         	2.459
MS.225         	14.055         	2.453
MS.226         	14.028         	2.377
MS.227         	14             	2.391
MS.228         	13.972         	2.314
MS.229         	13.945         	2.228
MS.230         	13.915         	2.272
MS.231         	13.887         	2.286
MS.232         	13.86          	2.286
MS.233         	13.832         	2.3
MS.234         	13.805         	2.226
MS.235         	13.778         	2.284
MS.236         	13.75          	2.224
MS.237         	13.722         	2.274
MS.238         	13.695         	2.318
MS.239         	13.667         	2.175
MS.240         	13.64          	2.238
MS.241         	13.612         	2.236
MS.242         	13.585         	2.248
MS.243         	13.56          	2.189
MS.244         	13.532         	2.109
MS.245         	13.505         	2.153
MS.246         	13.477         	2.189
MS.247         	13.45          	2.165
MS.248         	13.425         	2.169
MS.249         	13.398         	2.153
MS.250         	13.37          	2.034
MS.251         	13.342         	1.988
MS.252         	13.318         	2.026
MS.253         	13.29          	2.002
MS.254         	13.265         	1.994
MS.255         	13.237         	2.046
MS.256         	13.21          	1.964
MS.257         	13.185         	2.01
MS.258         	13.157         	1.946
MS.259         	13.132         	1.922
MS.260         	13.105         	1.926
MS.261         	13.08          	1.873
MS.262         	13.052         	1.903
MS.263         	13.028         	1.805
MS.264         	13             	1.885
MS.265         	12.975         	1.919
MS.266         	12.95          	1.881
MS.267         	12.922         	1.863
MS.268         	12.898         	1.895
MS.269         	12.872         	1.813
MS.270         	12.845         	1.696
MS.271         	12.82          	1.732
MS.272         	12.795         	1.855
MS.273         	12.77          	1.676
MS.274         	12.745         	1.728
MS.275         	12.717         	1.7
MS.276         	12.693         	1.633
MS.277         	12.667         	1.678
MS.278         	12.642         	1.64
MS.279         	12.617         	1.573
MS.280         	12.592         	1.553
MS.281         	12.568         	1.563
MS.282         	12.542         	1.501
MS.283         	12.517         	1.529
MS.284         	12.492         	1.595
MS.285         	12.467         	1.438
MS.286         	12.443         	1.492
MS.287         	12.417         	1.45
MS.288         	12.392         	1.446
MS.289         	12.367         	1.458
MS.290         	12.342         	1.456
MS.291         	12.318         	1.39
MS.292         	12.292         	1.398
MS.293         	12.267         	1.406
MS.294         	12.245         	1.366
MS.295         	12.22          	1.339
MS.296         	12.195         	1.4
MS.297         	12.17          	1.287
MS.298         	12.148         	1.402
MS.299         	12.122         	1.358
MS.300         	12.097         	1.372
MS.301         	12.075         	1.204
MS.302         	12.05          	1.295
MS.303         	12.025         	1.263
MS.304         	12.002         	1.208
MS.305         	11.977         	1.227
MS.306         	11.952         	1.249
MS.307         	11.93          	1.233
MS.308         	11.905         	1.213
MS.309         	11.882         	1.194
MS.310         	11.858         	1.152
MS.311         	11.835         	1.178
MS.312         	11.81          	1.17
MS.313         	11.787         	1.084
MS.314         	11.765         	1.084
MS.315         	11.74          	1.154
MS.316         	11.717         	1.072
MS.317         	11.693         	1.106
MS.318         	11.67          	1.102
MS.319         	11.648         	1.098
MS.320         	11.622         	1.078
MS.321         	11.6           	1.013
MS.322         	11.577         	1.059
MS.323         	11.555         	1.011
MS.324         	11.53          	1.001
MS.325         	11.507         	0.892
MS.326         	11.485         	1.013
MS.327         	11.462         	1.025
MS.328         	11.44          	1.007
MS.329         	11.417         	0.963
MS.330         	11.392         	0.935
MS.331         	11.37          	0.963
MS.332         	11.347         	0.87
MS.333         	11.325         	0.918
MS.334         	11.302         	0.92
MS.335         	11.28          	0.854
MS.336         	11.257         	0.88
MS.337         	11.235         	0.842
MS.338         	11.212         	0.844
MS.339         	11.19          	0.788
MS.340         	11.167         	0.83
MS.341         	11.145         	0.866
MS.342         	11.122         	0.735
MS.343         	11.1           	0.651
MS.344         	11.08          	0.735
MS.345         	11.057         	0.79
MS.346         	11.035         	0.683
MS.347         	11.012         	0.645
MS.348         	10.99          	0.743
MS.349         	10.967         	0.624
MS.350         	10.948         	0.632
MS.351         	10.925         	0.6
MS.352         	10.903         	0.761
MS.353         	10.882         	0.582
MS.354         	10.86          	0.659
MS.355         	10.837         	0.614
MS.356         	10.815         	0.632
MS.357         	10.795         	0.578
MS.358         	10.773         	0.6
MS.359         	10.752         	0.546
MS.360         	10.73          	0.626
MS.361         	10.707         	0.663
MS.362         	10.688         	0.636
MS.363         	10.665         	0.58
MS.364         	10.645         	0.554
MS.365         	10.622         	0.6
MS.366         	10.602         	0.55
MS.367         	10.58          	0.495
MS.368         	10.56          	0.504
MS.369         	10.537         	0.457
MS.370         	10.517         	0.465
MS.371         	10.497         	0.471
MS.372         	10.475         	0.417
MS.373         	10.455         	0.445
MS.374         	10.432         	0.491
MS.375         	10.412         	0.437
MS.376         	10.392         	0.459
MS.377         	10.372         	0.453
MS.378         	10.35          	0.425
MS.379         	10.33          	0.455
MS.380         	10.31          	0.455
MS.381         	10.287         	0.405
MS.382         	10.267         	0.409
MS.383         	10.247         	0.439
MS.384         	10.227         	0.403
MS.385         	10.207         	0.401
MS.386         	10.188         	0.427
MS.387         	10.165         	0.383
MS.388         	10.145         	0.365
MS.389         	10.125         	0.385
MS.390         	10.105         	0.314
MS.391         	10.085         	0.395
MS.392         	10.065         	0.403
MS.393         	10.045         	0.324
MS.394         	10.025         	0.336
MS.395         	10.005         	0.312
MS.396         	9.985          	0.381
MS.397         	9.965          	0.286
MS.398         	9.945          	0.399
MS.399         	9.925          	0.292
MS.400         	9.905          	0.302
MS.401         	9.885          	0.292
MS.402         	9.865          	0.387
MS.403         	9.845          	0.288
MS.404         	9.825          	0.324
MS.405         	9.807          	0.324
MS.406         	9.787          	0.268
MS.407         	9.767          	0.292
MS.408         	9.747          	0.266
MS.409         	9.727          	0.296
MS.410         	9.71           	0.288
MS.411         	9.69           	0.272
MS.412         	9.67           	0.286
MS.413         	9.65           	0.264
MS.414         	9.632          	0.282
MS.415         	9.613          	0.294
MS.416         	9.592          	0.29
MS.417         	9.575          	0.266
MS.418         	9.555          	0.266
MS.419         	9.535          	0.282
MS.420         	9.517          	0.27
MS.421         	9.497          	0.28
MS.422         	9.477          	0.226
MS.423         	9.46           	0.284
MS.424         	9.44           	0.292
MS.425         	9.422          	0.256
MS.426         	9.403          	0.276
MS.427         	9.385          	0.26
MS.428         	9.365          	0.288
MS.429         	9.347          	0.266
MS.430         	9.327          	0.264
MS.431         	9.31           	0.232
MS.432         	9.29           	0.228
MS.433         	9.273          	0.246
MS.434         	9.255          	0.246
MS.435         	9.235          	0.252
MS.436         	9.217          	0.222
MS.437         	9.198          	0.224
MS.438         	9.18           	0.224
MS.439         	9.162          	0.226
MS.440         	9.142          	0.222
MS.441         	9.125          	0.228
MS.442         	9.108          	0.222
MS.443         	9.09           	0.226
MS.444         	9.07           	0.23
MS.445         	9.052          	0.209
MS.446         	9.035          	0.224
MS.447         	9.017          	0.228
MS.448         	8.997          	0.205
MS.449         	8.98           	0.228
MS.450         	8.962          	0.193
MS.451         	8.945          	0.195
MS.452         	8.927          	0.207
MS.453         	8.91           	0.236
MS.454         	8.89           	0.191
MS.455         	8.872          	0.201
MS.456         	8.855          	0.211
MS.457         	8.837          	0.209
MS.458         	8.82           	0.201
MS.459         	8.802          	0.201
MS.460         	8.785          	0.207
MS.461         	8.767          	0.201
MS.462         	8.75           	0.199
MS.463         	8.733          	0.193
MS.464         	8.715          	0.211
MS.465         	8.698          	0.201
MS.466         	8.68           	0.189
MS.467         	8.662          	0.224
MS.468         	8.645          	0.193
MS.469         	8.627          	0.201
MS.470         	8.61           	0.199
MS.471         	8.595          	0.195
MS.472         	8.577          	0.185
MS.473         	8.56           	0.218
MS.474         	8.542          	0.197
MS.475         	8.525          	0.26
MS.476         	8.507          	0.199
MS.477         	8.492          	0.173
MS.478         	8.475          	0.211
MS.479         	8.457          	0.197
MS.480         	8.44           	0.179
MS.481         	8.422          	0.199
MS.482         	8.408          	0.195
MS.483         	8.39           	0.191
MS.484         	8.372          	0.189
MS.485         	8.358          	0.197
MS.486         	8.34           	0.191
MS.487         	8.323          	0.211
MS.488         	8.307          	0.195
MS.489         	8.29           	0.193
MS.490         	8.273          	0.197
MS.491         	8.257          	0.193
MS.492         	8.24           	0.193
MS.493         	8.225          	0.191
MS.494         	8.207          	0.191
MS.495         	8.19           	0.195
MS.496         	8.175          	0.171
MS.497         	8.158          	0.205
MS.498         	8.142          	0.195
MS.499         	8.125          	0.214
MS.500         	8.11           	0.191
MS.501         	8.092          	0.191
