File:              	C:\Qtrac\Data\Daniel M Sørensen\MScan multicentre study\Data from centres\Odense\Processed data\PHC00902B.QZD
Name:              	DK.ODE.NC.3.1
Protocol:          	MSCAN-R2
Date:              	2/9/20
Start time:        	15:10:08
Age:               	29
Sex:               	M
Temperature:       	33.9
S/R sites:         	ADM
NC/disease:        	NC
Operator:          	TK
Comments:
M-SCAN DATA (1.6-0.0m)
Scanpts: 59, 92, 742, 758
Stim. (mA)     	Amp. (mV)
MS.1           	15.5           	6.637
MS.2           	15.5           	6.592
MS.3           	15.438         	6.61
MS.4           	15.407         	6.606
MS.5           	15.377         	6.617
MS.6           	15.345         	6.516
MS.7           	15.315         	6.528
MS.8           	15.285         	6.619
MS.9           	15.255         	6.57
MS.10          	15.222         	6.568
MS.11          	15.193         	6.655
MS.12          	15.162         	6.518
MS.13          	15.132         	6.647
MS.14          	15.102         	6.524
MS.15          	15.072         	6.643
MS.16          	15.042         	6.544
MS.17          	15.012         	6.604
MS.18          	14.983         	6.655
MS.19          	14.952         	6.576
MS.20          	14.922         	6.641
MS.21          	14.892         	6.643
MS.22          	14.862         	6.596
MS.23          	14.832         	6.703
MS.24          	14.802         	6.641
MS.25          	14.773         	6.594
MS.26          	14.745         	6.546
MS.27          	14.715         	6.61
MS.28          	14.685         	6.544
MS.29          	14.655         	6.596
MS.30          	14.627         	6.707
MS.31          	14.597         	6.572
MS.32          	14.568         	6.556
MS.33          	14.54          	6.647
MS.34          	14.51          	6.582
MS.35          	14.48          	6.602
MS.36          	14.452         	6.604
MS.37          	14.422         	6.6
MS.38          	14.395         	6.56
MS.39          	14.365         	6.586
MS.40          	14.337         	6.558
MS.41          	14.307         	6.566
MS.42          	14.28          	6.643
MS.43          	14.25          	6.621
MS.44          	14.222         	6.606
MS.45          	14.195         	6.59
MS.46          	14.165         	6.629
MS.47          	14.137         	6.657
MS.48          	14.11          	6.633
MS.49          	14.08          	6.713
MS.50          	14.052         	6.606
MS.51          	14.025         	6.576
MS.52          	13.997         	6.649
MS.53          	13.97          	6.641
MS.54          	13.94          	6.705
MS.55          	13.912         	6.677
MS.56          	13.885         	6.755
MS.57          	13.858         	6.675
MS.58          	13.83          	6.687
MS.59          	13.802         	6.747
MS.60          	13.775         	6.717
MS.61          	13.747         	6.598
MS.62          	13.72          	6.635
MS.63          	13.693         	6.625
MS.64          	13.665         	6.619
MS.65          	13.637         	6.612
MS.66          	13.61          	6.667
MS.67          	13.582         	6.731
MS.68          	13.555         	6.758
MS.69          	13.53          	6.691
MS.70          	13.502         	6.606
MS.71          	13.475         	6.625
MS.72          	13.447         	6.709
MS.73          	13.42          	6.663
MS.74          	13.395         	6.735
MS.75          	13.367         	6.701
MS.76          	13.34          	6.703
MS.77          	13.315         	6.681
MS.78          	13.287         	6.598
MS.79          	13.26          	6.689
MS.80          	13.235         	6.705
MS.81          	13.207         	6.643
MS.82          	13.182         	6.649
MS.83          	13.155         	6.647
MS.84          	13.13          	6.659
MS.85          	13.102         	6.762
MS.86          	13.077         	6.707
MS.87          	13.05          	6.621
MS.88          	13.025         	6.629
MS.89          	12.997         	6.709
MS.90          	12.972         	6.681
MS.91          	12.947         	6.711
MS.92          	12.92          	6.588
MS.93          	12.895         	6.592
MS.94          	12.87          	6.653
MS.95          	12.842         	6.631
MS.96          	12.818         	6.604
MS.97          	12.792         	6.612
MS.98          	12.767         	6.596
MS.99          	12.74          	6.619
MS.100         	12.715         	6.625
MS.101         	12.69          	6.619
MS.102         	12.665         	6.661
MS.103         	12.64          	6.471
MS.104         	12.615         	6.58
MS.105         	12.59          	6.5
MS.106         	12.565         	6.592
MS.107         	12.54          	6.594
MS.108         	12.515         	6.588
MS.109         	12.49          	6.552
MS.110         	12.465         	6.623
MS.111         	12.44          	6.546
MS.112         	12.415         	6.59
MS.113         	12.39          	6.57
MS.114         	12.365         	6.538
MS.115         	12.34          	6.439
MS.116         	12.315         	6.453
MS.117         	12.29          	6.578
MS.118         	12.265         	6.572
MS.119         	12.242         	6.562
MS.120         	12.217         	6.562
MS.121         	12.193         	6.504
MS.122         	12.167         	6.564
MS.123         	12.145         	6.562
MS.124         	12.12          	6.608
MS.125         	12.095         	6.53
MS.126         	12.072         	6.562
MS.127         	12.047         	6.602
MS.128         	12.023         	6.409
MS.129         	12             	6.536
MS.130         	11.975         	6.441
MS.131         	11.95          	6.486
MS.132         	11.927         	6.488
MS.133         	11.903         	6.455
MS.134         	11.88          	6.592
MS.135         	11.855         	6.451
MS.136         	11.832         	6.435
MS.137         	11.807         	6.465
MS.138         	11.785         	6.528
MS.139         	11.762         	6.433
MS.140         	11.738         	6.467
MS.141         	11.715         	6.51
MS.142         	11.69          	6.409
MS.143         	11.667         	6.409
MS.144         	11.645         	6.403
MS.145         	11.622         	6.421
MS.146         	11.597         	6.476
MS.147         	11.575         	6.417
MS.148         	11.552         	6.272
MS.149         	11.528         	6.471
MS.150         	11.505         	6.51
MS.151         	11.483         	6.379
MS.152         	11.46          	6.351
MS.153         	11.438         	6.387
MS.154         	11.415         	6.331
MS.155         	11.39          	6.443
MS.156         	11.367         	6.377
MS.157         	11.345         	6.333
MS.158         	11.322         	6.343
MS.159         	11.3           	6.343
MS.160         	11.278         	6.447
MS.161         	11.255         	6.467
MS.162         	11.233         	6.359
MS.163         	11.21          	6.387
MS.164         	11.188         	6.419
MS.165         	11.165         	6.335
MS.166         	11.142         	6.345
MS.167         	11.12          	6.177
MS.168         	11.1           	6.284
MS.169         	11.077         	6.401
MS.170         	11.055         	6.326
MS.171         	11.032         	6.268
MS.172         	11.01          	6.341
MS.173         	10.988         	6.355
MS.174         	10.967         	6.367
MS.175         	10.945         	6.367
MS.176         	10.922         	6.286
MS.177         	10.9           	6.296
MS.178         	10.88          	6.363
MS.179         	10.858         	6.234
MS.180         	10.835         	6.276
MS.181         	10.815         	6.341
MS.182         	10.792         	6.256
MS.183         	10.77          	6.256
MS.184         	10.75          	6.26
MS.185         	10.727         	6.341
MS.186         	10.707         	6.198
MS.187         	10.685         	6.266
MS.188         	10.662         	6.228
MS.189         	10.642         	6.276
MS.190         	10.62          	6.339
MS.191         	10.6           	6.175
MS.192         	10.577         	6.288
MS.193         	10.557         	6.224
MS.194         	10.537         	6.214
MS.195         	10.515         	6.341
MS.196         	10.495         	6.288
MS.197         	10.472         	6.26
MS.198         	10.452         	6.228
MS.199         	10.432         	6.288
MS.200         	10.41          	6.22
MS.201         	10.39          	6.286
MS.202         	10.37          	6.236
MS.203         	10.347         	6.212
MS.204         	10.327         	6.316
MS.205         	10.307         	6.167
MS.206         	10.287         	6.2
MS.207         	10.265         	6.198
MS.208         	10.245         	6.232
MS.209         	10.225         	6.23
MS.210         	10.205         	6.214
MS.211         	10.185         	6.171
MS.212         	10.165         	6.147
MS.213         	10.142         	6.236
MS.214         	10.122         	6.204
MS.215         	10.102         	6.034
MS.216         	10.082         	6.049
MS.217         	10.062         	6.234
MS.218         	10.042         	6.103
MS.219         	10.023         	6.133
MS.220         	10.002         	6.087
MS.221         	9.983          	6.22
MS.222         	9.962          	6.127
MS.223         	9.943          	6.099
MS.224         	9.922          	6.113
MS.225         	9.903          	6.133
MS.226         	9.882          	6.137
MS.227         	9.863          	6.206
MS.228         	9.842          	6.109
MS.229         	9.825          	6.151
MS.230         	9.805          	6.139
MS.231         	9.785          	6.131
MS.232         	9.765          	6.053
MS.233         	9.745          	6.143
MS.234         	9.727          	6.079
MS.235         	9.707          	6.044
MS.236         	9.688          	6.185
MS.237         	9.667          	6.19
MS.238         	9.65           	6.051
MS.239         	9.63           	6.175
MS.240         	9.61           	6.147
MS.241         	9.59           	6.123
MS.242         	9.573          	6.105
MS.243         	9.552          	6.022
MS.244         	9.532          	6.071
MS.245         	9.515          	6.095
MS.246         	9.495          	6.103
MS.247         	9.477          	6.117
MS.248         	9.457          	6.165
MS.249         	9.44           	6.125
MS.250         	9.42           	6.01
MS.251         	9.4            	6.091
MS.252         	9.382          	6.188
MS.253         	9.363          	6.093
MS.254         	9.345          	6.133
MS.255         	9.327          	6.119
MS.256         	9.307          	6.121
MS.257         	9.29           	5.942
MS.258         	9.27           	6.036
MS.259         	9.252          	5.891
MS.260         	9.233          	5.895
MS.261         	9.215          	6.057
MS.262         	9.198          	6.071
MS.263         	9.177          	5.734
MS.264         	9.16           	6.047
MS.265         	9.142          	5.966
MS.266         	9.122          	5.779
MS.267         	9.105          	6.02
MS.268         	9.087          	5.926
MS.269         	9.07           	6.034
MS.270         	9.05           	5.996
MS.271         	9.033          	5.821
MS.272         	9.015          	5.835
MS.273         	8.997          	5.793
MS.274         	8.977          	5.859
MS.275         	8.96           	5.92
MS.276         	8.943          	5.932
MS.277         	8.925          	5.68
MS.278         	8.908          	5.694
MS.279         	8.89           	5.573
MS.280         	8.872          	5.865
MS.281         	8.852          	5.72
MS.282         	8.835          	5.734
MS.283         	8.818          	5.366
MS.284         	8.8            	5.603
MS.285         	8.783          	5.65
MS.286         	8.765          	5.73
MS.287         	8.747          	5.398
MS.288         	8.73           	5.358
MS.289         	8.712          	5.472
MS.290         	8.695          	5.503
MS.291         	8.677          	5.195
MS.292         	8.66           	5.549
MS.293         	8.642          	5.575
MS.294         	8.627          	5.235
MS.295         	8.61           	5.382
MS.296         	8.592          	5.172
MS.297         	8.575          	5.146
MS.298         	8.557          	5.213
MS.299         	8.54           	5.138
MS.300         	8.523          	5.138
MS.301         	8.507          	5.009
MS.302         	8.49           	5.223
MS.303         	8.472          	4.929
MS.304         	8.455          	5.197
MS.305         	8.44           	5.19
MS.306         	8.422          	4.923
MS.307         	8.405          	4.949
MS.308         	8.387          	4.661
MS.309         	8.372          	4.794
MS.310         	8.355          	4.886
MS.311         	8.337          	4.786
MS.312         	8.323          	4.884
MS.313         	8.305          	4.763
MS.314         	8.287          	4.608
MS.315         	8.273          	4.586
MS.316         	8.255          	4.457
MS.317         	8.238          	4.766
MS.318         	8.222          	4.449
MS.319         	8.205          	4.578
MS.320         	8.19           	4.437
MS.321         	8.172          	4.655
MS.322         	8.158          	4.465
MS.323         	8.14           	4.498
MS.324         	8.125          	4.361
MS.325         	8.108          	4.355
MS.326         	8.092          	4.55
MS.327         	8.075          	4.264
MS.328         	8.06           	4.467
MS.329         	8.042          	4.254
MS.330         	8.028          	4.193
MS.331         	8.01           	4.183
MS.332         	7.995          	4.055
MS.333         	7.98           	4.061
MS.334         	7.962          	4.121
MS.335         	7.947          	4.175
MS.336         	7.932          	4.115
MS.337         	7.915          	4.175
MS.338         	7.9            	4.038
MS.339         	7.885          	3.952
MS.340         	7.867          	3.909
MS.341         	7.852          	4.065
MS.342         	7.837          	3.98
MS.343         	7.82           	3.909
MS.344         	7.805          	3.865
MS.345         	7.79           	4.125
MS.346         	7.775          	3.789
MS.347         	7.76           	3.875
MS.348         	7.742          	3.775
MS.349         	7.727          	3.718
MS.350         	7.712          	3.813
MS.351         	7.697          	3.746
MS.352         	7.682          	3.668
MS.353         	7.668          	3.771
MS.354         	7.65           	3.63
MS.355         	7.635          	3.857
MS.356         	7.62           	3.738
MS.357         	7.605          	3.853
MS.358         	7.59           	3.704
MS.359         	7.575          	3.478
MS.360         	7.56           	3.396
MS.361         	7.545          	3.464
MS.362         	7.53           	3.648
MS.363         	7.515          	3.384
MS.364         	7.5            	3.553
MS.365         	7.485          	3.438
MS.366         	7.47           	3.549
MS.367         	7.455          	3.46
MS.368         	7.44           	3.456
MS.369         	7.425          	3.319
MS.370         	7.41           	3.287
MS.371         	7.395          	3.503
MS.372         	7.38           	3.356
MS.373         	7.365          	3.317
MS.374         	7.35           	3.291
MS.375         	7.337          	3.344
MS.376         	7.322          	3.259
MS.377         	7.307          	3.346
MS.378         	7.293          	3.253
MS.379         	7.277          	3.339
MS.380         	7.262          	3.257
MS.381         	7.25           	3.271
MS.382         	7.235          	3.174
MS.383         	7.22           	3.158
MS.384         	7.205          	3.213
MS.385         	7.19           	3.076
MS.386         	7.177          	3.247
MS.387         	7.162          	3.096
MS.388         	7.148          	3.259
MS.389         	7.132          	3.154
MS.390         	7.12           	3.092
MS.391         	7.105          	3.072
MS.392         	7.09           	3.138
MS.393         	7.077          	3.118
MS.394         	7.062          	3.047
MS.395         	7.047          	3.116
MS.396         	7.035          	3.158
MS.397         	7.02           	3.057
MS.398         	7.007          	2.886
MS.399         	6.992          	3.124
MS.400         	6.977          	3.017
MS.401         	6.965          	2.991
MS.402         	6.95           	2.981
MS.403         	6.938          	2.963
MS.404         	6.922          	3.07
MS.405         	6.91           	3.001
MS.406         	6.895          	2.963
MS.407         	6.882          	2.892
MS.408         	6.867          	2.872
MS.409         	6.855          	2.999
MS.410         	6.84           	2.828
MS.411         	6.827          	2.816
MS.412         	6.812          	2.415
MS.413         	6.8            	2.824
MS.414         	6.785          	2.755
MS.415         	6.773          	2.864
MS.416         	6.757          	2.479
MS.417         	6.745          	2.655
MS.418         	6.733          	2.719
MS.419         	6.717          	2.804
MS.420         	6.705          	2.669
MS.421         	6.692          	2.763
MS.422         	6.677          	2.56
MS.423         	6.665          	2.697
MS.424         	6.652          	2.457
MS.425         	6.637          	2.461
MS.426         	6.625          	2.403
MS.427         	6.612          	2.562
MS.428         	6.597          	2.149
MS.429         	6.585          	2.387
MS.430         	6.572          	2.445
MS.431         	6.56           	1.942
MS.432         	6.545          	2.04
MS.433         	6.532          	1.944
MS.434         	6.52           	2.01
MS.435         	6.507          	2.056
MS.436         	6.492          	1.938
MS.437         	6.48           	2.02
MS.438         	6.467          	1.915
MS.439         	6.455          	2.022
MS.440         	6.442          	1.877
MS.441         	6.43           	1.869
MS.442         	6.418          	1.966
MS.443         	6.402          	1.879
MS.444         	6.39           	1.924
MS.445         	6.378          	1.877
MS.446         	6.365          	1.936
MS.447         	6.352          	1.811
MS.448         	6.34           	1.857
MS.449         	6.327          	1.668
MS.450         	6.315          	1.839
MS.451         	6.302          	1.589
MS.452         	6.29           	1.76
MS.453         	6.277          	1.674
MS.454         	6.265          	1.865
MS.455         	6.253          	1.585
MS.456         	6.24           	1.642
MS.457         	6.227          	1.738
MS.458         	6.215          	1.893
MS.459         	6.202          	1.674
MS.460         	6.19           	1.744
MS.461         	6.177          	1.579
MS.462         	6.165          	1.658
MS.463         	6.152          	1.654
MS.464         	6.14           	1.597
MS.465         	6.128          	1.625
MS.466         	6.115          	1.505
MS.467         	6.102          	1.591
MS.468         	6.09           	1.591
MS.469         	6.08           	1.591
MS.470         	6.067          	1.444
MS.471         	6.055          	1.569
MS.472         	6.043          	1.539
MS.473         	6.03           	1.595
MS.474         	6.017          	1.376
MS.475         	6.007          	1.553
MS.476         	5.995          	1.43
MS.477         	5.983          	1.422
MS.478         	5.97           	1.404
MS.479         	5.957          	1.368
MS.480         	5.947          	1.331
MS.481         	5.935          	1.339
MS.482         	5.922          	1.36
MS.483         	5.91           	1.521
MS.484         	5.9            	1.329
MS.485         	5.887          	1.339
MS.486         	5.875          	1.208
MS.487         	5.865          	1.231
MS.488         	5.852          	1.247
MS.489         	5.84           	1.198
MS.490         	5.83           	0.953
MS.491         	5.817          	1.279
MS.492         	5.805          	1.217
MS.493         	5.795          	1.249
MS.494         	5.782          	1.086
MS.495         	5.77           	1.122
MS.496         	5.76           	1.112
MS.497         	5.747          	0.953
MS.498         	5.737          	1.132
MS.499         	5.725          	0.85
MS.500         	5.713          	1.098
MS.501         	5.702          	0.894
