File:              	C:\Qtrac\Data\Daniel M Sørensen\MScan multicentre study\Data from centres\Ankara\Processed data\RÇC10113D.QZD
Name:              	TR.ANK.NC.11.1
Protocol:          	MSCAN-R2
Date:              	13/1/21
Start time:        	18:59:26
Age:               	30
Sex:               	F
Temperature:
S/R sites:         	TA
NC/disease:        	NC
Operator:          	HA
Comments:
M-SCAN DATA (4.1-1.1m)
Scanpts: 21, 25, 342, 346
Stim. (mA)     	Amp. (mV)
MS.1           	48             	5.452
MS.2           	48             	5.307
MS.3           	48             	5.325
MS.4           	48             	5.333
MS.5           	48             	5.406
MS.6           	48             	5.521
MS.7           	48             	5.406
MS.8           	48             	5.329
MS.9           	48             	5.428
MS.10          	48             	5.474
MS.11          	48             	5.668
MS.12          	48             	5.432
MS.13          	48             	5.372
MS.14          	48             	5.36
MS.15          	48             	5.402
MS.16          	48             	5.446
MS.17          	48             	5.583
MS.18          	48             	5.374
MS.19          	48             	5.646
MS.20          	48             	5.545
MS.21          	48             	5.563
MS.22          	48             	5.529
MS.23          	48             	5.605
MS.24          	47.905         	5.517
MS.25          	47.807         	5.605
MS.26          	47.712         	5.599
MS.27          	47.618         	5.601
MS.28          	47.522         	5.464
MS.29          	47.427         	5.468
MS.30          	47.333         	5.495
MS.31          	47.237         	5.346
MS.32          	47.142         	5.509
MS.33          	47.05          	5.44
MS.34          	46.955         	5.388
MS.35          	46.862         	5.444
MS.36          	46.767         	5.37
MS.37          	46.675         	5.333
MS.38          	46.583         	5.336
MS.39          	46.487         	5.285
MS.40          	46.395         	5.392
MS.41          	46.302         	5.432
MS.42          	46.21          	5.285
MS.43          	46.118         	5.225
MS.44          	46.025         	5.239
MS.45          	45.935         	5.338
MS.46          	45.842         	5.333
MS.47          	45.75          	5.287
MS.48          	45.66          	5.039
MS.49          	45.567         	5.1
MS.50          	45.477         	4.921
MS.51          	45.385         	5.092
MS.52          	45.295         	5.098
MS.53          	45.205         	5.106
MS.54          	45.115         	5.126
MS.55          	45.025         	5.009
MS.56          	44.935         	5.06
MS.57          	44.845         	5.062
MS.58          	44.755         	4.834
MS.59          	44.665         	5.078
MS.60          	44.575         	5.025
MS.61          	44.487         	5.106
MS.62          	44.397         	4.935
MS.63          	44.31          	4.906
MS.64          	44.22          	4.864
MS.65          	44.132         	4.753
MS.66          	44.045         	4.844
MS.67          	43.958         	4.834
MS.68          	43.868         	4.768
MS.69          	43.78          	4.788
MS.70          	43.692         	4.562
MS.71          	43.607         	4.876
MS.72          	43.52          	4.701
MS.73          	43.432         	4.763
MS.74          	43.345         	4.917
MS.75          	43.26          	4.689
MS.76          	43.173         	4.651
MS.77          	43.085         	4.598
MS.78          	43             	4.669
MS.79          	42.915         	4.504
MS.80          	42.827         	4.477
MS.81          	42.743         	4.403
MS.82          	42.657         	4.51
MS.83          	42.572         	4.413
MS.84          	42.487         	4.506
MS.85          	42.403         	4.413
MS.86          	42.317         	4.33
MS.87          	42.232         	4.544
MS.88          	42.147         	4.349
MS.89          	42.065         	4.375
MS.90          	41.98          	4.286
MS.91          	41.897         	4.189
MS.92          	41.812         	4.2
MS.93          	41.73          	4.206
MS.94          	41.645         	4.256
MS.95          	41.562         	4.195
MS.96          	41.48          	4.202
MS.97          	41.397         	4.117
MS.98          	41.315         	4.117
MS.99          	41.232         	3.968
MS.100         	41.15          	4.077
MS.101         	41.067         	3.992
MS.102         	40.985         	4.143
MS.103         	40.903         	3.893
MS.104         	40.82          	4.057
MS.105         	40.74          	3.891
MS.106         	40.657         	3.924
MS.107         	40.577         	3.859
MS.108         	40.495         	3.843
MS.109         	40.415         	3.827
MS.110         	40.335         	3.613
MS.111         	40.252         	3.694
MS.112         	40.173         	3.672
MS.113         	40.092         	3.507
MS.114         	40.013         	3.35
MS.115         	39.932         	3.376
MS.116         	39.853         	3.493
MS.117         	39.772         	3.287
MS.118         	39.695         	3.325
MS.119         	39.615         	3.333
MS.120         	39.535         	3.198
MS.121         	39.458         	3.057
MS.122         	39.377         	3.078
MS.123         	39.3           	3.027
MS.124         	39.22          	3.037
MS.125         	39.142         	2.882
MS.126         	39.065         	2.898
MS.127         	38.985         	2.844
MS.128         	38.907         	2.86
MS.129         	38.83          	2.856
MS.130         	38.752         	2.822
MS.131         	38.675         	2.681
MS.132         	38.597         	2.624
MS.133         	38.52          	2.683
MS.134         	38.445         	2.618
MS.135         	38.368         	2.518
MS.136         	38.29          	2.502
MS.137         	38.215         	2.526
MS.138         	38.138         	2.304
MS.139         	38.062         	2.407
MS.140         	37.985         	2.431
MS.141         	37.91          	2.363
MS.142         	37.835         	2.324
MS.143         	37.757         	2.324
MS.144         	37.682         	2.369
MS.145         	37.607         	2.369
MS.146         	37.532         	2.159
MS.147         	37.458         	2.067
MS.148         	37.382         	2.278
MS.149         	37.307         	2.153
MS.150         	37.232         	1.996
MS.151         	37.16          	2.056
MS.152         	37.085         	2.002
MS.153         	37.01          	1.968
MS.154         	36.938         	2.073
MS.155         	36.862         	2.012
MS.156         	36.79          	1.946
MS.157         	36.715         	1.948
MS.158         	36.642         	1.917
MS.159         	36.57          	1.869
MS.160         	36.495         	1.861
MS.161         	36.423         	1.899
MS.162         	36.35          	1.803
MS.163         	36.278         	1.875
MS.164         	36.205         	1.728
MS.165         	36.132         	1.756
MS.166         	36.06          	1.752
MS.167         	35.987         	1.716
MS.168         	35.917         	1.7
MS.169         	35.845         	1.732
MS.170         	35.772         	1.664
MS.171         	35.702         	1.531
MS.172         	35.63          	1.541
MS.173         	35.56          	1.553
MS.174         	35.487         	1.605
MS.175         	35.417         	1.398
MS.176         	35.347         	1.537
MS.177         	35.275         	1.571
MS.178         	35.205         	1.4
MS.179         	35.135         	1.285
MS.180         	35.065         	1.281
MS.181         	34.995         	1.263
MS.182         	34.925         	1.37
MS.183         	34.855         	1.41
MS.184         	34.785         	1.265
MS.185         	34.715         	1.297
MS.186         	34.647         	1.229
MS.187         	34.577         	1.162
MS.188         	34.507         	1.118
MS.189         	34.44          	1.1
MS.190         	34.37          	1.055
MS.191         	34.302         	1.068
MS.192         	34.232         	1.037
MS.193         	34.165         	1.035
MS.194         	34.097         	1.07
MS.195         	34.028         	1.08
MS.196         	33.96          	0.943
MS.197         	33.892         	0.965
MS.198         	33.825         	0.961
MS.199         	33.757         	0.993
MS.200         	33.69          	0.856
MS.201         	33.622         	0.868
MS.202         	33.555         	0.876
MS.203         	33.487         	0.878
MS.204         	33.423         	0.868
MS.205         	33.355         	0.844
MS.206         	33.287         	0.856
MS.207         	33.222         	0.796
MS.208         	33.155         	0.826
MS.209         	33.09          	0.836
MS.210         	33.022         	0.759
MS.211         	32.958         	0.798
MS.212         	32.89          	0.773
MS.213         	32.825         	0.751
MS.214         	32.76          	0.731
MS.215         	32.695         	0.739
MS.216         	32.63          	0.713
MS.217         	32.565         	0.737
MS.218         	32.5           	0.681
MS.219         	32.435         	0.632
MS.220         	32.37          	0.661
MS.221         	32.305         	0.713
MS.222         	32.24          	0.703
MS.223         	32.175         	0.685
MS.224         	32.11          	0.636
MS.225         	32.048         	0.703
MS.226         	31.983         	0.671
MS.227         	31.92          	0.596
MS.228         	31.855         	0.697
MS.229         	31.792         	0.608
MS.230         	31.727         	0.643
MS.231         	31.665         	0.59
MS.232         	31.602         	0.596
MS.233         	31.537         	0.475
MS.234         	31.475         	0.606
MS.235         	31.412         	0.534
MS.236         	31.35          	0.495
MS.237         	31.287         	0.413
MS.238         	31.225         	0.431
MS.239         	31.162         	0.439
MS.240         	31.1           	0.489
MS.241         	31.037         	0.429
MS.242         	30.975         	0.465
MS.243         	30.915         	0.427
MS.244         	30.852         	0.415
MS.245         	30.79          	0.423
MS.246         	30.73          	0.405
MS.247         	30.667         	0.433
MS.248         	30.605         	0.427
MS.249         	30.545         	0.363
MS.250         	30.485         	0.359
MS.251         	30.422         	0.375
MS.252         	30.362         	0.377
MS.253         	30.302         	0.431
MS.254         	30.24          	0.318
MS.255         	30.18          	0.365
MS.256         	30.12          	0.391
MS.257         	30.06          	0.348
MS.258         	30             	0.357
MS.259         	29.94          	0.29
MS.260         	29.88          	0.284
MS.261         	29.82          	0.314
MS.262         	29.76          	0.248
MS.263         	29.702         	0.276
MS.264         	29.642         	0.306
MS.265         	29.582         	0.282
MS.266         	29.525         	0.282
MS.267         	29.465         	0.31
MS.268         	29.405         	0.298
MS.269         	29.347         	0.262
MS.270         	29.287         	0.26
MS.271         	29.23          	0.238
MS.272         	29.172         	0.284
MS.273         	29.112         	0.228
MS.274         	29.055         	0.205
MS.275         	28.997         	0.161
MS.276         	28.94          	0.266
MS.277         	28.882         	0.207
MS.278         	28.825         	0.199
MS.279         	28.765         	0.228
MS.280         	28.71          	0.189
MS.281         	28.653         	0.214
MS.282         	28.595         	0.161
MS.283         	28.537         	0.179
MS.284         	28.48          	0.175
MS.285         	28.422         	0.167
MS.286         	28.368         	0.163
MS.287         	28.31          	0.181
MS.288         	28.252         	0.169
MS.289         	28.198         	0.181
MS.290         	28.14          	0.153
MS.291         	28.085         	0.167
MS.292         	28.028         	0.171
MS.293         	27.972         	0.161
MS.294         	27.915         	0.153
MS.295         	27.86          	0.157
MS.296         	27.805         	0.155
MS.297         	27.75          	0.171
MS.298         	27.692         	0.167
MS.299         	27.637         	0.181
MS.300         	27.582         	0.159
MS.301         	27.528         	0.165
MS.302         	27.472         	0.163
MS.303         	27.417         	0.137
MS.304         	27.362         	0.163
MS.305         	27.307         	0.165
MS.306         	27.255         	0.163
MS.307         	27.2           	0.153
MS.308         	27.145         	0.163
MS.309         	27.09          	0.159
MS.310         	27.037         	0.163
MS.311         	26.983         	0.153
MS.312         	26.93          	0.157
MS.313         	26.875         	0.143
MS.314         	26.823         	0.143
MS.315         	26.767         	0.163
MS.316         	26.715         	0.153
MS.317         	26.66          	0.153
MS.318         	26.608         	0.159
MS.319         	26.555         	0.137
MS.320         	26.502         	0.143
MS.321         	26.448         	0.165
MS.322         	26.395         	0.151
MS.323         	26.342         	0.137
MS.324         	26.29          	0.151
MS.325         	26.237         	0.133
MS.326         	26.185         	0.151
MS.327         	26.132         	0.133
MS.328         	26.08          	0.135
MS.329         	26.03          	0.137
MS.330         	25.977         	0.111
MS.331         	25.925         	0.133
MS.332         	25.872         	0.137
MS.333         	25.823         	0.135
MS.334         	25.77          	0.115
MS.335         	25.717         	0.133
MS.336         	25.667         	0.123
MS.337         	25.615         	0.107
MS.338         	25.565         	0.117
MS.339         	25.512         	0.109
MS.340         	25.462         	0.107
MS.341         	25.413         	0.101
MS.342         	25.36          	0.109
MS.343         	25.31          	0.101
MS.344         	25.26          	0.107
MS.345         	25.21          	0.109
MS.346         	25.157         	0.105
MS.347         	25.108         	0.103
MS.348         	25.057         	0.099
MS.349         	25.007         	0.103
MS.350         	24.957         	0.111
DERIVED EXCITABILITY VARIABLES
Program = QTracP 3/4/2020
Threshold method = 6 (optimised for CAP, using data for present condition only)
SR method = 1 (using actual data values)
6.                 	0.000               	Peak response\(mV)
17.                	30                  	Age (years)
18.                	2                   	Sex (M=1, F=2)

EXTRA VARIABLES

MScPeak(mV) = 5.34
MScS5(mA) = 29.44
MScS50(mA) = 38.57
MScS95(mA) = 45.07
MScNSteps = 5
MScSteps(%) = 12
MScStepMax(%) = 2.6
MScD50 = 39
MScSlope = 6.38
MSFPeakAmp(mV) = 5.46
MSFNUnits = 171
MSFMeanUnitAmp(uV) = 31.9
MSFHuntTime(m) = 2.28
MSFError(%) = 1.86
MSFNLarge = 46.78
MSFMedianAmp(%) = 0.46
MSFMedianAmp(mV) = 0.0251
MSFHalfAmpAmp(%) = 0.64
MSFHalfAmpAmp(mV) = 0.035
MSFLargestAmp(%) = 2.71
MSFLargestAmp(mV) = 0.148
MSFMeanRS(%) = 2
MSFOpts = 10106121
MScDuration(min) = 3
MSFTraces = 326
MSFSizeLimit(uV) = 13.6
MSFLimitType = 1
MSFSmallestAmp(uV) = 13.9

EXTRA WAVEFORMS


!MScan Model
!171
	1	25.08	0.27	2
	2	25.74	0.35	2
	3	26.95	0.29	2
	4	28.41	0.42	2
	5	28.91	0.75	2
	6	29.15	0.42	2
	7	29.6	0.75	2
	8	29.83	0.58	2
	9	30.03	0.3	2
	10	30.38	0.99	2
	11	30.63	0.34	2
	12	30.75	0.31	2
	13	31.06	0.7	2
	14	31.28	0.66	2
	15	31.38	0.47	2
	16	31.47	0.41	2
	17	31.56	0.3	2
	18	31.65	0.49	2
	19	31.88	1.11	2
	20	32.22	0.61	2
	21	32.41	0.35	2
	22	32.54	0.32	2
	23	32.65	0.27	2
	24	32.79	0.44	2
	25	32.88	0.37	2
	26	33.02	0.45	2
	27	33.2	0.53	2
	28	33.4	0.5	2
	29	33.48	0.41	2
	30	33.56	0.38	2
	31	33.65	0.39	2
	32	33.74	0.45	2
	33	33.83	0.29	2
	34	33.93	0.46	2
	35	34	0.34	2
	36	34.05	0.28	2
	37	34.11	0.3	2
	38	34.17	0.37	2
	39	34.22	0.34	2
	40	34.28	0.34	2
	41	34.34	0.38	2
	42	34.41	0.41	2
	43	34.48	0.33	2
	44	34.55	0.41	2
	45	34.62	0.5	2
	46	34.75	1.02	2
	47	34.95	1.54	2
	48	35.1	0.87	2
	49	35.3	1.65	2
	50	35.5	1.16	2
	51	35.64	1.35	2
	52	35.73	0.54	2
	53	35.79	0.32	2
	54	35.84	0.32	2
	55	35.94	0.52	2
	56	36	0.36	2
	57	36.05	0.36	2
	58	36.09	0.29	2
	59	36.13	0.27	2
	60	36.17	0.27	2
	61	36.21	0.26	2
	62	36.29	0.39	2
	63	36.37	0.57	2
	64	36.51	0.7	2
	65	36.65	0.72	2
	66	36.8	0.64	2
	67	36.95	0.75	2
	68	37.1	1.23	2
	69	37.21	0.56	2
	70	37.29	0.53	2
	71	37.37	0.43	2
	72	37.45	0.65	2
	73	37.53	0.7	2
	74	37.64	0.99	2
	75	37.76	0.52	2
	76	37.87	0.79	2
	77	37.94	0.44	2
	78	37.97	0.27	2
	79	38.01	0.27	2
	80	38.05	0.27	2
	81	38.09	0.3	2
	82	38.13	0.32	2
	83	38.17	0.34	2
	84	38.21	0.32	2
	85	38.25	0.39	2
	86	38.28	0.35	2
	87	38.34	0.52	2
	88	38.4	0.5	2
	89	38.45	0.52	2
	90	38.48	0.3	2
	91	38.51	0.3	2
	92	38.56	0.51	2
	93	38.62	0.61	2
	94	38.7	0.61	2
	95	38.76	0.48	2
	96	38.81	0.48	2
	97	38.84	0.25	2
	98	38.87	0.28	2
	99	38.89	0.28	2
	100	38.92	0.27	2
	101	38.95	0.26	2
	102	38.98	0.26	2
	103	39	0.26	2
	104	39.03	0.26	2
	105	39.06	0.26	2
	106	39.11	0.45	2
	107	39.15	0.55	2
	108	39.22	0.56	2
	109	39.27	0.63	2
	110	39.32	0.4	2
	111	39.34	0.28	2
	112	39.36	0.28	2
	113	39.39	0.28	2
	114	39.41	0.28	2
	115	39.43	0.28	2
	116	39.46	0.28	2
	117	39.5	0.49	2
	118	39.54	0.51	2
	119	39.58	0.51	2
	120	39.62	0.49	2
	121	39.67	0.4	2
	122	39.71	0.43	2
	123	39.75	0.49	2
	124	39.79	0.49	2
	125	39.84	0.49	2
	126	39.87	0.42	2
	127	39.91	0.37	2
	128	39.94	0.37	2
	129	39.97	0.37	2
	130	40	0.37	2
	131	40.04	0.39	2
	132	40.07	0.4	2
	133	40.1	0.4	2
	134	40.13	0.4	2
	135	40.17	0.4	2
	136	40.2	0.4	2
	137	40.23	0.4	2
	138	40.28	0.58	2
	139	40.35	0.91	2
	140	40.43	0.93	2
	141	40.5	1.02	2
	142	40.57	0.62	2
	143	40.65	0.62	2
	144	40.78	1.1	2
	145	40.92	0.9	2
	146	41.09	0.97	2
	147	41.29	0.95	2
	148	41.46	0.86	2
	149	41.61	0.98	2
	150	41.76	0.99	2
	151	41.94	1.02	2
	152	42.14	0.73	2
	153	42.38	1.23	2
	154	42.64	1.53	2
	155	42.75	0.47	2
	156	42.85	0.44	2
	157	42.94	0.58	2
	158	43.04	0.79	2
	159	43.55	2.6	2
	160	43.85	0.85	2
	161	44.11	1.29	2
	162	44.35	0.76	2
	163	44.96	2.71	2
	164	45.36	0.9	2
	165	45.6	0.86	2
	166	45.97	2.1	2
	167	46.57	1.79	2
	168	46.81	0.6	2
	169	46.98	0.5	2
	170	47.17	0.69	2
	171	47.49	0.95	2

