File:              	C:\Qtrac\Data\Daniel M Sørensen\MScan multicentre study\Data from centres\Ankara\Processed data\RCC10120C.QZD
Name:              	TR.ANK.NC.11.2
Protocol:          	MSCAN-R2
Date:              	20/1/21
Start time:        	15:03:23
Age:               	30
Sex:               	f
Temperature:
S/R sites:         	ADM
NC/disease:        	NC
Operator:          	ha
Comments:
M-SCAN DATA (7.5-1.2m)
Scanpts: 8, 16, 468, 497
Stim. (mA)     	Amp. (mV)
MS.1           	28.5           	11.558
MS.2           	28.5           	11.287
MS.3           	28.5           	11.412
MS.4           	28.5           	11.448
MS.5           	28.5           	11.674
MS.6           	28.5           	11.288
MS.7           	28.5           	11.499
MS.8           	28.5           	11.348
MS.9           	28.5           	11.268
MS.10          	28.5           	10.988
MS.11          	28.5           	11.488
MS.12          	28.5           	11.4
MS.13          	28.5           	11.492
MS.14          	28.5           	11.37
MS.15          	28.5           	11.312
MS.16          	28.5           	11.188
MS.17          	28.5           	11.301
MS.18          	28.5           	11.057
MS.19          	28.5           	11.361
MS.20          	28.5           	10.834
MS.21          	28.5           	11.155
MS.22          	28.5           	11.174
MS.23          	28.5           	11.022
MS.24          	28.385         	11.234
MS.25          	28.33          	10.887
MS.26          	28.272         	11.239
MS.27          	28.217         	11.002
MS.28          	28.16          	10.815
MS.29          	28.102         	10.74
MS.30          	28.047         	10.717
MS.31          	27.993         	10.85
MS.32          	27.935         	10.778
MS.33          	27.88          	10.251
MS.34          	27.825         	10.553
MS.35          	27.767         	10.439
MS.36          	27.712         	10.194
MS.37          	27.657         	10.131
MS.38          	27.602         	9.891
MS.39          	27.547         	10.222
MS.40          	27.493         	9.62
MS.41          	27.438         	9.189
MS.42          	27.382         	9.379
MS.43          	27.327         	9.016
MS.44          	27.272         	9.003
MS.45          	27.217         	9.343
MS.46          	27.165         	9.215
MS.47          	27.11          	8.86
MS.48          	27.055         	8.717
MS.49          	27.002         	8.715
MS.50          	26.948         	8.394
MS.51          	26.895         	8.416
MS.52          	26.84          	8.585
MS.53          	26.787         	8.17
MS.54          	26.733         	8.4
MS.55          	26.68          	7.717
MS.56          	26.627         	7.657
MS.57          	26.573         	8.241
MS.58          	26.52          	7.783
MS.59          	26.467         	7.948
MS.60          	26.415         	8.158
MS.61          	26.362         	7.792
MS.62          	26.307         	7.585
MS.63          	26.255         	7.201
MS.64          	26.202         	7.058
MS.65          	26.153         	7.083
MS.66          	26.1           	6.581
MS.67          	26.047         	7.073
MS.68          	25.995         	6.963
MS.69          	25.942         	7.057
MS.70          	25.89          	6.538
MS.71          	25.84          	6.991
MS.72          	25.787         	6.876
MS.73          	25.735         	7.159
MS.74          	25.685         	6.272
MS.75          	25.632         	6.143
MS.76          	25.582         	6.611
MS.77          	25.53          	6.299
MS.78          	25.48          	6.263
MS.79          	25.43          	6.425
MS.80          	25.377         	5.88
MS.81          	25.327         	5.64
MS.82          	25.278         	5.591
MS.83          	25.227         	5.894
MS.84          	25.175         	5.825
MS.85          	25.125         	5.668
MS.86          	25.075         	5.431
MS.87          	25.025         	5.537
MS.88          	24.975         	5.449
MS.89          	24.925         	5.347
MS.90          	24.875         	5.353
MS.91          	24.825         	5.314
MS.92          	24.778         	5.428
MS.93          	24.727         	5.065
MS.94          	24.677         	5.081
MS.95          	24.627         	5.087
MS.96          	24.58          	5.081
MS.97          	24.53          	4.636
MS.98          	24.48          	4.673
MS.99          	24.432         	4.75
MS.100         	24.382         	4.791
MS.101         	24.335         	4.597
MS.102         	24.285         	4.594
MS.103         	24.237         	4.609
MS.104         	24.19          	4.673
MS.105         	24.14          	4.426
MS.106         	24.092         	4.503
MS.107         	24.045         	4.596
MS.108         	23.997         	4.358
MS.109         	23.948         	4.348
MS.110         	23.9           	4.142
MS.111         	23.852         	4.402
MS.112         	23.805         	4.67
MS.113         	23.757         	4.41
MS.114         	23.71          	4.297
MS.115         	23.663         	4.33
MS.116         	23.615         	4.231
MS.117         	23.567         	4.417
MS.118         	23.52          	4.205
MS.119         	23.475         	4.646
MS.120         	23.427         	4.16
MS.121         	23.38          	4.341
MS.122         	23.332         	4.18
MS.123         	23.288         	3.965
MS.124         	23.24          	4.131
MS.125         	23.195         	3.944
MS.126         	23.147         	3.939
MS.127         	23.102         	4.047
MS.128         	23.055         	3.776
MS.129         	23.01          	4.135
MS.130         	22.962         	3.724
MS.131         	22.917         	3.727
MS.132         	22.872         	3.629
MS.133         	22.825         	3.224
MS.134         	22.78          	3.641
MS.135         	22.735         	3.436
MS.136         	22.69          	3.411
MS.137         	22.645         	3.45
MS.138         	22.6           	3.364
MS.139         	22.552         	3.514
MS.140         	22.507         	3.306
MS.141         	22.462         	3.248
MS.142         	22.42          	3.342
MS.143         	22.375         	3.148
MS.144         	22.33          	2.909
MS.145         	22.285         	3.245
MS.146         	22.24          	3.038
MS.147         	22.195         	2.968
MS.148         	22.153         	2.648
MS.149         	22.108         	2.902
MS.150         	22.062         	3.154
MS.151         	22.02          	2.961
MS.152         	21.975         	3.245
MS.153         	21.93          	3.551
MS.154         	21.887         	3.187
MS.155         	21.842         	3.049
MS.156         	21.8           	2.987
MS.157         	21.755         	2.921
MS.158         	21.712         	3.005
MS.159         	21.67          	2.898
MS.160         	21.625         	2.734
MS.161         	21.583         	2.975
MS.162         	21.54          	2.933
MS.163         	21.497         	2.74
MS.164         	21.455         	2.769
MS.165         	21.41          	2.899
MS.166         	21.368         	2.684
MS.167         	21.325         	2.715
MS.168         	21.282         	2.651
MS.169         	21.24          	2.78
MS.170         	21.198         	2.592
MS.171         	21.155         	2.539
MS.172         	21.112         	2.125
MS.173         	21.07          	2.134
MS.174         	21.03          	2.146
MS.175         	20.987         	2.361
MS.176         	20.945         	1.97
MS.177         	20.903         	2.02
MS.178         	20.862         	2.206
MS.179         	20.82          	1.798
MS.180         	20.778         	1.749
MS.181         	20.737         	2.01
MS.182         	20.695         	1.901
MS.183         	20.655         	1.788
MS.184         	20.612         	2.065
MS.185         	20.573         	1.609
MS.186         	20.53          	1.454
MS.187         	20.49          	1.532
MS.188         	20.448         	1.857
MS.189         	20.407         	1.643
MS.190         	20.368         	1.309
MS.191         	20.325         	1.417
MS.192         	20.285         	1.361
MS.193         	20.245         	1.136
MS.194         	20.205         	1.212
MS.195         	20.165         	1.265
MS.196         	20.122         	1.232
MS.197         	20.083         	1.176
MS.198         	20.042         	1.149
MS.199         	20.002         	1.145
MS.200         	19.962         	1.195
MS.201         	19.922         	1.182
MS.202         	19.882         	1.184
MS.203         	19.845         	1.044
MS.204         	19.805         	0.994
MS.205         	19.765         	0.948
MS.206         	19.725         	1.129
MS.207         	19.685         	0.955
MS.208         	19.647         	0.953
MS.209         	19.608         	0.729
MS.210         	19.567         	0.929
MS.211         	19.53          	0.889
MS.212         	19.49          	0.897
MS.213         	19.45          	0.884
MS.214         	19.413         	0.945
MS.215         	19.372         	0.786
MS.216         	19.335         	0.848
MS.217         	19.295         	0.793
MS.218         	19.257         	0.864
MS.219         	19.22          	0.815
MS.220         	19.18          	0.762
MS.221         	19.142         	0.819
MS.222         	19.105         	0.842
MS.223         	19.065         	0.787
MS.224         	19.028         	0.83
MS.225         	18.99          	0.82
MS.226         	18.952         	0.768
MS.227         	18.915         	0.858
MS.228         	18.875         	0.735
MS.229         	18.837         	0.619
MS.230         	18.8           	0.743
MS.231         	18.762         	0.574
MS.232         	18.725         	0.604
MS.233         	18.688         	0.626
MS.234         	18.65          	0.579
MS.235         	18.612         	0.558
MS.236         	18.577         	0.591
MS.237         	18.54          	0.463
MS.238         	18.503         	0.653
MS.239         	18.465         	0.441
MS.240         	18.427         	0.685
MS.241         	18.392         	0.575
MS.242         	18.355         	0.575
MS.243         	18.317         	0.437
MS.244         	18.282         	0.553
MS.245         	18.245         	0.579
MS.246         	18.208         	0.541
MS.247         	18.172         	0.541
MS.248         	18.135         	0.579
MS.249         	18.1           	0.519
MS.250         	18.062         	0.548
MS.251         	18.028         	0.482
MS.252         	17.993         	0.262
MS.253         	17.955         	0.382
MS.254         	17.92          	0.319
MS.255         	17.885         	0.441
MS.256         	17.847         	0.261
MS.257         	17.812         	0.317
MS.258         	17.778         	0.319
MS.259         	17.743         	0.356
MS.260         	17.705         	0.334
MS.261         	17.67          	0.319
MS.262         	17.635         	0.248
MS.263         	17.6           	0.302
MS.264         	17.565         	0.262
MS.265         	17.53          	0.248
MS.266         	17.495         	0.302
MS.267         	17.46          	0.255
MS.268         	17.425         	0.389
MS.269         	17.39          	0.261
MS.270         	17.355         	0.25
MS.271         	17.32          	0.221
MS.272         	17.285         	0.251
MS.273         	17.253         	0.2
MS.274         	17.217         	0.203
MS.275         	17.182         	0.199
MS.276         	17.147         	0.198
MS.277         	17.115         	0.166
MS.278         	17.08          	0.161
MS.279         	17.045         	0.175
MS.280         	17.012         	0.203
MS.281         	16.977         	0.182
MS.282         	16.945         	0.143
MS.283         	16.91          	0.171
MS.284         	16.875         	0.166
MS.285         	16.842         	0.145
MS.286         	16.81          	0.143
MS.287         	16.775         	0.142
MS.288         	16.743         	0.146
MS.289         	16.708         	0.145
MS.290         	16.675         	0.126
MS.291         	16.642         	0.148
MS.292         	16.608         	0.145
MS.293         	16.575         	0.164
MS.294         	16.542         	0.14
MS.295         	16.51          	0.166
MS.296         	16.475         	0.17
MS.297         	16.442         	0.123
MS.298         	16.41          	0.176
MS.299         	16.378         	0.162
MS.300         	16.345         	0.154
MS.301         	16.312         	0.151
MS.302         	16.28          	0.159
MS.303         	16.247         	0.159
MS.304         	16.215         	0.144
MS.305         	16.182         	0.144
MS.306         	16.15          	0.17
MS.307         	16.118         	0.159
MS.308         	16.085         	0.151
MS.309         	16.052         	0.146
MS.310         	16.02          	0.142
MS.311         	15.99          	0.115
MS.312         	15.957         	0.159
MS.313         	15.925         	0.133
MS.314         	15.892         	0.149
MS.315         	15.862         	0.132
MS.316         	15.83          	0.132
MS.317         	15.797         	0.159
MS.318         	15.767         	0.142
MS.319         	15.735         	0.12
MS.320         	15.705         	0.101
MS.321         	15.672         	0.096
MS.322         	15.64          	0.151
MS.323         	15.61          	0.104
MS.324         	15.577         	0.107
MS.325         	15.547         	0.117
MS.326         	15.517         	0.123
MS.327         	15.485         	0.115
MS.328         	15.455         	0.118
MS.329         	15.422         	0.111
MS.330         	15.392         	0.133
MS.331         	15.362         	0.117
MS.332         	15.332         	0.127
MS.333         	15.3           	0.125
MS.334         	15.27          	0.137
MS.335         	15.24          	0.116
MS.336         	15.21          	0.092
MS.337         	15.18          	0.118
MS.338         	15.148         	0.11
MS.339         	15.117         	0.117
MS.340         	15.087         	0.116
MS.341         	15.057         	0.114
MS.342         	15.027         	0.072
MS.343         	14.997         	0.071
MS.344         	14.967         	0.122
MS.345         	14.938         	0.07
MS.346         	14.907         	0.116
MS.347         	14.877         	0.076
MS.348         	14.847         	0.068
MS.349         	14.82          	0.071
MS.350         	14.79          	0.073
MS.351         	14.76          	0.071
MS.352         	14.73          	0.068
MS.353         	14.7           	0.072
MS.354         	14.672         	0.067
MS.355         	14.642         	0.071
MS.356         	14.612         	0.074
MS.357         	14.582         	0.073
MS.358         	14.555         	0.12
MS.359         	14.525         	0.07
MS.360         	14.497         	0.074
MS.361         	14.467         	0.076
MS.362         	14.438         	0.074
MS.363         	14.41          	0.07
MS.364         	14.38          	0.072
MS.365         	14.352         	0.073
MS.366         	14.322         	0.071
MS.367         	14.295         	0.072
MS.368         	14.267         	0.073
MS.369         	14.237         	0.07
MS.370         	14.21          	0.07
MS.371         	14.18          	0.072
MS.372         	14.153         	0.068
MS.373         	14.125         	0.071
MS.374         	14.095         	0.072
MS.375         	14.068         	0.072
MS.376         	14.04          	0.073
MS.377         	14.012         	0.072
MS.378         	13.985         	0.071
MS.379         	13.955         	0.076
MS.380         	13.927         	0.071
MS.381         	13.9           	0.073
MS.382         	13.872         	0.072
MS.383         	13.845         	0.072
MS.384         	13.818         	0.076
MS.385         	13.79          	0.076
MS.386         	13.762         	0.076
MS.387         	13.735         	0.073
MS.388         	13.707         	0.074
MS.389         	13.68          	0.071
MS.390         	13.653         	0.071
MS.391         	13.625         	0.068
MS.392         	13.597         	0.076
MS.393         	13.57          	0.072
MS.394         	13.542         	0.073
MS.395         	13.517         	0.073
MS.396         	13.49          	0.072
MS.397         	13.462         	0.071
MS.398         	13.435         	0.07
MS.399         	13.407         	0.072
MS.400         	13.382         	0.067
MS.401         	13.355         	0.07
MS.402         	13.327         	0.071
MS.403         	13.302         	0.068
MS.404         	13.275         	0.076
MS.405         	13.247         	0.067
MS.406         	13.222         	0.073
MS.407         	13.195         	0.073
MS.408         	13.17          	0.072
MS.409         	13.142         	0.07
MS.410         	13.117         	0.071
MS.411         	13.09          	0.072
MS.412         	13.065         	0.071
MS.413         	13.037         	0.071
MS.414         	13.012         	0.072
MS.415         	12.987         	0.07
MS.416         	12.96          	0.07
MS.417         	12.935         	0.074
MS.418         	12.907         	0.077
MS.419         	12.882         	0.068
MS.420         	12.858         	0.071
MS.421         	12.832         	0.072
MS.422         	12.805         	0.071
MS.423         	12.78          	0.073
MS.424         	12.755         	0.071
MS.425         	12.73          	0.073
MS.426         	12.705         	0.074
MS.427         	12.677         	0.071
MS.428         	12.653         	0.074
MS.429         	12.627         	0.073
MS.430         	12.602         	0.074
MS.431         	12.577         	0.074
MS.432         	12.552         	0.072
MS.433         	12.528         	0.071
MS.434         	12.502         	0.072
MS.435         	12.477         	0.07
MS.436         	12.452         	0.074
MS.437         	12.427         	0.074
MS.438         	12.403         	0.077
MS.439         	12.377         	0.078
MS.440         	12.352         	0.073
MS.441         	12.327         	0.074
MS.442         	12.302         	0.071
MS.443         	12.28          	0.07
MS.444         	12.255         	0.068
MS.445         	12.23          	0.079
MS.446         	12.205         	0.071
MS.447         	12.182         	0.077
MS.448         	12.157         	0.072
MS.449         	12.132         	0.073
MS.450         	12.108         	0.074
MS.451         	12.085         	0.077
MS.452         	12.06          	0.068
MS.453         	12.035         	0.072
MS.454         	12.012         	0.074
MS.455         	11.988         	0.072
MS.456         	11.965         	0.076
MS.457         	11.94          	0.073
MS.458         	11.915         	0.071
MS.459         	11.892         	0.071
MS.460         	11.867         	0.072
MS.461         	11.845         	0.073
MS.462         	11.822         	0.074
MS.463         	11.797         	0.072
MS.464         	11.775         	0.077
MS.465         	11.75          	0.074
MS.466         	11.727         	0.067
MS.467         	11.702         	0.072
MS.468         	11.68          	0.065
MS.469         	11.657         	0.073
MS.470         	11.632         	0.071
MS.471         	11.61          	0.07
MS.472         	11.587         	0.073
MS.473         	11.565         	0.071
MS.474         	11.54          	0.073
MS.475         	11.517         	0.073
MS.476         	11.495         	0.072
MS.477         	11.472         	0.068
MS.478         	11.45          	0.07
MS.479         	11.425         	0.076
MS.480         	11.403         	0.072
MS.481         	11.38          	0.076
MS.482         	11.358         	0.074
MS.483         	11.335         	0.074
MS.484         	11.312         	0.072
MS.485         	11.29          	0.072
MS.486         	11.267         	0.072
MS.487         	11.245         	0.073
MS.488         	11.222         	0.073
MS.489         	11.2           	0.077
MS.490         	11.177         	0.076
MS.491         	11.155         	0.072
MS.492         	11.132         	0.073
MS.493         	11.11          	0.076
MS.494         	11.087         	0.072
MS.495         	11.068         	0.071
MS.496         	11.045         	0.07
MS.497         	11.023         	0.072
MS.498         	11             	0.076
MS.499         	10.977         	0.071
MS.500         	10.955         	0.074
