File:              	C:\Qtrac\Data\Daniel M Sørensen\MScan multicentre study\Data from centres\Ankara\Processed data\RCC10120B.QZD
Name:              	TR.ANK.NC.11.2
Protocol:          	MSCAN-R2
Date:              	20/1/21
Start time:        	14:52:26
Age:               	30
Sex:               	f
Temperature:
S/R sites:         	APB
NC/disease:        	NC
Operator:          	ha
Comments:
M-SCAN DATA (6.1-1m)
Scanpts: 12, 16, 477, 486
Stim. (mA)     	Amp. (mV)
MS.1           	21             	7.983
MS.2           	21             	7.944
MS.3           	21             	7.983
MS.4           	21             	7.85
MS.5           	21             	8.083
MS.6           	21             	8.004
MS.7           	21             	8.054
MS.8           	21             	7.911
MS.9           	21             	7.966
MS.10          	21             	8.059
MS.11          	21             	8.071
MS.12          	21             	8.04
MS.13          	21             	8.051
MS.14          	21             	8.081
MS.15          	21             	8.055
MS.16          	21             	8.08
MS.17          	21             	8.07
MS.18          	21             	7.76
MS.19          	21             	8.107
MS.20          	21             	7.996
MS.21          	21             	8.176
MS.22          	21             	7.637
MS.23          	20.915         	7.769
MS.24          	20.875         	7.97
MS.25          	20.833         	7.754
MS.26          	20.79          	7.764
MS.27          	20.75          	7.781
MS.28          	20.708         	7.598
MS.29          	20.667         	7.733
MS.30          	20.625         	7.761
MS.31          	20.585         	7.728
MS.32          	20.542         	7.614
MS.33          	20.502         	7.616
MS.34          	20.46          	8.018
MS.35          	20.42          	7.621
MS.36          	20.38          	7.593
MS.37          	20.337         	7.616
MS.38          	20.297         	7.687
MS.39          	20.257         	7.567
MS.40          	20.217         	7.523
MS.41          	20.177         	7.522
MS.42          	20.135         	7.548
MS.43          	20.095         	7.551
MS.44          	20.055         	7.539
MS.45          	20.015         	7.524
MS.46          	19.975         	7.622
MS.47          	19.935         	7.513
MS.48          	19.895         	7.539
MS.49          	19.855         	7.513
MS.50          	19.817         	7.534
MS.51          	19.778         	7.529
MS.52          	19.737         	7.406
MS.53          	19.698         	7.119
MS.54          	19.657         	7.516
MS.55          	19.62          	7.385
MS.56          	19.58          	7.184
MS.57          	19.54          	7.334
MS.58          	19.502         	7.04
MS.59          	19.462         	7.229
MS.60          	19.425         	7.037
MS.61          	19.385         	6.394
MS.62          	19.347         	7.015
MS.63          	19.307         	7.285
MS.64          	19.27          	7.12
MS.65          	19.23          	6.703
MS.66          	19.192         	6.943
MS.67          	19.155         	7.015
MS.68          	19.115         	6.926
MS.69          	19.077         	6.86
MS.70          	19.04          	6.648
MS.71          	19.002         	6.853
MS.72          	18.962         	6.88
MS.73          	18.925         	6.361
MS.74          	18.887         	6.143
MS.75          	18.85          	6.034
MS.76          	18.812         	6.118
MS.77          	18.775         	6.405
MS.78          	18.737         	6.63
MS.79          	18.7           	6.215
MS.80          	18.663         	6.04
MS.81          	18.625         	6.146
MS.82          	18.587         	6.078
MS.83          	18.55          	6.012
MS.84          	18.515         	6.172
MS.85          	18.477         	5.344
MS.86          	18.44          	6.27
MS.87          	18.403         	5.197
MS.88          	18.368         	5.477
MS.89          	18.33          	5.88
MS.90          	18.292         	5.663
MS.91          	18.257         	5.157
MS.92          	18.22          	4.966
MS.93          	18.182         	5.537
MS.94          	18.147         	5.619
MS.95          	18.11          	5.046
MS.96          	18.075         	5.117
MS.97          	18.038         	4.963
MS.98          	18.003         	4.908
MS.99          	17.967         	4.961
MS.100         	17.93          	4.652
MS.101         	17.895         	4.718
MS.102         	17.86          	4.714
MS.103         	17.823         	4.562
MS.104         	17.788         	4.524
MS.105         	17.753         	4.482
MS.106         	17.717         	4.521
MS.107         	17.682         	4.426
MS.108         	17.645         	4.68
MS.109         	17.61          	4.303
MS.110         	17.575         	4.463
MS.111         	17.54          	4.546
MS.112         	17.505         	4.396
MS.113         	17.47          	4.381
MS.114         	17.435         	4.06
MS.115         	17.4           	4.218
MS.116         	17.365         	4.211
MS.117         	17.333         	4.174
MS.118         	17.297         	4.032
MS.119         	17.262         	4.215
MS.120         	17.227         	4.055
MS.121         	17.192         	4.276
MS.122         	17.16          	4.088
MS.123         	17.125         	4.066
MS.124         	17.09          	3.719
MS.125         	17.057         	4.049
MS.126         	17.022         	3.898
MS.127         	16.987         	3.895
MS.128         	16.955         	3.771
MS.129         	16.92          	3.59
MS.130         	16.887         	3.859
MS.131         	16.852         	3.627
MS.132         	16.82          	3.516
MS.133         	16.785         	3.702
MS.134         	16.753         	3.585
MS.135         	16.717         	3.724
MS.136         	16.685         	3.654
MS.137         	16.653         	3.394
MS.138         	16.618         	3.628
MS.139         	16.585         	3.336
MS.140         	16.552         	3.578
MS.141         	16.52          	3.381
MS.142         	16.485         	3.384
MS.143         	16.452         	3.411
MS.144         	16.42          	3.152
MS.145         	16.387         	3.101
MS.146         	16.355         	3.361
MS.147         	16.323         	2.971
MS.148         	16.29          	3.237
MS.149         	16.257         	3.265
MS.150         	16.225         	3.008
MS.151         	16.192         	3.208
MS.152         	16.16          	3.263
MS.153         	16.128         	2.859
MS.154         	16.095         	2.887
MS.155         	16.062         	2.759
MS.156         	16.03          	2.88
MS.157         	16             	2.88
MS.158         	15.967         	3.142
MS.159         	15.935         	2.854
MS.160         	15.902         	2.811
MS.161         	15.872         	2.662
MS.162         	15.84          	2.791
MS.163         	15.807         	2.92
MS.164         	15.777         	2.694
MS.165         	15.745         	2.675
MS.166         	15.712         	2.498
MS.167         	15.682         	2.413
MS.168         	15.65          	2.163
MS.169         	15.62          	2.574
MS.170         	15.587         	2.548
MS.171         	15.557         	2.495
MS.172         	15.525         	1.964
MS.173         	15.495         	2.094
MS.174         	15.465         	2.142
MS.175         	15.432         	2.101
MS.176         	15.402         	2.405
MS.177         	15.372         	2.129
MS.178         	15.34          	1.886
MS.179         	15.31          	1.932
MS.180         	15.28          	1.837
MS.181         	15.25          	1.804
MS.182         	15.217         	2.189
MS.183         	15.188         	1.895
MS.184         	15.157         	1.862
MS.185         	15.127         	1.802
MS.186         	15.097         	2.074
MS.187         	15.068         	1.797
MS.188         	15.037         	1.643
MS.189         	15.007         	1.82
MS.190         	14.977         	1.766
MS.191         	14.947         	1.68
MS.192         	14.917         	1.759
MS.193         	14.887         	1.704
MS.194         	14.858         	1.553
MS.195         	14.827         	1.653
MS.196         	14.797         	1.765
MS.197         	14.77          	1.564
MS.198         	14.74          	1.547
MS.199         	14.71          	1.584
MS.200         	14.68          	1.498
MS.201         	14.65          	1.587
MS.202         	14.622         	1.449
MS.203         	14.592         	1.709
MS.204         	14.562         	1.466
MS.205         	14.535         	1.597
MS.206         	14.505         	1.521
MS.207         	14.477         	1.545
MS.208         	14.447         	1.47
MS.209         	14.417         	1.461
MS.210         	14.39          	1.46
MS.211         	14.36          	1.505
MS.212         	14.332         	1.427
MS.213         	14.302         	1.436
MS.214         	14.275         	1.277
MS.215         	14.247         	1.375
MS.216         	14.217         	1.156
MS.217         	14.19          	1.339
MS.218         	14.162         	1.143
MS.219         	14.132         	1.306
MS.220         	14.105         	1.19
MS.221         	14.077         	1.123
MS.222         	14.047         	1.174
MS.223         	14.02          	1.165
MS.224         	13.992         	1.166
MS.225         	13.965         	1.132
MS.226         	13.938         	1.051
MS.227         	13.91          	1.135
MS.228         	13.88          	1.152
MS.229         	13.852         	1.134
MS.230         	13.825         	1.127
MS.231         	13.797         	1.14
MS.232         	13.77          	1.143
MS.233         	13.742         	1.044
MS.234         	13.715         	1.102
MS.235         	13.688         	1.128
MS.236         	13.66          	1.068
MS.237         	13.632         	1.053
MS.238         	13.605         	1.113
MS.239         	13.58          	1.112
MS.240         	13.552         	1.06
MS.241         	13.525         	1.017
MS.242         	13.497         	1.079
MS.243         	13.47          	1.056
MS.244         	13.445         	1.027
MS.245         	13.417         	1.03
MS.246         	13.39          	0.807
MS.247         	13.362         	0.841
MS.248         	13.337         	0.873
MS.249         	13.31          	0.824
MS.250         	13.282         	0.745
MS.251         	13.257         	0.745
MS.252         	13.23          	0.817
MS.253         	13.205         	0.922
MS.254         	13.177         	0.811
MS.255         	13.153         	0.719
MS.256         	13.125         	0.714
MS.257         	13.1           	0.751
MS.258         	13.072         	0.89
MS.259         	13.047         	0.791
MS.260         	13.02          	0.717
MS.261         	12.995         	0.713
MS.262         	12.967         	0.712
MS.263         	12.943         	0.712
MS.264         	12.917         	0.607
MS.265         	12.89          	0.536
MS.266         	12.865         	0.703
MS.267         	12.84          	0.636
MS.268         	12.812         	0.53
MS.269         	12.787         	0.71
MS.270         	12.762         	0.712
MS.271         	12.738         	0.648
MS.272         	12.712         	0.564
MS.273         	12.685         	0.577
MS.274         	12.66          	0.529
MS.275         	12.635         	0.715
MS.276         	12.61          	0.411
MS.277         	12.585         	0.381
MS.278         	12.56          	0.533
MS.279         	12.535         	0.428
MS.280         	12.51          	0.532
MS.281         	12.485         	0.554
MS.282         	12.46          	0.358
MS.283         	12.435         	0.502
MS.284         	12.41          	0.4
MS.285         	12.385         	0.376
MS.286         	12.36          	0.432
MS.287         	12.335         	0.378
MS.288         	12.312         	0.316
MS.289         	12.287         	0.416
MS.290         	12.262         	0.36
MS.291         	12.238         	0.398
MS.292         	12.212         	0.411
MS.293         	12.19          	0.295
MS.294         	12.165         	0.311
MS.295         	12.14          	0.309
MS.296         	12.115         	0.383
MS.297         	12.092         	0.291
MS.298         	12.068         	0.321
MS.299         	12.042         	0.203
MS.300         	12.02          	0.194
MS.301         	11.995         	0.388
MS.302         	11.972         	0.326
MS.303         	11.947         	0.208
MS.304         	11.922         	0.205
MS.305         	11.9           	0.215
MS.306         	11.875         	0.326
MS.307         	11.852         	0.203
MS.308         	11.827         	0.22
MS.309         	11.805         	0.214
MS.310         	11.782         	0.314
MS.311         	11.757         	0.33
MS.312         	11.735         	0.22
MS.313         	11.71          	0.22
MS.314         	11.688         	0.231
MS.315         	11.665         	0.203
MS.316         	11.64          	0.212
MS.317         	11.617         	0.188
MS.318         	11.595         	0.2
MS.319         	11.57          	0.216
MS.320         	11.547         	0.201
MS.321         	11.525         	0.231
MS.322         	11.502         	0.232
MS.323         	11.48          	0.189
MS.324         	11.455         	0.216
MS.325         	11.432         	0.198
MS.326         	11.41          	0.265
MS.327         	11.387         	0.222
MS.328         	11.365         	0.226
MS.329         	11.342         	0.223
MS.330         	11.32          	0.127
MS.331         	11.297         	0.19
MS.332         	11.275         	0.203
MS.333         	11.252         	0.149
MS.334         	11.23          	0.159
MS.335         	11.207         	0.157
MS.336         	11.185         	0.227
MS.337         	11.162         	0.194
MS.338         	11.14          	0.15
MS.339         	11.117         	0.188
MS.340         	11.095         	0.148
MS.341         	11.073         	0.186
MS.342         	11.05          	0.057
MS.343         	11.03          	0.172
MS.344         	11.007         	0.16
MS.345         	10.985         	0.176
MS.346         	10.962         	0.149
MS.347         	10.94          	0.173
MS.348         	10.92          	0.137
MS.349         	10.898         	0.165
MS.350         	10.875         	0.167
MS.351         	10.855         	0.067
MS.352         	10.832         	0.103
MS.353         	10.81          	0.164
MS.354         	10.79          	0.071
MS.355         	10.767         	0.088
MS.356         	10.745         	0.148
MS.357         	10.725         	0.155
MS.358         	10.702         	0.19
MS.359         	10.682         	0.095
MS.360         	10.66          	0.056
MS.361         	10.64          	0.071
MS.362         	10.617         	0.067
MS.363         	10.597         	0.11
MS.364         	10.575         	0.118
MS.365         	10.555         	0.071
MS.366         	10.532         	0.071
MS.367         	10.512         	0.081
MS.368         	10.49          	0.063
MS.369         	10.47          	0.083
MS.370         	10.45          	0.059
MS.371         	10.427         	0.077
MS.372         	10.407         	0.083
MS.373         	10.387         	0.079
MS.374         	10.365         	0.076
MS.375         	10.345         	0.078
MS.376         	10.325         	0.076
MS.377         	10.305         	0.079
MS.378         	10.282         	0.088
MS.379         	10.262         	0.074
MS.380         	10.242         	0.084
MS.381         	10.222         	0.078
MS.382         	10.202         	0.098
MS.383         	10.18          	0.076
MS.384         	10.16          	0.078
MS.385         	10.14          	0.082
MS.386         	10.12          	0.078
MS.387         	10.1           	0.081
MS.388         	10.08          	0.079
MS.389         	10.06          	0.082
MS.390         	10.04          	0.088
MS.391         	10.02          	0.082
MS.392         	10             	0.078
MS.393         	9.98           	0.081
MS.394         	9.96           	0.082
MS.395         	9.94           	0.081
MS.396         	9.92           	0.081
MS.397         	9.9            	0.082
MS.398         	9.88           	0.082
MS.399         	9.86           	0.082
MS.400         	9.84           	0.085
MS.401         	9.82           	0.079
MS.402         	9.802          	0.089
MS.403         	9.782          	0.083
MS.404         	9.762          	0.081
MS.405         	9.742          	0.087
MS.406         	9.722          	0.09
MS.407         	9.705          	0.081
MS.408         	9.685          	0.087
MS.409         	9.665          	0.083
MS.410         	9.645          	0.057
MS.411         	9.627          	0.076
MS.412         	9.608          	0.092
MS.413         	9.587          	0.081
MS.414         	9.57           	0.055
MS.415         	9.55           	0.079
MS.416         	9.53           	0.089
MS.417         	9.512          	0.082
MS.418         	9.492          	0.06
MS.419         	9.472          	0.088
MS.420         	9.455          	0.085
MS.421         	9.435          	0.093
MS.422         	9.417          	0.061
MS.423         	9.398          	0.07
MS.424         	9.38           	0.071
MS.425         	9.36           	0.067
MS.426         	9.342          	0.06
MS.427         	9.323          	0.085
MS.428         	9.305          	0.071
MS.429         	9.285          	0.094
MS.430         	9.267          	0.066
MS.431         	9.25           	0.095
MS.432         	9.23           	0.06
MS.433         	9.212          	0.068
MS.434         	9.193          	0.07
MS.435         	9.175          	0.072
MS.436         	9.158          	0.068
MS.437         	9.137          	0.077
MS.438         	9.12           	0.093
MS.439         	9.102          	0.074
MS.440         	9.085          	0.073
MS.441         	9.065          	0.06
MS.442         	9.047          	0.082
MS.443         	9.03           	0.066
MS.444         	9.012          	0.073
MS.445         	8.992          	0.063
MS.446         	8.975          	0.062
MS.447         	8.957          	0.072
MS.448         	8.94           	0.042
MS.449         	8.922          	0.065
MS.450         	8.905          	0.059
MS.451         	8.887          	0.059
MS.452         	8.867          	0.051
MS.453         	8.85           	0.063
MS.454         	8.832          	0.077
MS.455         	8.815          	0.048
MS.456         	8.797          	0.061
MS.457         	8.78           	0.066
MS.458         	8.762          	0.046
MS.459         	8.745          	0.065
MS.460         	8.727          	0.065
MS.461         	8.71           	0.046
MS.462         	8.693          	0.056
MS.463         	8.675          	0.065
MS.464         	8.658          	0.063
MS.465         	8.64           	0.048
MS.466         	8.622          	0.05
MS.467         	8.608          	0.042
MS.468         	8.59           	0.048
MS.469         	8.573          	0.067
MS.470         	8.555          	0.048
MS.471         	8.537          	0.045
MS.472         	8.52           	0.05
MS.473         	8.505          	0.048
MS.474         	8.488          	0.044
MS.475         	8.47           	0.049
MS.476         	8.452          	0.049
MS.477         	8.435          	0.052
MS.478         	8.42           	0.05
MS.479         	8.403          	0.049
MS.480         	8.385          	0.045
MS.481         	8.37           	0.045
MS.482         	8.352          	0.054
MS.483         	8.335          	0.05
MS.484         	8.32           	0.051
MS.485         	8.302          	0.051
MS.486         	8.285          	0.049
MS.487         	8.27           	0.05
MS.488         	8.252          	0.049
MS.489         	8.235          	0.051
MS.490         	8.22           	0.055
MS.491         	8.202          	0.048
MS.492         	8.188          	0.051
MS.493         	8.17           	0.051
MS.494         	8.155          	0.049
MS.495         	8.137          	0.051
MS.496         	8.122          	0.052
MS.497         	8.105          	0.045
MS.498         	8.09           	0.052
MS.499         	8.073          	0.052
MS.500         	8.057          	0.054
MS.501         	8.04           	0.049
MS.502         	8.025          	0.054
