File:              	C:\Qtrac\Data\CKMC01028J.QZD
Name:              	DK.COP.NC.3.2
Protocol:          	MSCAN-R2
Date:              	28/10/20
Start time:        	13:04:34
Age:               	56
Sex:               	M
Temperature:       	36.8
S/R sites:         	RPer FH-AT
NC/disease:        	NC
Operator:          	CK
Comments:          	CG
M-SCAN DATA (7.8-1.4m)
Scanpts: 6, 12, 660, 680
Stim. (mA)     	Amp. (mV)
MS.1           	22             	4.43
MS.2           	22             	4.424
MS.3           	22             	4.408
MS.4           	22             	4.42
MS.5           	22             	4.392
MS.6           	22             	4.395
MS.7           	22             	4.375
MS.8           	22             	4.379
MS.9           	22             	4.399
MS.10          	22             	4.391
MS.11          	22             	4.388
MS.12          	22             	4.374
MS.13          	22             	4.379
MS.14          	22             	4.376
MS.15          	22             	4.388
MS.16          	22             	4.407
MS.17          	22             	4.412
MS.18          	22             	4.388
MS.19          	22             	4.389
MS.20          	22             	4.396
MS.21          	22             	4.398
MS.22          	22             	4.42
MS.23          	22             	4.432
MS.24          	21.91          	4.412
MS.25          	21.87          	4.409
MS.26          	21.825         	4.406
MS.27          	21.78          	4.394
MS.28          	21.735         	4.392
MS.29          	21.695         	4.384
MS.30          	21.65          	4.385
MS.31          	21.605         	4.37
MS.32          	21.565         	4.371
MS.33          	21.52          	4.377
MS.34          	21.48          	4.379
MS.35          	21.435         	4.34
MS.36          	21.39          	4.377
MS.37          	21.35          	4.374
MS.38          	21.305         	4.358
MS.39          	21.265         	4.366
MS.40          	21.22          	4.372
MS.41          	21.18          	4.352
MS.42          	21.135         	4.323
MS.43          	21.095         	4.313
MS.44          	21.055         	4.36
MS.45          	21.01          	4.328
MS.46          	20.97          	4.377
MS.47          	20.925         	4.365
MS.48          	20.885         	4.323
MS.49          	20.845         	4.312
MS.50          	20.8           	4.303
MS.51          	20.76          	4.299
MS.52          	20.72          	4.305
MS.53          	20.675         	4.308
MS.54          	20.635         	4.304
MS.55          	20.595         	4.297
MS.56          	20.555         	4.29
MS.57          	20.515         	4.291
MS.58          	20.47          	4.282
MS.59          	20.43          	4.294
MS.60          	20.39          	4.279
MS.61          	20.35          	4.277
MS.62          	20.31          	4.286
MS.63          	20.27          	4.274
MS.64          	20.225         	4.28
MS.65          	20.185         	4.286
MS.66          	20.145         	4.28
MS.67          	20.105         	4.299
MS.68          	20.065         	4.288
MS.69          	20.025         	4.286
MS.70          	19.985         	4.265
MS.71          	19.945         	4.267
MS.72          	19.905         	4.261
MS.73          	19.865         	4.281
MS.74          	19.825         	4.261
MS.75          	19.785         	4.246
MS.76          	19.75          	4.274
MS.77          	19.71          	4.268
MS.78          	19.67          	4.26
MS.79          	19.63          	4.266
MS.80          	19.59          	4.253
MS.81          	19.55          	4.248
MS.82          	19.51          	4.232
MS.83          	19.475         	4.247
MS.84          	19.435         	4.226
MS.85          	19.395         	4.25
MS.86          	19.355         	4.246
MS.87          	19.32          	4.249
MS.88          	19.28          	4.252
MS.89          	19.24          	4.236
MS.90          	19.2           	4.225
MS.91          	19.165         	4.236
MS.92          	19.125         	4.226
MS.93          	19.09          	4.219
MS.94          	19.05          	4.211
MS.95          	19.01          	4.21
MS.96          	18.975         	4.222
MS.97          	18.935         	4.178
MS.98          	18.9           	4.2
MS.99          	18.86          	4.199
MS.100         	18.82          	4.178
MS.101         	18.785         	4.152
MS.102         	18.745         	4.149
MS.103         	18.71          	4.213
MS.104         	18.67          	4.202
MS.105         	18.635         	4.172
MS.106         	18.6           	4.16
MS.107         	18.56          	4.202
MS.108         	18.525         	4.185
MS.109         	18.485         	4.204
MS.110         	18.45          	4.171
MS.111         	18.415         	4.164
MS.112         	18.375         	4.162
MS.113         	18.34          	4.141
MS.114         	18.305         	4.139
MS.115         	18.265         	4.146
MS.116         	18.23          	4.144
MS.117         	18.195         	4.109
MS.118         	18.155         	4.152
MS.119         	18.12          	4.163
MS.120         	18.085         	4.131
MS.121         	18.05          	4.124
MS.122         	18.01          	4.106
MS.123         	17.975         	4.182
MS.124         	17.94          	4.105
MS.125         	17.905         	4.114
MS.126         	17.87          	4.136
MS.127         	17.835         	4.059
MS.128         	17.795         	4.077
MS.129         	17.76          	4.068
MS.130         	17.725         	4.155
MS.131         	17.69          	4.058
MS.132         	17.655         	4.069
MS.133         	17.62          	4.081
MS.134         	17.585         	4.044
MS.135         	17.55          	4.02
MS.136         	17.515         	4.075
MS.137         	17.48          	4.037
MS.138         	17.445         	4.045
MS.139         	17.41          	4.088
MS.140         	17.375         	4.082
MS.141         	17.34          	4.036
MS.142         	17.305         	4.086
MS.143         	17.27          	4.063
MS.144         	17.235         	4.019
MS.145         	17.2           	4.031
MS.146         	17.17          	4.004
MS.147         	17.135         	4.066
MS.148         	17.1           	3.992
MS.149         	17.065         	4.088
MS.150         	17.03          	3.98
MS.151         	16.995         	4.032
MS.152         	16.965         	3.989
MS.153         	16.93          	4.002
MS.154         	16.895         	3.989
MS.155         	16.86          	4.034
MS.156         	16.83          	4.001
MS.157         	16.795         	3.928
MS.158         	16.76          	4.005
MS.159         	16.725         	3.925
MS.160         	16.695         	3.915
MS.161         	16.66          	3.94
MS.162         	16.625         	3.875
MS.163         	16.595         	3.969
MS.164         	16.56          	3.88
MS.165         	16.53          	3.889
MS.166         	16.495         	3.929
MS.167         	16.46          	3.86
MS.168         	16.43          	3.93
MS.169         	16.395         	3.86
MS.170         	16.365         	3.819
MS.171         	16.33          	3.843
MS.172         	16.3           	3.865
MS.173         	16.265         	3.773
MS.174         	16.235         	3.795
MS.175         	16.2           	3.732
MS.176         	16.17          	3.674
MS.177         	16.135         	3.866
MS.178         	16.105         	3.737
MS.179         	16.07          	3.699
MS.180         	16.04          	3.716
MS.181         	16.005         	3.618
MS.182         	15.975         	3.738
MS.183         	15.945         	3.583
MS.184         	15.91          	3.659
MS.185         	15.88          	3.605
MS.186         	15.85          	3.683
MS.187         	15.815         	3.582
MS.188         	15.785         	3.585
MS.189         	15.755         	3.627
MS.190         	15.72          	3.555
MS.191         	15.69          	3.458
MS.192         	15.66          	3.565
MS.193         	15.63          	3.529
MS.194         	15.595         	3.503
MS.195         	15.565         	3.391
MS.196         	15.535         	3.433
MS.197         	15.505         	3.428
MS.198         	15.47          	3.43
MS.199         	15.44          	3.444
MS.200         	15.41          	3.347
MS.201         	15.38          	3.262
MS.202         	15.35          	3.403
MS.203         	15.32          	3.345
MS.204         	15.29          	3.245
MS.205         	15.255         	3.228
MS.206         	15.225         	3.235
MS.207         	15.195         	3.358
MS.208         	15.165         	3.259
MS.209         	15.135         	3.267
MS.210         	15.105         	3.223
MS.211         	15.075         	3.311
MS.212         	15.045         	3.308
MS.213         	15.015         	3.145
MS.214         	14.985         	3.32
MS.215         	14.955         	3.071
MS.216         	14.925         	3.217
MS.217         	14.895         	3.214
MS.218         	14.865         	3.22
MS.219         	14.835         	3.187
MS.220         	14.805         	3.212
MS.221         	14.775         	3.127
MS.222         	14.745         	3.091
MS.223         	14.72          	3.185
MS.224         	14.69          	3.234
MS.225         	14.66          	3.098
MS.226         	14.63          	3.151
MS.227         	14.6           	3.054
MS.228         	14.57          	3.055
MS.229         	14.54          	3.099
MS.230         	14.515         	3.091
MS.231         	14.485         	2.967
MS.232         	14.455         	3.024
MS.233         	14.425         	2.963
MS.234         	14.395         	2.977
MS.235         	14.37          	2.987
MS.236         	14.34          	2.961
MS.237         	14.31          	2.867
MS.238         	14.285         	3.012
MS.239         	14.255         	2.957
MS.240         	14.225         	2.972
MS.241         	14.195         	2.931
MS.242         	14.17          	2.921
MS.243         	14.14          	2.916
MS.244         	14.11          	2.822
MS.245         	14.085         	2.821
MS.246         	14.055         	2.821
MS.247         	14.03          	2.836
MS.248         	14             	2.83
MS.249         	13.97          	2.827
MS.250         	13.945         	2.827
MS.251         	13.915         	2.775
MS.252         	13.89          	2.809
MS.253         	13.86          	2.814
MS.254         	13.835         	2.827
MS.255         	13.805         	2.72
MS.256         	13.78          	2.742
MS.257         	13.75          	2.755
MS.258         	13.725         	2.639
MS.259         	13.695         	2.766
MS.260         	13.67          	2.682
MS.261         	13.64          	2.776
MS.262         	13.615         	2.529
MS.263         	13.585         	2.675
MS.264         	13.56          	2.637
MS.265         	13.53          	2.629
MS.266         	13.505         	2.623
MS.267         	13.48          	2.695
MS.268         	13.45          	2.601
MS.269         	13.425         	2.523
MS.270         	13.395         	2.581
MS.271         	13.37          	2.609
MS.272         	13.345         	2.535
MS.273         	13.315         	2.562
MS.274         	13.29          	2.543
MS.275         	13.265         	2.483
MS.276         	13.235         	2.451
MS.277         	13.21          	2.39
MS.278         	13.185         	2.501
MS.279         	13.16          	2.312
MS.280         	13.13          	2.477
MS.281         	13.105         	2.395
MS.282         	13.08          	2.402
MS.283         	13.055         	2.3
MS.284         	13.025         	2.395
MS.285         	13             	2.299
MS.286         	12.975         	2.299
MS.287         	12.95          	2.275
MS.288         	12.925         	2.224
MS.289         	12.9           	2.333
MS.290         	12.87          	2.286
MS.291         	12.845         	2.241
MS.292         	12.82          	2.203
MS.293         	12.795         	2.265
MS.294         	12.77          	2.219
MS.295         	12.745         	2.311
MS.296         	12.72          	2.31
MS.297         	12.695         	2.144
MS.298         	12.665         	2.12
MS.299         	12.64          	2.059
MS.300         	12.615         	2.123
MS.301         	12.59          	2.11
MS.302         	12.565         	2.104
MS.303         	12.54          	2.081
MS.304         	12.515         	1.96
MS.305         	12.49          	2.064
MS.306         	12.465         	2.125
MS.307         	12.44          	1.969
MS.308         	12.415         	2.049
MS.309         	12.39          	2.122
MS.310         	12.365         	1.973
MS.311         	12.34          	1.967
MS.312         	12.32          	2.056
MS.313         	12.295         	1.94
MS.314         	12.27          	1.888
MS.315         	12.245         	1.882
MS.316         	12.22          	1.953
MS.317         	12.195         	1.747
MS.318         	12.17          	1.829
MS.319         	12.145         	1.804
MS.320         	12.12          	1.705
MS.321         	12.1           	1.754
MS.322         	12.075         	1.647
MS.323         	12.05          	1.711
MS.324         	12.025         	1.616
MS.325         	12             	1.678
MS.326         	11.98          	1.531
MS.327         	11.955         	1.652
MS.328         	11.93          	1.75
MS.329         	11.905         	1.615
MS.330         	11.88          	1.672
MS.331         	11.86          	1.578
MS.332         	11.835         	1.56
MS.333         	11.81          	1.656
MS.334         	11.785         	1.487
MS.335         	11.765         	1.552
MS.336         	11.74          	1.606
MS.337         	11.715         	1.575
MS.338         	11.695         	1.531
MS.339         	11.67          	1.563
MS.340         	11.645         	1.47
MS.341         	11.625         	1.547
MS.342         	11.6           	1.502
MS.343         	11.575         	1.45
MS.344         	11.555         	1.426
MS.345         	11.53          	1.44
MS.346         	11.51          	1.392
MS.347         	11.485         	1.331
MS.348         	11.46          	1.327
MS.349         	11.44          	1.328
MS.350         	11.415         	1.349
MS.351         	11.395         	1.298
MS.352         	11.37          	1.324
MS.353         	11.35          	1.243
MS.354         	11.325         	1.335
MS.355         	11.305         	1.24
MS.356         	11.28          	1.242
MS.357         	11.26          	1.238
MS.358         	11.235         	1.203
MS.359         	11.215         	1.234
MS.360         	11.19          	1.153
MS.361         	11.17          	1.195
MS.362         	11.145         	1.174
MS.363         	11.125         	1.141
MS.364         	11.1           	1.138
MS.365         	11.08          	1.185
MS.366         	11.055         	1.061
MS.367         	11.035         	1.076
MS.368         	11.015         	1.076
MS.369         	10.99          	1.075
MS.370         	10.97          	1.052
MS.371         	10.945         	1.088
MS.372         	10.925         	1.009
MS.373         	10.905         	1.041
MS.374         	10.88          	0.98
MS.375         	10.86          	0.961
MS.376         	10.84          	0.963
MS.377         	10.815         	0.982
MS.378         	10.795         	0.911
MS.379         	10.775         	0.947
MS.380         	10.75          	0.904
MS.381         	10.73          	0.917
MS.382         	10.71          	0.93
MS.383         	10.685         	0.939
MS.384         	10.665         	0.881
MS.385         	10.645         	0.945
MS.386         	10.625         	0.82
MS.387         	10.6           	0.869
MS.388         	10.58          	0.797
MS.389         	10.56          	0.833
MS.390         	10.54          	0.84
MS.391         	10.515         	0.82
MS.392         	10.495         	0.8
MS.393         	10.475         	0.797
MS.394         	10.455         	0.795
MS.395         	10.435         	0.845
MS.396         	10.415         	0.715
MS.397         	10.39          	0.706
MS.398         	10.37          	0.79
MS.399         	10.35          	0.77
MS.400         	10.33          	0.716
MS.401         	10.31          	0.696
MS.402         	10.29          	0.641
MS.403         	10.27          	0.698
MS.404         	10.25          	0.682
MS.405         	10.225         	0.663
MS.406         	10.205         	0.569
MS.407         	10.185         	0.49
MS.408         	10.165         	0.541
MS.409         	10.145         	0.578
MS.410         	10.125         	0.65
MS.411         	10.105         	0.502
MS.412         	10.085         	0.503
MS.413         	10.065         	0.51
MS.414         	10.045         	0.49
MS.415         	10.025         	0.494
MS.416         	10.005         	0.557
MS.417         	9.985          	0.577
MS.418         	9.965          	0.555
MS.419         	9.945          	0.428
MS.420         	9.925          	0.479
MS.421         	9.905          	0.507
MS.422         	9.885          	0.398
MS.423         	9.865          	0.442
MS.424         	9.845          	0.409
MS.425         	9.825          	0.361
MS.426         	9.805          	0.421
MS.427         	9.785          	0.427
MS.428         	9.765          	0.393
MS.429         	9.75           	0.372
MS.430         	9.73           	0.396
MS.431         	9.71           	0.388
MS.432         	9.69           	0.376
MS.433         	9.67           	0.372
MS.434         	9.65           	0.384
MS.435         	9.63           	0.355
MS.436         	9.61           	0.348
MS.437         	9.595          	0.339
MS.438         	9.575          	0.353
MS.439         	9.555          	0.308
MS.440         	9.535          	0.309
MS.441         	9.515          	0.389
MS.442         	9.5            	0.31
MS.443         	9.48           	0.276
MS.444         	9.46           	0.315
MS.445         	9.44           	0.284
MS.446         	9.42           	0.287
MS.447         	9.405          	0.313
MS.448         	9.385          	0.29
MS.449         	9.365          	0.263
MS.450         	9.345          	0.303
MS.451         	9.33           	0.248
MS.452         	9.31           	0.292
MS.453         	9.29           	0.305
MS.454         	9.27           	0.291
MS.455         	9.255          	0.282
MS.456         	9.235          	0.314
MS.457         	9.215          	0.226
MS.458         	9.2            	0.306
MS.459         	9.18           	0.225
MS.460         	9.16           	0.211
MS.461         	9.145          	0.25
MS.462         	9.125          	0.184
MS.463         	9.105          	0.182
MS.464         	9.09           	0.248
MS.465         	9.07           	0.177
MS.466         	9.05           	0.191
MS.467         	9.035          	0.236
MS.468         	9.015          	0.191
MS.469         	9              	0.223
MS.470         	8.98           	0.219
MS.471         	8.96           	0.187
MS.472         	8.945          	0.166
MS.473         	8.925          	0.231
MS.474         	8.91           	0.179
MS.475         	8.89           	0.186
MS.476         	8.875          	0.17
MS.477         	8.855          	0.164
MS.478         	8.84           	0.164
MS.479         	8.82           	0.14
MS.480         	8.805          	0.167
MS.481         	8.785          	0.168
MS.482         	8.765          	0.139
MS.483         	8.75           	0.159
MS.484         	8.73           	0.15
MS.485         	8.715          	0.14
MS.486         	8.7            	0.151
MS.487         	8.68           	0.142
MS.488         	8.665          	0.161
MS.489         	8.645          	0.157
MS.490         	8.63           	0.121
MS.491         	8.61           	0.142
MS.492         	8.595          	0.116
MS.493         	8.575          	0.14
MS.494         	8.56           	0.132
MS.495         	8.54           	0.131
MS.496         	8.525          	0.118
MS.497         	8.51           	0.134
MS.498         	8.49           	0.106
MS.499         	8.475          	0.125
MS.500         	8.455          	0.125
MS.501         	8.44           	0.111
MS.502         	8.425          	0.096
MS.503         	8.405          	0.11
