File:              	C:\Qtrac\Data\CKMC01118C.QZD
Name:              	DK.COP.NC.7.2
Protocol:          	MSCAN-R2
Date:              	18/11/20
Start time:        	09:48:52
Age:               	73
Sex:               	M
Temperature:       	37.8
S/R sites:         	RUln Wr-ADQ
NC/disease:        	NC
Operator:          	CK
Comments:          	CG
M-SCAN DATA (6.2-1.6m)
Scanpts: 1, 24, 490, 509
Stim. (mA)     	Amp. (mV)
MS.1           	30             	8.96
MS.2           	30             	8.961
MS.3           	30             	8.984
MS.4           	30             	8.959
MS.5           	30             	8.982
MS.6           	30             	8.951
MS.7           	30             	8.979
MS.8           	30             	8.943
MS.9           	30             	8.986
MS.10          	30             	8.994
MS.11          	30             	9
MS.12          	30             	9
MS.13          	30             	9.023
MS.14          	30             	9.022
MS.15          	30             	9.039
MS.16          	30             	9.032
MS.17          	30             	9.028
MS.18          	30             	9.048
MS.19          	30             	9.05
MS.20          	30             	9.034
MS.21          	30             	9.036
MS.22          	30             	9.044
MS.23          	30             	9.032
MS.24          	29.88          	9.008
MS.25          	29.82          	9.042
MS.26          	29.76          	9.014
MS.27          	29.7           	9.075
MS.28          	29.64          	9.036
MS.29          	29.585         	9.058
MS.30          	29.525         	9.031
MS.31          	29.465         	9.005
MS.32          	29.405         	9.037
MS.33          	29.345         	9.058
MS.34          	29.29          	9.039
MS.35          	29.23          	9.003
MS.36          	29.17          	9.006
MS.37          	29.115         	8.978
MS.38          	29.055         	8.983
MS.39          	28.995         	8.997
MS.40          	28.94          	8.986
MS.41          	28.88          	8.987
MS.42          	28.825         	8.996
MS.43          	28.765         	9.012
MS.44          	28.71          	9.022
MS.45          	28.65          	9.025
MS.46          	28.595         	9.034
MS.47          	28.535         	9.014
MS.48          	28.48          	9.006
MS.49          	28.425         	9.035
MS.50          	28.365         	8.987
MS.51          	28.31          	9
MS.52          	28.255         	8.994
MS.53          	28.195         	8.996
MS.54          	28.14          	9.034
MS.55          	28.085         	9.037
MS.56          	28.03          	8.992
MS.57          	27.97          	8.974
MS.58          	27.915         	9.007
MS.59          	27.86          	9.014
MS.60          	27.805         	8.94
MS.61          	27.75          	8.956
MS.62          	27.695         	9.014
MS.63          	27.64          	8.926
MS.64          	27.585         	8.794
MS.65          	27.53          	8.925
MS.66          	27.475         	8.999
MS.67          	27.42          	8.973
MS.68          	27.365         	8.906
MS.69          	27.31          	8.784
MS.70          	27.255         	8.918
MS.71          	27.2           	8.99
MS.72          	27.145         	8.862
MS.73          	27.09          	8.915
MS.74          	27.035         	8.871
MS.75          	26.985         	8.918
MS.76          	26.93          	8.847
MS.77          	26.875         	8.932
MS.78          	26.82          	8.9
MS.79          	26.77          	8.752
MS.80          	26.715         	8.875
MS.81          	26.66          	8.729
MS.82          	26.61          	8.768
MS.83          	26.555         	8.737
MS.84          	26.5           	8.745
MS.85          	26.45          	8.751
MS.86          	26.395         	8.735
MS.87          	26.345         	8.776
MS.88          	26.29          	8.782
MS.89          	26.24          	8.718
MS.90          	26.185         	8.727
MS.91          	26.135         	8.746
MS.92          	26.08          	8.759
MS.93          	26.03          	8.749
MS.94          	25.975         	8.747
MS.95          	25.925         	8.749
MS.96          	25.875         	8.73
MS.97          	25.82          	8.705
MS.98          	25.77          	8.701
MS.99          	25.72          	8.766
MS.100         	25.665         	8.701
MS.101         	25.615         	8.731
MS.102         	25.565         	8.734
MS.103         	25.515         	8.667
MS.104         	25.46          	8.687
MS.105         	25.41          	8.63
MS.106         	25.36          	8.658
MS.107         	25.31          	8.701
MS.108         	25.26          	8.66
MS.109         	25.21          	8.553
MS.110         	25.16          	8.621
MS.111         	25.11          	8.662
MS.112         	25.06          	8.704
MS.113         	25.01          	8.654
MS.114         	24.96          	8.549
MS.115         	24.91          	8.547
MS.116         	24.86          	8.522
MS.117         	24.81          	8.571
MS.118         	24.76          	8.506
MS.119         	24.71          	8.615
MS.120         	24.66          	8.537
MS.121         	24.61          	8.554
MS.122         	24.56          	8.479
MS.123         	24.515         	8.552
MS.124         	24.465         	8.48
MS.125         	24.415         	8.422
MS.126         	24.365         	8.444
MS.127         	24.315         	8.489
MS.128         	24.27          	8.391
MS.129         	24.22          	8.422
MS.130         	24.17          	8.414
MS.131         	24.125         	8.397
MS.132         	24.075         	8.423
MS.133         	24.025         	8.457
MS.134         	23.98          	8.381
MS.135         	23.93          	8.333
MS.136         	23.885         	8.382
MS.137         	23.835         	8.342
MS.138         	23.79          	8.4
MS.139         	23.74          	8.367
MS.140         	23.695         	8.335
MS.141         	23.645         	8.308
MS.142         	23.6           	8.28
MS.143         	23.55          	8.287
MS.144         	23.505         	8.329
MS.145         	23.46          	8.25
MS.146         	23.41          	8.237
MS.147         	23.365         	8.177
MS.148         	23.315         	8.13
MS.149         	23.27          	8.237
MS.150         	23.225         	8.181
MS.151         	23.18          	8.168
MS.152         	23.13          	8.188
MS.153         	23.085         	8.179
MS.154         	23.04          	8.137
MS.155         	22.995         	8.147
MS.156         	22.945         	8.14
MS.157         	22.9           	8.149
MS.158         	22.855         	8.059
MS.159         	22.81          	8.137
MS.160         	22.765         	8.088
MS.161         	22.72          	8.109
MS.162         	22.675         	8.134
MS.163         	22.63          	8.074
MS.164         	22.585         	8.054
MS.165         	22.54          	8.076
MS.166         	22.495         	8.057
MS.167         	22.45          	8.046
MS.168         	22.405         	8.085
MS.169         	22.36          	8.034
MS.170         	22.315         	8.102
MS.171         	22.27          	8.074
MS.172         	22.225         	8.003
MS.173         	22.18          	8.05
MS.174         	22.135         	8.038
MS.175         	22.09          	8.001
MS.176         	22.045         	8.082
MS.177         	22.005         	8.049
MS.178         	21.96          	8.021
MS.179         	21.915         	8.062
MS.180         	21.87          	8.092
MS.181         	21.83          	8.06
MS.182         	21.785         	7.94
MS.183         	21.74          	8.009
MS.184         	21.695         	8.001
MS.185         	21.655         	7.953
MS.186         	21.61          	7.937
MS.187         	21.57          	7.951
MS.188         	21.525         	7.941
MS.189         	21.48          	7.871
MS.190         	21.44          	7.91
MS.191         	21.395         	8.033
MS.192         	21.355         	8.019
MS.193         	21.31          	7.903
MS.194         	21.27          	7.855
MS.195         	21.225         	7.892
MS.196         	21.185         	7.839
MS.197         	21.14          	7.791
MS.198         	21.1           	7.881
MS.199         	21.055         	7.898
MS.200         	21.015         	7.812
MS.201         	20.97          	7.829
MS.202         	20.93          	7.925
MS.203         	20.89          	7.829
MS.204         	20.845         	7.792
MS.205         	20.805         	7.752
MS.206         	20.765         	7.875
MS.207         	20.72          	7.744
MS.208         	20.68          	7.804
MS.209         	20.64          	7.7
MS.210         	20.6           	7.715
MS.211         	20.555         	7.674
MS.212         	20.515         	7.82
MS.213         	20.475         	7.679
MS.214         	20.435         	7.639
MS.215         	20.395         	7.625
MS.216         	20.35          	7.535
MS.217         	20.31          	7.558
MS.218         	20.27          	7.539
MS.219         	20.23          	7.385
MS.220         	20.19          	7.554
MS.221         	20.15          	7.374
MS.222         	20.11          	6.981
MS.223         	20.07          	7.437
MS.224         	20.03          	7.33
MS.225         	19.99          	7.023
MS.226         	19.95          	7.307
MS.227         	19.91          	7.197
MS.228         	19.87          	7.081
MS.229         	19.83          	7.18
MS.230         	19.79          	6.726
MS.231         	19.75          	7.162
MS.232         	19.71          	7.051
MS.233         	19.67          	7.011
MS.234         	19.635         	6.763
MS.235         	19.595         	6.743
MS.236         	19.555         	6.856
MS.237         	19.515         	6.615
MS.238         	19.475         	6.511
MS.239         	19.435         	6.462
MS.240         	19.4           	6.771
MS.241         	19.36          	6.376
MS.242         	19.32          	6.381
MS.243         	19.28          	6.356
MS.244         	19.245         	6.247
MS.245         	19.205         	6.308
MS.246         	19.165         	6.326
MS.247         	19.13          	6.287
MS.248         	19.09          	6.204
MS.249         	19.05          	6.268
MS.250         	19.015         	6.144
MS.251         	18.975         	6.179
MS.252         	18.94          	6.018
MS.253         	18.9           	6.179
MS.254         	18.865         	6.091
MS.255         	18.825         	5.885
MS.256         	18.79          	5.902
MS.257         	18.75          	5.669
MS.258         	18.715         	5.836
MS.259         	18.675         	5.674
MS.260         	18.64          	5.457
MS.261         	18.6           	5.577
MS.262         	18.565         	5.996
MS.263         	18.525         	5.521
MS.264         	18.49          	5.234
MS.265         	18.45          	5.358
MS.266         	18.415         	5.474
MS.267         	18.38          	5.457
MS.268         	18.34          	5.245
MS.269         	18.305         	5.294
MS.270         	18.27          	5.229
MS.271         	18.23          	5.311
MS.272         	18.195         	5.046
MS.273         	18.16          	5.166
MS.274         	18.125         	5.035
MS.275         	18.085         	4.892
MS.276         	18.05          	5.094
MS.277         	18.015         	4.96
MS.278         	17.98          	4.871
MS.279         	17.945         	4.772
MS.280         	17.905         	4.76
MS.281         	17.87          	4.232
MS.282         	17.835         	4.658
MS.283         	17.8           	4.365
MS.284         	17.765         	4.426
MS.285         	17.73          	4.332
MS.286         	17.695         	4.007
MS.287         	17.66          	3.936
MS.288         	17.625         	3.88
MS.289         	17.59          	3.738
MS.290         	17.55          	3.64
MS.291         	17.515         	3.677
MS.292         	17.48          	3.517
MS.293         	17.445         	3.295
MS.294         	17.415         	3.686
MS.295         	17.38          	3.257
MS.296         	17.345         	2.995
MS.297         	17.31          	3.261
MS.298         	17.275         	3.06
MS.299         	17.24          	2.833
MS.300         	17.205         	2.93
MS.301         	17.17          	2.861
MS.302         	17.135         	2.814
MS.303         	17.1           	2.762
MS.304         	17.07          	2.39
MS.305         	17.035         	2.482
MS.306         	17             	2.463
MS.307         	16.965         	2.556
MS.308         	16.93          	2.45
MS.309         	16.9           	2.421
MS.310         	16.865         	2.524
MS.311         	16.83          	2.396
MS.312         	16.795         	2.303
MS.313         	16.765         	2.282
MS.314         	16.73          	2.266
MS.315         	16.695         	2.244
MS.316         	16.665         	2.242
MS.317         	16.63          	2.064
MS.318         	16.595         	1.987
MS.319         	16.565         	2.192
MS.320         	16.53          	1.939
MS.321         	16.495         	1.808
MS.322         	16.465         	1.786
MS.323         	16.43          	1.811
MS.324         	16.4           	1.662
MS.325         	16.365         	1.942
MS.326         	16.335         	1.583
MS.327         	16.3           	1.863
MS.328         	16.27          	1.602
MS.329         	16.235         	1.384
MS.330         	16.205         	1.427
MS.331         	16.17          	1.537
MS.332         	16.14          	1.395
MS.333         	16.105         	1.295
MS.334         	16.075         	1.478
MS.335         	16.04          	1.439
MS.336         	16.01          	1.403
MS.337         	15.98          	1.311
MS.338         	15.945         	1.077
MS.339         	15.915         	1.168
MS.340         	15.88          	1.046
MS.341         	15.85          	1.018
MS.342         	15.82          	1.325
MS.343         	15.785         	1.026
MS.344         	15.755         	1.086
MS.345         	15.725         	0.967
MS.346         	15.695         	0.926
MS.347         	15.66          	0.984
MS.348         	15.63          	0.941
MS.349         	15.6           	0.925
MS.350         	15.57          	0.8
MS.351         	15.535         	0.848
MS.352         	15.505         	0.865
MS.353         	15.475         	0.819
MS.354         	15.445         	0.848
MS.355         	15.415         	0.89
MS.356         	15.38          	1.084
MS.357         	15.35          	0.728
MS.358         	15.32          	0.831
MS.359         	15.29          	0.797
MS.360         	15.26          	0.858
MS.361         	15.23          	0.779
MS.362         	15.2           	0.84
MS.363         	15.17          	0.725
MS.364         	15.14          	0.72
MS.365         	15.11          	0.713
MS.366         	15.075         	0.738
MS.367         	15.045         	0.624
MS.368         	15.015         	0.718
MS.369         	14.985         	0.593
MS.370         	14.955         	0.544
MS.371         	14.925         	0.571
MS.372         	14.895         	0.544
MS.373         	14.87          	0.454
MS.374         	14.84          	0.672
MS.375         	14.81          	0.405
MS.376         	14.78          	0.543
MS.377         	14.75          	0.416
MS.378         	14.72          	0.414
MS.379         	14.69          	0.466
MS.380         	14.66          	0.493
MS.381         	14.63          	0.453
MS.382         	14.605         	0.313
MS.383         	14.575         	0.46
MS.384         	14.545         	0.469
MS.385         	14.515         	0.323
MS.386         	14.485         	0.322
MS.387         	14.455         	0.416
MS.388         	14.43          	0.245
MS.389         	14.4           	0.233
MS.390         	14.37          	0.194
MS.391         	14.34          	0.201
MS.392         	14.315         	0.202
MS.393         	14.285         	0.195
MS.394         	14.255         	0.201
MS.395         	14.23          	0.153
MS.396         	14.2           	0.242
MS.397         	14.17          	0.125
MS.398         	14.145         	0.151
MS.399         	14.115         	0.131
MS.400         	14.085         	0.146
MS.401         	14.06          	0.142
MS.402         	14.03          	0.158
MS.403         	14             	0.121
MS.404         	13.975         	0.142
MS.405         	13.945         	0.167
MS.406         	13.92          	0.144
MS.407         	13.89          	0.135
MS.408         	13.865         	0.145
MS.409         	13.835         	0.14
MS.410         	13.805         	0.119
MS.411         	13.78          	0.138
MS.412         	13.75          	0.105
MS.413         	13.725         	0.137
MS.414         	13.695         	0.129
MS.415         	13.67          	0.145
MS.416         	13.645         	0.114
MS.417         	13.615         	0.106
MS.418         	13.59          	0.105
MS.419         	13.56          	0.1
MS.420         	13.535         	0.101
MS.421         	13.505         	0.105
MS.422         	13.48          	0.128
MS.423         	13.455         	0.096
MS.424         	13.425         	0.099
MS.425         	13.4           	0.121
MS.426         	13.37          	0.107
MS.427         	13.345         	0.097
MS.428         	13.32          	0.084
MS.429         	13.29          	0.097
MS.430         	13.265         	0.096
MS.431         	13.24          	0.129
MS.432         	13.215         	0.078
MS.433         	13.185         	0.07
MS.434         	13.16          	0.067
MS.435         	13.135         	0.101
MS.436         	13.11          	0.103
MS.437         	13.08          	0.067
MS.438         	13.055         	0.067
MS.439         	13.03          	0.08
MS.440         	13.005         	0.065
MS.441         	12.975         	0.057
MS.442         	12.95          	0.06
MS.443         	12.925         	0.061
MS.444         	12.9           	0.051
MS.445         	12.875         	0.08
MS.446         	12.85          	0.052
MS.447         	12.82          	0.055
MS.448         	12.795         	0.054
MS.449         	12.77          	0.081
MS.450         	12.745         	0.054
MS.451         	12.72          	0.057
MS.452         	12.695         	0.06
MS.453         	12.67          	0.059
MS.454         	12.645         	0.059
MS.455         	12.62          	0.057
MS.456         	12.595         	0.06
MS.457         	12.57          	0.052
MS.458         	12.545         	0.061
MS.459         	12.52          	0.058
MS.460         	12.495         	0.061
MS.461         	12.47          	0.054
MS.462         	12.445         	0.059
MS.463         	12.42          	0.06
MS.464         	12.395         	0.054
MS.465         	12.37          	0.057
MS.466         	12.345         	0.057
MS.467         	12.32          	0.059
MS.468         	12.295         	0.054
MS.469         	12.27          	0.054
MS.470         	12.245         	0.056
MS.471         	12.22          	0.057
MS.472         	12.195         	0.054
MS.473         	12.175         	0.054
MS.474         	12.15          	0.056
MS.475         	12.125         	0.056
MS.476         	12.1           	0.055
MS.477         	12.075         	0.052
MS.478         	12.05          	0.05
MS.479         	12.025         	0.05
MS.480         	12.005         	0.056
MS.481         	11.98          	0.054
MS.482         	11.955         	0.054
MS.483         	11.93          	0.054
MS.484         	11.91          	0.054
MS.485         	11.885         	0.056
MS.486         	11.86          	0.056
MS.487         	11.835         	0.054
MS.488         	11.815         	0.054
MS.489         	11.79          	0.058
MS.490         	11.765         	0.052
MS.491         	11.74          	0.052
MS.492         	11.72          	0.054
MS.493         	11.695         	0.051
MS.494         	11.67          	0.057
MS.495         	11.65          	0.053
MS.496         	11.625         	0.054
MS.497         	11.6           	0.057
MS.498         	11.58          	0.057
MS.499         	11.555         	0.051
MS.500         	11.535         	0.057
MS.501         	11.51          	0.053
MS.502         	11.485         	0.056
MS.503         	11.465         	0.052
