File:              	C:\Qtrac\Data\CKMC01104E.QZD
Name:              	DK.COP.NC.6.2
Protocol:          	MSCAN-R2
Date:              	4/11/20
Start time:        	11:00:28
Age:               	43
Sex:               	F
Temperature:       	39.2
S/R sites:         	RMedian Wr-APB
NC/disease:        	NC
Operator:          	CK
Comments:          	CG
M-SCAN DATA (7.7-1.2m)
Scanpts: 192, 202, 667, 686
Stim. (mA)     	Amp. (mV)
MS.1           	14             	11.786
MS.2           	14             	11.781
MS.3           	14             	11.787
MS.4           	14             	11.714
MS.5           	14             	11.761
MS.6           	14             	11.722
MS.7           	14             	11.787
MS.8           	14             	11.769
MS.9           	14             	11.781
MS.10          	14             	11.771
MS.11          	14             	11.74
MS.12          	14             	11.768
MS.13          	14             	11.754
MS.14          	14             	11.79
MS.15          	14             	11.752
MS.16          	14             	11.819
MS.17          	14             	11.815
MS.18          	14             	11.829
MS.19          	14             	11.835
MS.20          	14             	11.778
MS.21          	14             	11.787
MS.22          	14             	11.827
MS.23          	14             	11.781
MS.24          	13.945         	11.833
MS.25          	13.915         	11.784
MS.26          	13.89          	11.806
MS.27          	13.86          	11.795
MS.28          	13.835         	11.794
MS.29          	13.805         	11.813
MS.30          	13.78          	11.784
MS.31          	13.75          	11.789
MS.32          	13.725         	11.794
MS.33          	13.695         	11.821
MS.34          	13.67          	11.809
MS.35          	13.64          	11.758
MS.36          	13.615         	11.797
MS.37          	13.585         	11.765
MS.38          	13.56          	11.795
MS.39          	13.53          	11.813
MS.40          	13.505         	11.8
MS.41          	13.48          	11.781
MS.42          	13.45          	11.765
MS.43          	13.425         	11.778
MS.44          	13.395         	11.772
MS.45          	13.37          	11.768
MS.46          	13.345         	11.78
MS.47          	13.315         	11.768
MS.48          	13.29          	11.761
MS.49          	13.265         	11.812
MS.50          	13.235         	11.806
MS.51          	13.21          	11.751
MS.52          	13.185         	11.787
MS.53          	13.16          	11.789
MS.54          	13.13          	11.748
MS.55          	13.105         	11.742
MS.56          	13.08          	11.778
MS.57          	13.055         	11.761
MS.58          	13.025         	11.771
MS.59          	13             	11.754
MS.60          	12.975         	11.757
MS.61          	12.95          	11.758
MS.62          	12.925         	11.78
MS.63          	12.9           	11.794
MS.64          	12.87          	11.775
MS.65          	12.845         	11.751
MS.66          	12.82          	11.768
MS.67          	12.795         	11.746
MS.68          	12.77          	11.763
MS.69          	12.745         	11.743
MS.70          	12.72          	11.707
MS.71          	12.695         	11.752
MS.72          	12.67          	11.777
MS.73          	12.64          	11.803
MS.74          	12.615         	11.757
MS.75          	12.59          	11.787
MS.76          	12.565         	11.758
MS.77          	12.54          	11.797
MS.78          	12.515         	11.755
MS.79          	12.49          	11.752
MS.80          	12.465         	11.777
MS.81          	12.44          	11.754
MS.82          	12.415         	11.806
MS.83          	12.39          	11.778
MS.84          	12.365         	11.781
MS.85          	12.345         	11.803
MS.86          	12.32          	11.781
MS.87          	12.295         	11.787
MS.88          	12.27          	11.763
MS.89          	12.245         	11.772
MS.90          	12.22          	11.783
MS.91          	12.195         	11.763
MS.92          	12.17          	11.769
MS.93          	12.145         	11.755
MS.94          	12.12          	11.749
MS.95          	12.1           	11.807
MS.96          	12.075         	11.731
MS.97          	12.05          	11.765
MS.98          	12.025         	11.731
MS.99          	12             	11.71
MS.100         	11.98          	11.716
MS.101         	11.955         	11.771
MS.102         	11.93          	11.76
MS.103         	11.905         	11.746
MS.104         	11.88          	11.725
MS.105         	11.86          	11.716
MS.106         	11.835         	11.755
MS.107         	11.81          	11.769
MS.108         	11.79          	11.761
MS.109         	11.765         	11.731
MS.110         	11.74          	11.771
MS.111         	11.715         	11.792
MS.112         	11.695         	11.755
MS.113         	11.67          	11.766
MS.114         	11.645         	11.771
MS.115         	11.625         	11.78
MS.116         	11.6           	11.752
MS.117         	11.575         	11.777
MS.118         	11.555         	11.708
MS.119         	11.53          	11.755
MS.120         	11.51          	11.746
MS.121         	11.485         	11.729
MS.122         	11.46          	11.707
MS.123         	11.44          	11.786
MS.124         	11.415         	11.74
MS.125         	11.395         	11.768
MS.126         	11.37          	11.729
MS.127         	11.35          	11.752
MS.128         	11.325         	11.755
MS.129         	11.305         	11.743
MS.130         	11.28          	11.786
MS.131         	11.26          	11.79
MS.132         	11.235         	11.757
MS.133         	11.215         	11.763
MS.134         	11.19          	11.786
MS.135         	11.17          	11.749
MS.136         	11.145         	11.726
MS.137         	11.125         	11.763
MS.138         	11.1           	11.746
MS.139         	11.08          	11.729
MS.140         	11.055         	11.745
MS.141         	11.035         	11.742
MS.142         	11.015         	11.728
MS.143         	10.99          	11.728
MS.144         	10.97          	11.748
MS.145         	10.945         	11.716
MS.146         	10.925         	11.717
MS.147         	10.905         	11.72
MS.148         	10.88          	11.726
MS.149         	10.86          	11.766
MS.150         	10.84          	11.754
MS.151         	10.815         	11.751
MS.152         	10.795         	11.748
MS.153         	10.775         	11.731
MS.154         	10.75          	11.745
MS.155         	10.73          	11.716
MS.156         	10.71          	11.76
MS.157         	10.685         	11.752
MS.158         	10.665         	11.777
MS.159         	10.645         	11.742
MS.160         	10.625         	11.725
MS.161         	10.6           	11.749
MS.162         	10.58          	11.722
MS.163         	10.56          	11.751
MS.164         	10.54          	11.758
MS.165         	10.52          	11.755
MS.166         	10.495         	11.768
MS.167         	10.475         	11.713
MS.168         	10.455         	11.761
MS.169         	10.435         	11.761
MS.170         	10.415         	11.749
MS.171         	10.39          	11.723
MS.172         	10.37          	11.758
MS.173         	10.35          	11.761
MS.174         	10.33          	11.754
MS.175         	10.31          	11.69
MS.176         	10.29          	11.761
MS.177         	10.27          	11.739
MS.178         	10.25          	11.716
MS.179         	10.225         	11.723
MS.180         	10.205         	11.729
MS.181         	10.185         	11.734
MS.182         	10.165         	11.713
MS.183         	10.145         	11.768
MS.184         	10.125         	11.757
MS.185         	10.105         	11.739
MS.186         	10.085         	11.739
MS.187         	10.065         	11.771
MS.188         	10.045         	11.774
MS.189         	10.025         	11.755
MS.190         	10.005         	11.725
MS.191         	9.985          	11.775
MS.192         	9.965          	11.728
MS.193         	9.945          	11.734
MS.194         	9.925          	11.734
MS.195         	9.905          	11.742
MS.196         	9.885          	11.76
MS.197         	9.865          	11.752
MS.198         	9.845          	11.774
MS.199         	9.825          	11.728
MS.200         	9.805          	11.755
MS.201         	9.785          	11.754
MS.202         	9.765          	11.786
MS.203         	9.75           	11.761
MS.204         	9.73           	11.722
MS.205         	9.71           	11.78
MS.206         	9.69           	11.783
MS.207         	9.67           	11.763
MS.208         	9.65           	11.719
MS.209         	9.63           	11.728
MS.210         	9.61           	11.734
MS.211         	9.595          	11.748
MS.212         	9.575          	11.758
MS.213         	9.555          	11.775
MS.214         	9.535          	11.752
MS.215         	9.515          	11.728
MS.216         	9.5            	11.594
MS.217         	9.48           	11.749
MS.218         	9.46           	11.719
MS.219         	9.44           	11.728
MS.220         	9.42           	11.722
MS.221         	9.405          	11.711
MS.222         	9.385          	11.719
MS.223         	9.365          	11.717
MS.224         	9.345          	11.731
MS.225         	9.33           	11.621
MS.226         	9.31           	11.736
MS.227         	9.29           	11.62
MS.228         	9.275          	11.737
MS.229         	9.255          	11.606
MS.230         	9.235          	11.716
MS.231         	9.215          	11.688
MS.232         	9.2            	11.583
MS.233         	9.18           	11.575
MS.234         	9.16           	11.707
MS.235         	9.145          	11.728
MS.236         	9.125          	11.708
MS.237         	9.105          	11.758
MS.238         	9.09           	11.588
MS.239         	9.07           	11.545
MS.240         	9.055          	11.487
MS.241         	9.035          	11.545
MS.242         	9.015          	11.609
MS.243         	9              	11.537
MS.244         	8.98           	11.642
MS.245         	8.965          	11.638
MS.246         	8.945          	11.618
MS.247         	8.925          	11.649
MS.248         	8.91           	11.542
MS.249         	8.89           	11.603
MS.250         	8.875          	11.453
MS.251         	8.855          	11.508
MS.252         	8.84           	11.589
MS.253         	8.82           	11.543
MS.254         	8.805          	11.534
MS.255         	8.785          	11.531
MS.256         	8.77           	11.563
MS.257         	8.75           	11.597
MS.258         	8.735          	11.513
MS.259         	8.715          	11.62
MS.260         	8.7            	11.6
MS.261         	8.68           	11.571
MS.262         	8.665          	11.488
MS.263         	8.645          	11.473
MS.264         	8.63           	11.519
MS.265         	8.61           	11.507
MS.266         	8.595          	11.508
MS.267         	8.575          	11.54
MS.268         	8.56           	11.565
MS.269         	8.54           	11.469
MS.270         	8.525          	11.453
MS.271         	8.51           	11.49
MS.272         	8.49           	11.478
MS.273         	8.475          	11.513
MS.274         	8.46           	11.455
MS.275         	8.44           	11.505
MS.276         	8.425          	11.456
MS.277         	8.405          	11.464
MS.278         	8.39           	11.488
MS.279         	8.375          	11.501
MS.280         	8.355          	11.501
MS.281         	8.34           	11.493
MS.282         	8.325          	11.507
MS.283         	8.305          	11.511
MS.284         	8.29           	11.487
MS.285         	8.275          	11.447
MS.286         	8.255          	11.494
MS.287         	8.24           	11.52
MS.288         	8.225          	11.501
MS.289         	8.21           	11.523
MS.290         	8.19           	11.494
MS.291         	8.175          	11.502
MS.292         	8.16           	11.482
MS.293         	8.14           	11.51
MS.294         	8.125          	11.461
MS.295         	8.11           	11.508
MS.296         	8.095          	11.475
MS.297         	8.075          	11.293
MS.298         	8.06           	11.327
MS.299         	8.045          	11.52
MS.300         	8.03           	11.511
MS.301         	8.015          	11.526
MS.302         	7.995          	11.36
MS.303         	7.98           	11.337
MS.304         	7.965          	11.339
MS.305         	7.95           	11.201
MS.306         	7.935          	10.893
MS.307         	7.915          	10.579
MS.308         	7.9            	10.896
MS.309         	7.885          	11.034
MS.310         	7.87           	10.918
MS.311         	7.855          	10.876
MS.312         	7.84           	10.582
MS.313         	7.825          	10.925
MS.314         	7.805          	10.951
MS.315         	7.79           	10.779
MS.316         	7.775          	11.086
MS.317         	7.76           	10.11
MS.318         	7.745          	10.722
MS.319         	7.73           	10.063
MS.320         	7.715          	10.176
MS.321         	7.7            	10.086
MS.322         	7.685          	10.182
MS.323         	7.67           	9.955
MS.324         	7.655          	9.999
MS.325         	7.635          	9.74
MS.326         	7.62           	9.584
MS.327         	7.605          	9.76
MS.328         	7.59           	9.541
MS.329         	7.575          	9.92
MS.330         	7.56           	9.888
MS.331         	7.545          	9.683
MS.332         	7.53           	8.766
MS.333         	7.515          	9.334
MS.334         	7.5            	9.039
MS.335         	7.485          	9.563
MS.336         	7.47           	8.372
MS.337         	7.455          	9.129
MS.338         	7.44           	8.96
MS.339         	7.425          	8.441
MS.340         	7.41           	8.81
MS.341         	7.395          	8.838
MS.342         	7.38           	8.484
MS.343         	7.365          	8.904
MS.344         	7.355          	8.606
MS.345         	7.34           	7.477
MS.346         	7.325          	7.736
MS.347         	7.31           	8.096
MS.348         	7.295          	8.589
MS.349         	7.28           	7.314
MS.350         	7.265          	6.888
MS.351         	7.25           	7.202
MS.352         	7.235          	7.474
MS.353         	7.22           	6.956
MS.354         	7.205          	6.639
MS.355         	7.195          	7.211
MS.356         	7.18           	7.706
MS.357         	7.165          	7.234
MS.358         	7.15           	7.259
MS.359         	7.135          	7.126
MS.360         	7.12           	6.342
MS.361         	7.105          	6.451
MS.362         	7.095          	5.901
MS.363         	7.08           	6.171
MS.364         	7.065          	5.836
MS.365         	7.05           	6.065
MS.366         	7.035          	5.855
MS.367         	7.02           	5.978
MS.368         	7.01           	5.524
MS.369         	6.995          	5.783
MS.370         	6.98           	5.035
MS.371         	6.965          	5.139
MS.372         	6.95           	5.203
MS.373         	6.94           	5.585
MS.374         	6.925          	5.373
MS.375         	6.91           	5.739
MS.376         	6.895          	5.051
MS.377         	6.885          	5.075
MS.378         	6.87           	5.026
MS.379         	6.855          	4.774
MS.380         	6.84           	4.91
MS.381         	6.83           	4.578
MS.382         	6.815          	4.018
MS.383         	6.8            	4.413
MS.384         	6.785          	4.747
MS.385         	6.775          	4.874
MS.386         	6.76           	4.324
MS.387         	6.745          	4.729
MS.388         	6.735          	4.552
MS.389         	6.72           	4.219
MS.390         	6.705          	4.259
MS.391         	6.695          	3.705
MS.392         	6.68           	3.651
MS.393         	6.665          	3.609
MS.394         	6.655          	3.864
MS.395         	6.64           	3.313
MS.396         	6.625          	3.392
MS.397         	6.615          	3.494
MS.398         	6.6            	3.627
MS.399         	6.585          	3.203
MS.400         	6.575          	3.494
MS.401         	6.56           	3.214
MS.402         	6.545          	3.16
MS.403         	6.535          	3.116
MS.404         	6.52           	3.093
MS.405         	6.51           	3.293
MS.406         	6.495          	3.125
MS.407         	6.48           	3.178
MS.408         	6.47           	3.201
MS.409         	6.455          	2.806
MS.410         	6.445          	3.139
MS.411         	6.43           	2.795
MS.412         	6.42           	2.852
MS.413         	6.405          	2.789
MS.414         	6.39           	2.774
MS.415         	6.38           	2.469
MS.416         	6.365          	2.71
MS.417         	6.355          	2.408
MS.418         	6.34           	2.635
MS.419         	6.33           	2.574
MS.420         	6.315          	2.431
MS.421         	6.305          	2.792
MS.422         	6.29           	2.67
MS.423         	6.28           	2.406
MS.424         	6.265          	2.687
MS.425         	6.255          	2.492
MS.426         	6.24           	2.232
MS.427         	6.23           	2.313
MS.428         	6.215          	1.955
MS.429         	6.205          	2.148
MS.430         	6.19           	2.173
MS.431         	6.18           	2.226
MS.432         	6.165          	2.013
MS.433         	6.155          	2.107
MS.434         	6.14           	1.849
MS.435         	6.13           	1.866
MS.436         	6.115          	1.735
MS.437         	6.105          	1.898
MS.438         	6.09           	1.611
MS.439         	6.08           	2.007
MS.440         	6.07           	1.619
MS.441         	6.055          	1.538
MS.442         	6.045          	1.729
MS.443         	6.03           	1.678
MS.444         	6.02           	1.457
MS.445         	6.01           	1.582
MS.446         	5.995          	1.497
MS.447         	5.985          	1.425
MS.448         	5.97           	1.633
MS.449         	5.96           	1.575
MS.450         	5.95           	1.32
MS.451         	5.935          	1.3
MS.452         	5.925          	1.358
MS.453         	5.91           	1.299
MS.454         	5.9            	1.143
MS.455         	5.89           	1.212
MS.456         	5.875          	1.108
MS.457         	5.865          	1.3
MS.458         	5.855          	1.224
MS.459         	5.84           	1.154
MS.460         	5.83           	1.118
MS.461         	5.82           	1.096
MS.462         	5.805          	1.054
MS.463         	5.795          	1.05
MS.464         	5.785          	0.946
MS.465         	5.77           	0.952
MS.466         	5.76           	0.836
MS.467         	5.75           	0.847
MS.468         	5.74           	0.8
MS.469         	5.725          	0.652
MS.470         	5.715          	0.778
MS.471         	5.705          	0.877
MS.472         	5.69           	0.752
MS.473         	5.68           	0.754
MS.474         	5.67           	0.777
MS.475         	5.66           	0.632
MS.476         	5.645          	0.743
MS.477         	5.635          	0.714
MS.478         	5.625          	0.563
MS.479         	5.615          	0.65
MS.480         	5.6            	0.552
MS.481         	5.59           	0.72
MS.482         	5.58           	0.52
MS.483         	5.57           	0.67
MS.484         	5.555          	0.563
MS.485         	5.545          	0.398
MS.486         	5.535          	0.616
MS.487         	5.525          	0.629
MS.488         	5.515          	0.552
MS.489         	5.5            	0.511
MS.490         	5.49           	0.346
MS.491         	5.48           	0.349
MS.492         	5.47           	0.407
MS.493         	5.46           	0.398
MS.494         	5.445          	0.444
