File:              	C:\Qtrac\Data\CKMC01104D.QZD
Name:              	DK.COP.NC.5.2
Protocol:          	MSCAN-R2
Date:              	4/11/20
Start time:        	10:24:54
Age:               	44
Sex:               	F
Temperature:       	36.2
S/R sites:         	RPer FH-AT
NC/disease:        	NC
Operator:          	CK
Comments:          	CG
M-SCAN DATA (8.7-1.7m)
Scanpts: 1, 24, 728, 747
Stim. (mA)     	Amp. (mV)
MS.1           	38             	6.852
MS.2           	38             	6.844
MS.3           	38             	6.84
MS.4           	38             	6.848
MS.5           	38             	6.807
MS.6           	38             	6.852
MS.7           	38             	6.815
MS.8           	38             	6.843
MS.9           	38             	6.839
MS.10          	38             	6.818
MS.11          	38             	6.838
MS.12          	38             	6.877
MS.13          	38             	6.857
MS.14          	38             	6.84
MS.15          	38             	6.852
MS.16          	38             	6.866
MS.17          	38             	6.88
MS.18          	38             	6.881
MS.19          	38             	6.875
MS.20          	38             	6.861
MS.21          	38             	6.859
MS.22          	38             	6.845
MS.23          	38             	6.848
MS.24          	37.85          	6.879
MS.25          	37.775         	6.86
MS.26          	37.695         	6.855
MS.27          	37.62          	6.84
MS.28          	37.545         	6.848
MS.29          	37.47          	6.87
MS.30          	37.395         	6.874
MS.31          	37.32          	6.867
MS.32          	37.245         	6.87
MS.33          	37.175         	6.844
MS.34          	37.1           	6.87
MS.35          	37.025         	6.873
MS.36          	36.95          	6.886
MS.37          	36.875         	6.836
MS.38          	36.805         	6.87
MS.39          	36.73          	6.871
MS.40          	36.655         	6.857
MS.41          	36.585         	6.748
MS.42          	36.51          	6.755
MS.43          	36.435         	6.784
MS.44          	36.365         	6.776
MS.45          	36.29          	6.677
MS.46          	36.22          	6.671
MS.47          	36.145         	6.647
MS.48          	36.075         	6.635
MS.49          	36             	6.686
MS.50          	35.93          	6.7
MS.51          	35.86          	6.662
MS.52          	35.785         	6.743
MS.53          	35.715         	6.559
MS.54          	35.645         	6.561
MS.55          	35.575         	6.559
MS.56          	35.5           	6.545
MS.57          	35.43          	6.502
MS.58          	35.36          	6.544
MS.59          	35.29          	6.57
MS.60          	35.22          	6.512
MS.61          	35.15          	6.519
MS.62          	35.08          	6.605
MS.63          	35.01          	6.52
MS.64          	34.94          	6.516
MS.65          	34.87          	6.512
MS.66          	34.8           	6.353
MS.67          	34.73          	6.339
MS.68          	34.66          	6.304
MS.69          	34.59          	6.335
MS.70          	34.52          	6.328
MS.71          	34.455         	6.342
MS.72          	34.385         	6.326
MS.73          	34.315         	6.297
MS.74          	34.245         	6.475
MS.75          	34.18          	6.37
MS.76          	34.11          	6.337
MS.77          	34.04          	6.31
MS.78          	33.975         	6.216
MS.79          	33.905         	6.266
MS.80          	33.84          	6.271
MS.81          	33.77          	6.205
MS.82          	33.705         	6.179
MS.83          	33.635         	6.176
MS.84          	33.57          	6.159
MS.85          	33.5           	6.165
MS.86          	33.435         	6.193
MS.87          	33.365         	6.078
MS.88          	33.3           	6.135
MS.89          	33.235         	6.125
MS.90          	33.17          	6.139
MS.91          	33.1           	6.104
MS.92          	33.035         	6.166
MS.93          	32.97          	6.121
MS.94          	32.905         	6.112
MS.95          	32.84          	5.989
MS.96          	32.77          	6.113
MS.97          	32.705         	6.008
MS.98          	32.64          	5.985
MS.99          	32.575         	5.976
MS.100         	32.51          	5.93
MS.101         	32.445         	5.99
MS.102         	32.38          	5.963
MS.103         	32.315         	5.887
MS.104         	32.25          	5.967
MS.105         	32.19          	5.839
MS.106         	32.125         	5.868
MS.107         	32.06          	5.966
MS.108         	31.995         	5.861
MS.109         	31.93          	5.802
MS.110         	31.865         	5.834
MS.111         	31.805         	5.597
MS.112         	31.74          	5.612
MS.113         	31.675         	5.834
MS.114         	31.615         	5.699
MS.115         	31.55          	5.731
MS.116         	31.485         	5.669
MS.117         	31.425         	5.599
MS.118         	31.36          	5.605
MS.119         	31.3           	5.732
MS.120         	31.235         	5.688
MS.121         	31.175         	5.564
MS.122         	31.11          	5.53
MS.123         	31.05          	5.629
MS.124         	30.985         	5.518
MS.125         	30.925         	5.552
MS.126         	30.865         	5.431
MS.127         	30.8           	5.436
MS.128         	30.74          	5.445
MS.129         	30.68          	5.344
MS.130         	30.62          	5.457
MS.131         	30.555         	5.323
MS.132         	30.495         	5.323
MS.133         	30.435         	5.316
MS.134         	30.375         	5.336
MS.135         	30.315         	5.323
MS.136         	30.255         	5.315
MS.137         	30.19          	5.289
MS.138         	30.13          	5.25
MS.139         	30.07          	5.269
MS.140         	30.01          	5.151
MS.141         	29.95          	5.226
MS.142         	29.89          	5.127
MS.143         	29.83          	5.158
MS.144         	29.77          	5.173
MS.145         	29.715         	5.116
MS.146         	29.655         	5.113
MS.147         	29.595         	5.076
MS.148         	29.535         	5.084
MS.149         	29.475         	4.987
MS.150         	29.415         	5.086
MS.151         	29.36          	5.134
MS.152         	29.3           	5.063
MS.153         	29.24          	4.943
MS.154         	29.185         	4.963
MS.155         	29.125         	4.956
MS.156         	29.065         	4.935
MS.157         	29.01          	4.902
MS.158         	28.95          	4.786
MS.159         	28.895         	4.863
MS.160         	28.835         	4.9
MS.161         	28.775         	4.874
MS.162         	28.72          	4.838
MS.163         	28.66          	4.853
MS.164         	28.605         	4.783
MS.165         	28.55          	4.798
MS.166         	28.49          	4.742
MS.167         	28.435         	4.747
MS.168         	28.375         	4.647
MS.169         	28.32          	4.732
MS.170         	28.265         	4.67
MS.171         	28.205         	4.615
MS.172         	28.15          	4.682
MS.173         	28.095         	4.548
MS.174         	28.04          	4.581
MS.175         	27.985         	4.485
MS.176         	27.925         	4.487
MS.177         	27.87          	4.42
MS.178         	27.815         	4.434
MS.179         	27.76          	4.561
MS.180         	27.705         	4.424
MS.181         	27.65          	4.402
MS.182         	27.595         	4.431
MS.183         	27.54          	4.316
MS.184         	27.485         	4.346
MS.185         	27.43          	4.311
MS.186         	27.375         	4.346
MS.187         	27.32          	4.33
MS.188         	27.265         	4.312
MS.189         	27.21          	4.284
MS.190         	27.155         	4.319
MS.191         	27.1           	4.226
MS.192         	27.045         	4.129
MS.193         	26.995         	4.197
MS.194         	26.94          	4.197
MS.195         	26.885         	4.2
MS.196         	26.83          	4.162
MS.197         	26.78          	4.212
MS.198         	26.725         	4.169
MS.199         	26.67          	4.18
MS.200         	26.62          	4.215
MS.201         	26.565         	4.156
MS.202         	26.51          	4.127
MS.203         	26.46          	4.05
MS.204         	26.405         	4.094
MS.205         	26.355         	4.041
MS.206         	26.3           	4.084
MS.207         	26.25          	3.983
MS.208         	26.195         	3.896
MS.209         	26.145         	3.872
MS.210         	26.09          	3.798
MS.211         	26.04          	3.825
MS.212         	25.985         	3.931
MS.213         	25.935         	3.79
MS.214         	25.885         	3.878
MS.215         	25.83          	3.774
MS.216         	25.78          	3.866
MS.217         	25.73          	3.776
MS.218         	25.675         	3.783
MS.219         	25.625         	3.75
MS.220         	25.575         	3.784
MS.221         	25.525         	3.661
MS.222         	25.47          	3.644
MS.223         	25.42          	3.71
MS.224         	25.37          	3.724
MS.225         	25.32          	3.652
MS.226         	25.27          	3.712
MS.227         	25.22          	3.632
MS.228         	25.17          	3.602
MS.229         	25.12          	3.582
MS.230         	25.07          	3.635
MS.231         	25.02          	3.49
MS.232         	24.97          	3.521
MS.233         	24.92          	3.546
MS.234         	24.87          	3.53
MS.235         	24.82          	3.542
MS.236         	24.77          	3.492
MS.237         	24.72          	3.528
MS.238         	24.67          	3.411
MS.239         	24.62          	3.364
MS.240         	24.57          	3.373
MS.241         	24.52          	3.337
MS.242         	24.475         	3.336
MS.243         	24.425         	3.418
MS.244         	24.375         	3.297
MS.245         	24.325         	3.217
MS.246         	24.28          	3.264
MS.247         	24.23          	3.268
MS.248         	24.18          	3.228
MS.249         	24.135         	3.205
MS.250         	24.085         	3.22
MS.251         	24.035         	3.124
MS.252         	23.99          	3.154
MS.253         	23.94          	3.151
MS.254         	23.895         	2.953
MS.255         	23.845         	3.198
MS.256         	23.8           	3.085
MS.257         	23.75          	3.079
MS.258         	23.705         	3.075
MS.259         	23.655         	3.075
MS.260         	23.61          	2.893
MS.261         	23.56          	3.068
MS.262         	23.515         	3.085
MS.263         	23.465         	2.807
MS.264         	23.42          	2.872
MS.265         	23.375         	2.967
MS.266         	23.325         	2.834
MS.267         	23.28          	2.776
MS.268         	23.235         	2.709
MS.269         	23.185         	2.914
MS.270         	23.14          	2.609
MS.271         	23.095         	2.678
MS.272         	23.05          	2.714
MS.273         	23             	2.672
MS.274         	22.955         	2.592
MS.275         	22.91          	2.667
MS.276         	22.865         	2.606
MS.277         	22.82          	2.585
MS.278         	22.775         	2.582
MS.279         	22.73          	2.531
MS.280         	22.68          	2.432
MS.281         	22.635         	2.387
MS.282         	22.59          	2.425
MS.283         	22.545         	2.423
MS.284         	22.5           	2.372
MS.285         	22.455         	2.275
MS.286         	22.41          	2.224
MS.287         	22.365         	2.303
MS.288         	22.32          	2.288
MS.289         	22.28          	2.371
MS.290         	22.235         	2.128
MS.291         	22.19          	2.343
MS.292         	22.145         	2.155
MS.293         	22.1           	2.258
MS.294         	22.055         	2.284
MS.295         	22.01          	2.088
MS.296         	21.97          	2.127
MS.297         	21.925         	2.225
MS.298         	21.88          	2.094
MS.299         	21.835         	2.068
MS.300         	21.795         	2.18
MS.301         	21.75          	2.018
MS.302         	21.705         	2.02
MS.303         	21.66          	2.015
MS.304         	21.62          	2.03
MS.305         	21.575         	2.001
MS.306         	21.535         	2.02
MS.307         	21.49          	2.004
MS.308         	21.445         	2.006
MS.309         	21.405         	2.017
MS.310         	21.36          	1.93
MS.311         	21.32          	1.926
MS.312         	21.275         	1.956
MS.313         	21.235         	1.923
MS.314         	21.19          	1.938
MS.315         	21.15          	1.91
MS.316         	21.105         	1.838
MS.317         	21.065         	1.904
MS.318         	21.02          	1.874
MS.319         	20.98          	1.884
MS.320         	20.94          	1.805
MS.321         	20.895         	1.835
MS.322         	20.855         	1.827
MS.323         	20.815         	1.862
MS.324         	20.77          	1.792
MS.325         	20.73          	1.816
MS.326         	20.69          	1.817
MS.327         	20.645         	1.796
MS.328         	20.605         	1.835
MS.329         	20.565         	1.813
MS.330         	20.525         	1.755
MS.331         	20.485         	1.851
MS.332         	20.44          	1.786
MS.333         	20.4           	1.782
MS.334         	20.36          	1.753
MS.335         	20.32          	1.727
MS.336         	20.28          	1.768
MS.337         	20.24          	1.755
MS.338         	20.2           	1.731
MS.339         	20.16          	1.752
MS.340         	20.115         	1.742
MS.341         	20.075         	1.697
MS.342         	20.035         	1.719
MS.343         	19.995         	1.771
MS.344         	19.955         	1.739
MS.345         	19.915         	1.708
MS.346         	19.875         	1.78
MS.347         	19.84          	1.746
MS.348         	19.8           	1.768
MS.349         	19.76          	1.735
MS.350         	19.72          	1.727
MS.351         	19.68          	1.707
MS.352         	19.64          	1.682
MS.353         	19.6           	1.742
MS.354         	19.56          	1.753
MS.355         	19.525         	1.731
MS.356         	19.485         	1.697
MS.357         	19.445         	1.694
MS.358         	19.405         	1.754
MS.359         	19.365         	1.708
MS.360         	19.33          	1.738
MS.361         	19.29          	1.78
MS.362         	19.25          	1.714
MS.363         	19.215         	1.712
MS.364         	19.175         	1.755
MS.365         	19.135         	1.723
MS.366         	19.1           	1.729
MS.367         	19.06          	1.617
MS.368         	19.02          	1.729
MS.369         	18.985         	1.66
MS.370         	18.945         	1.678
MS.371         	18.91          	1.743
MS.372         	18.87          	1.705
MS.373         	18.83          	1.7
MS.374         	18.795         	1.735
MS.375         	18.755         	1.722
MS.376         	18.72          	1.631
MS.377         	18.68          	1.633
MS.378         	18.645         	1.629
MS.379         	18.61          	1.685
MS.380         	18.57          	1.641
MS.381         	18.535         	1.662
MS.382         	18.495         	1.633
MS.383         	18.46          	1.656
MS.384         	18.425         	1.698
MS.385         	18.385         	1.724
MS.386         	18.35          	1.645
MS.387         	18.31          	1.74
MS.388         	18.275         	1.676
MS.389         	18.24          	1.66
MS.390         	18.205         	1.667
MS.391         	18.165         	1.667
MS.392         	18.13          	1.711
MS.393         	18.095         	1.673
MS.394         	18.06          	1.621
MS.395         	18.02          	1.574
MS.396         	17.985         	1.641
MS.397         	17.95          	1.667
MS.398         	17.915         	1.635
MS.399         	17.88          	1.626
MS.400         	17.84          	1.601
MS.401         	17.805         	1.645
MS.402         	17.77          	1.592
MS.403         	17.735         	1.536
MS.404         	17.7           	1.609
MS.405         	17.665         	1.642
MS.406         	17.63          	1.616
MS.407         	17.595         	1.63
MS.408         	17.56          	1.638
MS.409         	17.525         	1.6
MS.410         	17.49          	1.715
MS.411         	17.455         	1.525
MS.412         	17.42          	1.597
MS.413         	17.385         	1.567
MS.414         	17.35          	1.566
MS.415         	17.315         	1.561
MS.416         	17.28          	1.593
MS.417         	17.245         	1.593
MS.418         	17.21          	1.539
MS.419         	17.175         	1.529
MS.420         	17.145         	1.55
MS.421         	17.11          	1.606
MS.422         	17.075         	1.54
MS.423         	17.04          	1.516
MS.424         	17.005         	1.559
MS.425         	16.97          	1.544
MS.426         	16.94          	1.549
MS.427         	16.905         	1.572
MS.428         	16.87          	1.457
MS.429         	16.835         	1.495
MS.430         	16.805         	1.482
MS.431         	16.77          	1.47
MS.432         	16.735         	1.509
MS.433         	16.705         	1.519
MS.434         	16.67          	1.476
MS.435         	16.635         	1.462
MS.436         	16.605         	1.497
MS.437         	16.57          	1.513
MS.438         	16.535         	1.504
MS.439         	16.505         	1.398
MS.440         	16.47          	1.429
MS.441         	16.44          	1.426
MS.442         	16.405         	1.482
MS.443         	16.37          	1.4
MS.444         	16.34          	1.475
MS.445         	16.305         	1.34
MS.446         	16.275         	1.406
MS.447         	16.24          	1.407
MS.448         	16.21          	1.447
MS.449         	16.175         	1.396
MS.450         	16.145         	1.44
MS.451         	16.11          	1.383
MS.452         	16.08          	1.36
MS.453         	16.05          	1.324
MS.454         	16.015         	1.355
MS.455         	15.985         	1.404
MS.456         	15.95          	1.36
MS.457         	15.92          	1.342
MS.458         	15.89          	1.346
MS.459         	15.855         	1.367
MS.460         	15.825         	1.338
MS.461         	15.795         	1.296
MS.462         	15.76          	1.325
MS.463         	15.73          	1.268
MS.464         	15.7           	1.352
MS.465         	15.665         	1.378
MS.466         	15.635         	1.404
MS.467         	15.605         	1.299
MS.468         	15.575         	1.342
MS.469         	15.545         	1.311
MS.470         	15.51          	1.335
MS.471         	15.48          	1.287
MS.472         	15.45          	1.34
MS.473         	15.42          	1.385
MS.474         	15.39          	1.323
MS.475         	15.355         	1.267
MS.476         	15.325         	1.359
MS.477         	15.295         	1.314
MS.478         	15.265         	1.27
MS.479         	15.235         	1.174
MS.480         	15.205         	1.279
MS.481         	15.175         	1.246
MS.482         	15.145         	1.182
MS.483         	15.115         	1.244
MS.484         	15.085         	1.232
MS.485         	15.055         	1.233
MS.486         	15.025         	1.183
MS.487         	14.995         	1.129
MS.488         	14.965         	1.206
MS.489         	14.935         	1.042
MS.490         	14.905         	1.099
MS.491         	14.875         	1.109
MS.492         	14.845         	1.099
MS.493         	14.815         	1.129
MS.494         	14.785         	1.088
MS.495         	14.755         	1.193
MS.496         	14.725         	1.069
MS.497         	14.695         	1.068
MS.498         	14.665         	1.174
MS.499         	14.635         	0.95
MS.500         	14.61          	1.166
MS.501         	14.58          	1.075
MS.502         	14.55          	1.005
MS.503         	14.52          	0.946
