File:              	C:\Qtrac\Data\CKMC01028I.QZD
Name:              	DK.COP.NC.3.2
Protocol:          	MSCAN-R2
Date:              	28/10/20
Start time:        	12:47:04
Age:               	56
Sex:               	M
Temperature:       	37.2
S/R sites:         	RUln Wr-ADQ
NC/disease:        	NC
Operator:          	CK
Comments:          	CG
M-SCAN DATA (8-2m)
Scanpts: 10, 17, 627, 647
Stim. (mA)     	Amp. (mV)
MS.1           	23             	10.205
MS.2           	23             	10.213
MS.3           	23             	10.226
MS.4           	23             	10.202
MS.5           	23             	10.231
MS.6           	23             	10.239
MS.7           	23             	10.245
MS.8           	23             	10.298
MS.9           	23             	10.297
MS.10          	23             	10.304
MS.11          	23             	10.277
MS.12          	23             	10.335
MS.13          	23             	10.301
MS.14          	23             	10.275
MS.15          	23             	10.316
MS.16          	23             	10.301
MS.17          	23             	10.303
MS.18          	23             	10.292
MS.19          	23             	10.295
MS.20          	23             	10.277
MS.21          	23             	10.33
MS.22          	23             	10.255
MS.23          	23             	10.265
MS.24          	22.91          	10.204
MS.25          	22.86          	10.194
MS.26          	22.815         	10.213
MS.27          	22.77          	10.265
MS.28          	22.725         	10.262
MS.29          	22.68          	10.272
MS.30          	22.635         	10.242
MS.31          	22.59          	10.242
MS.32          	22.545         	10.255
MS.33          	22.5           	10.245
MS.34          	22.455         	10.257
MS.35          	22.41          	10.231
MS.36          	22.365         	10.277
MS.37          	22.32          	10.252
MS.38          	22.275         	10.284
MS.39          	22.23          	10.277
MS.40          	22.185         	10.258
MS.41          	22.14          	10.246
MS.42          	22.1           	10.242
MS.43          	22.055         	10.268
MS.44          	22.01          	10.223
MS.45          	21.965         	10.242
MS.46          	21.92          	10.226
MS.47          	21.88          	10.242
MS.48          	21.835         	10.265
MS.49          	21.79          	10.222
MS.50          	21.745         	10.162
MS.51          	21.705         	10.213
MS.52          	21.66          	10.26
MS.53          	21.615         	10.287
MS.54          	21.575         	10.173
MS.55          	21.53          	10.217
MS.56          	21.49          	10.199
MS.57          	21.445         	10.208
MS.58          	21.4           	10.155
MS.59          	21.36          	10.162
MS.60          	21.315         	10.202
MS.61          	21.275         	10.178
MS.62          	21.23          	10.149
MS.63          	21.19          	10.185
MS.64          	21.145         	10.165
MS.65          	21.105         	10.149
MS.66          	21.06          	10.135
MS.67          	21.02          	10.103
MS.68          	20.98          	10.193
MS.69          	20.935         	10.136
MS.70          	20.895         	10.088
MS.71          	20.855         	10.175
MS.72          	20.81          	10.124
MS.73          	20.77          	10.127
MS.74          	20.73          	10.126
MS.75          	20.685         	10.158
MS.76          	20.645         	10.06
MS.77          	20.605         	10.031
MS.78          	20.565         	10.066
MS.79          	20.52          	10.094
MS.80          	20.48          	10.143
MS.81          	20.44          	10.1
MS.82          	20.4           	10.037
MS.83          	20.36          	10.057
MS.84          	20.32          	10.062
MS.85          	20.275         	10.126
MS.86          	20.235         	10.112
MS.87          	20.195         	10.066
MS.88          	20.155         	10.005
MS.89          	20.115         	10.022
MS.90          	20.075         	10.109
MS.91          	20.035         	10.06
MS.92          	19.995         	10.112
MS.93          	19.955         	10.078
MS.94          	19.915         	10.109
MS.95          	19.875         	10.101
MS.96          	19.835         	10.158
MS.97          	19.795         	10.115
MS.98          	19.755         	10.115
MS.99          	19.715         	10.165
MS.100         	19.68          	10.075
MS.101         	19.64          	10.103
MS.102         	19.6           	10.066
MS.103         	19.56          	10.086
MS.104         	19.52          	10.02
MS.105         	19.48          	10.11
MS.106         	19.445         	10.1
MS.107         	19.405         	10.091
MS.108         	19.365         	10.083
MS.109         	19.325         	10.08
MS.110         	19.29          	10.034
MS.111         	19.25          	10.106
MS.112         	19.21          	10.045
MS.113         	19.175         	10.059
MS.114         	19.135         	9.988
MS.115         	19.095         	10.072
MS.116         	19.06          	10.089
MS.117         	19.02          	10.08
MS.118         	18.98          	10.075
MS.119         	18.945         	10.028
MS.120         	18.905         	10.049
MS.121         	18.87          	10.013
MS.122         	18.83          	10.083
MS.123         	18.795         	10.074
MS.124         	18.755         	10.01
MS.125         	18.72          	9.981
MS.126         	18.68          	10.007
MS.127         	18.645         	10.043
MS.128         	18.605         	10.049
MS.129         	18.57          	9.959
MS.130         	18.53          	9.911
MS.131         	18.495         	9.981
MS.132         	18.46          	9.979
MS.133         	18.42          	9.944
MS.134         	18.385         	9.943
MS.135         	18.345         	9.961
MS.136         	18.31          	9.985
MS.137         	18.275         	9.964
MS.138         	18.24          	10.017
MS.139         	18.2           	9.975
MS.140         	18.165         	10.014
MS.141         	18.13          	9.926
MS.142         	18.09          	10.002
MS.143         	18.055         	9.973
MS.144         	18.02          	9.944
MS.145         	17.985         	9.988
MS.146         	17.95          	9.944
MS.147         	17.91          	9.985
MS.148         	17.875         	9.97
MS.149         	17.84          	9.976
MS.150         	17.805         	9.946
MS.151         	17.77          	9.981
MS.152         	17.735         	9.949
MS.153         	17.7           	9.877
MS.154         	17.665         	9.943
MS.155         	17.63          	9.941
MS.156         	17.595         	9.772
MS.157         	17.56          	9.889
MS.158         	17.525         	9.85
MS.159         	17.49          	9.932
MS.160         	17.455         	9.769
MS.161         	17.42          	9.775
MS.162         	17.385         	9.885
MS.163         	17.35          	9.785
MS.164         	17.315         	9.795
MS.165         	17.28          	9.813
MS.166         	17.245         	9.821
MS.167         	17.21          	9.875
MS.168         	17.175         	9.763
MS.169         	17.14          	9.837
MS.170         	17.105         	9.801
MS.171         	17.075         	9.776
MS.172         	17.04          	9.787
MS.173         	17.005         	9.708
MS.174         	16.97          	9.796
MS.175         	16.935         	9.758
MS.176         	16.905         	9.647
MS.177         	16.87          	9.798
MS.178         	16.835         	9.761
MS.179         	16.8           	9.674
MS.180         	16.77          	9.749
MS.181         	16.735         	9.718
MS.182         	16.7           	9.694
MS.183         	16.67          	9.647
MS.184         	16.635         	9.729
MS.185         	16.6           	9.637
MS.186         	16.57          	9.669
MS.187         	16.535         	9.656
MS.188         	16.5           	9.663
MS.189         	16.47          	9.755
MS.190         	16.435         	9.621
MS.191         	16.405         	9.692
MS.192         	16.37          	9.711
MS.193         	16.34          	9.634
MS.194         	16.305         	9.668
MS.195         	16.275         	9.608
MS.196         	16.24          	9.601
MS.197         	16.21          	9.624
MS.198         	16.175         	9.514
MS.199         	16.145         	9.601
MS.200         	16.11          	9.569
MS.201         	16.08          	9.586
MS.202         	16.045         	9.5
MS.203         	16.015         	9.494
MS.204         	15.98          	9.647
MS.205         	15.95          	9.653
MS.206         	15.92          	9.578
MS.207         	15.885         	9.491
MS.208         	15.855         	9.581
MS.209         	15.825         	9.57
MS.210         	15.79          	9.555
MS.211         	15.76          	9.518
MS.212         	15.73          	9.633
MS.213         	15.695         	9.566
MS.214         	15.665         	9.586
MS.215         	15.635         	9.506
MS.216         	15.605         	9.534
MS.217         	15.57          	9.491
MS.218         	15.54          	9.584
MS.219         	15.51          	9.451
MS.220         	15.48          	9.512
MS.221         	15.45          	9.526
MS.222         	15.415         	9.558
MS.223         	15.385         	9.508
MS.224         	15.355         	9.482
MS.225         	15.325         	9.505
MS.226         	15.295         	9.459
MS.227         	15.265         	9.517
MS.228         	15.235         	9.477
MS.229         	15.205         	9.488
MS.230         	15.175         	9.435
MS.231         	15.14          	9.451
MS.232         	15.11          	9.428
MS.233         	15.08          	9.441
MS.234         	15.05          	9.415
MS.235         	15.02          	9.505
MS.236         	14.99          	9.398
MS.237         	14.96          	9.491
MS.238         	14.93          	9.453
MS.239         	14.9           	9.448
MS.240         	14.87          	9.474
MS.241         	14.84          	9.483
MS.242         	14.815         	9.421
MS.243         	14.785         	9.499
MS.244         	14.755         	9.439
MS.245         	14.725         	9.439
MS.246         	14.695         	9.546
MS.247         	14.665         	9.474
MS.248         	14.635         	9.514
MS.249         	14.605         	9.363
MS.250         	14.58          	9.48
MS.251         	14.55          	9.402
MS.252         	14.52          	9.323
MS.253         	14.49          	9.421
MS.254         	14.46          	9.317
MS.255         	14.435         	9.296
MS.256         	14.405         	9.363
MS.257         	14.375         	9.312
MS.258         	14.345         	9.387
MS.259         	14.32          	9.259
MS.260         	14.29          	9.16
MS.261         	14.26          	9.276
MS.262         	14.23          	9.288
MS.263         	14.205         	9.319
MS.264         	14.175         	9.277
MS.265         	14.145         	9.236
MS.266         	14.12          	9.238
MS.267         	14.09          	9.103
MS.268         	14.06          	9.244
MS.269         	14.035         	9.218
MS.270         	14.005         	9.177
MS.271         	13.98          	9.213
MS.272         	13.95          	9.175
MS.273         	13.92          	9.097
MS.274         	13.895         	9.087
MS.275         	13.865         	9.047
MS.276         	13.84          	9.081
MS.277         	13.81          	8.83
MS.278         	13.785         	9
MS.279         	13.755         	8.997
MS.280         	13.73          	9.038
MS.281         	13.7           	8.931
MS.282         	13.675         	8.96
MS.283         	13.645         	8.969
MS.284         	13.62          	8.839
MS.285         	13.59          	9.003
MS.286         	13.565         	8.784
MS.287         	13.54          	8.679
MS.288         	13.51          	8.627
MS.289         	13.485         	8.864
MS.290         	13.455         	8.804
MS.291         	13.43          	8.99
MS.292         	13.405         	8.156
MS.293         	13.375         	8.549
MS.294         	13.35          	8.676
MS.295         	13.325         	8.522
MS.296         	13.295         	8.305
MS.297         	13.27          	8.548
MS.298         	13.245         	8.217
MS.299         	13.215         	8.456
MS.300         	13.19          	8.519
MS.301         	13.165         	7.97
MS.302         	13.14          	8.607
MS.303         	13.11          	8.2
MS.304         	13.085         	8.379
MS.305         	13.06          	8.136
MS.306         	13.035         	8.388
MS.307         	13.005         	8.499
MS.308         	12.98          	8.417
MS.309         	12.955         	8.366
MS.310         	12.93          	8.255
MS.311         	12.905         	8.437
MS.312         	12.88          	8.289
MS.313         	12.85          	8.224
MS.314         	12.825         	8.176
MS.315         	12.8           	7.738
MS.316         	12.775         	7.655
MS.317         	12.75          	7.959
MS.318         	12.725         	7.841
MS.319         	12.7           	7.637
MS.320         	12.675         	7.73
MS.321         	12.65          	7.733
MS.322         	12.625         	7.713
MS.323         	12.595         	7.706
MS.324         	12.57          	7.709
MS.325         	12.545         	7.785
MS.326         	12.52          	7.588
MS.327         	12.495         	7.579
MS.328         	12.47          	7.481
MS.329         	12.445         	7.701
MS.330         	12.42          	7.576
MS.331         	12.395         	7.437
MS.332         	12.375         	7.486
MS.333         	12.35          	7.402
MS.334         	12.325         	7.518
MS.335         	12.3           	7.526
MS.336         	12.275         	7.504
MS.337         	12.25          	7.481
MS.338         	12.225         	7.384
MS.339         	12.2           	7.384
MS.340         	12.175         	7.455
MS.341         	12.15          	7.317
MS.342         	12.13          	7.297
MS.343         	12.105         	7.439
MS.344         	12.08          	7.239
MS.345         	12.055         	7.285
MS.346         	12.03          	7.291
MS.347         	12.005         	7.184
MS.348         	11.985         	7.141
MS.349         	11.96          	7.257
MS.350         	11.935         	7.26
MS.351         	11.91          	7.188
MS.352         	11.89          	6.898
MS.353         	11.865         	6.648
MS.354         	11.84          	7.047
MS.355         	11.815         	6.882
MS.356         	11.795         	6.871
MS.357         	11.77          	6.808
MS.358         	11.745         	6.58
MS.359         	11.72          	6.752
MS.360         	11.7           	6.299
MS.361         	11.675         	6.497
MS.362         	11.65          	6.923
MS.363         	11.63          	6.131
MS.364         	11.605         	6.735
MS.365         	11.58          	6.7
MS.366         	11.56          	6.253
MS.367         	11.535         	6.387
MS.368         	11.515         	6.262
MS.369         	11.49          	6.27
MS.370         	11.465         	6.082
MS.371         	11.445         	6.142
MS.372         	11.42          	6.668
MS.373         	11.4           	5.96
MS.374         	11.375         	6.464
MS.375         	11.355         	5.618
MS.376         	11.33          	6.082
MS.377         	11.31          	5.794
MS.378         	11.285         	5.771
MS.379         	11.265         	5.588
MS.380         	11.24          	5.653
MS.381         	11.22          	5.464
MS.382         	11.195         	5.432
MS.383         	11.175         	5.856
MS.384         	11.15          	5.588
MS.385         	11.13          	5.702
MS.386         	11.105         	5.35
MS.387         	11.085         	5.534
MS.388         	11.06          	5.537
MS.389         	11.04          	5.263
MS.390         	11.02          	4.987
MS.391         	10.995         	4.967
MS.392         	10.975         	5.92
MS.393         	10.95          	4.691
MS.394         	10.93          	5.061
MS.395         	10.91          	5.112
MS.396         	10.885         	5.136
MS.397         	10.865         	4.797
MS.398         	10.845         	5.193
MS.399         	10.82          	5.025
MS.400         	10.8           	4.842
MS.401         	10.78          	4.211
MS.402         	10.755         	4.019
MS.403         	10.735         	4.245
MS.404         	10.715         	4.129
MS.405         	10.69          	4.114
MS.406         	10.67          	4.146
MS.407         	10.65          	4.002
MS.408         	10.63          	3.525
MS.409         	10.605         	4.303
MS.410         	10.585         	3.563
MS.411         	10.565         	3.407
MS.412         	10.545         	3.206
MS.413         	10.52          	3.448
MS.414         	10.5           	3.224
MS.415         	10.48          	3.491
MS.416         	10.46          	3.674
MS.417         	10.44          	3.316
MS.418         	10.42          	3.423
MS.419         	10.395         	2.87
MS.420         	10.375         	2.739
MS.421         	10.355         	2.962
MS.422         	10.335         	2.588
MS.423         	10.315         	2.505
MS.424         	10.295         	2.846
MS.425         	10.275         	2.597
MS.426         	10.25          	2.547
MS.427         	10.23          	2.414
MS.428         	10.21          	2.304
MS.429         	10.19          	2.66
MS.430         	10.17          	2.625
MS.431         	10.15          	2.303
MS.432         	10.13          	2.306
MS.433         	10.11          	2.512
MS.434         	10.09          	2.385
MS.435         	10.07          	2.272
MS.436         	10.05          	2.171
MS.437         	10.03          	2.556
MS.438         	10.01          	2.281
MS.439         	9.99           	1.923
MS.440         	9.97           	2.107
MS.441         	9.95           	2.193
MS.442         	9.93           	2.174
MS.443         	9.91           	2.023
MS.444         	9.89           	2.011
MS.445         	9.87           	2.045
MS.446         	9.85           	1.863
MS.447         	9.83           	1.927
MS.448         	9.81           	1.649
MS.449         	9.79           	1.776
MS.450         	9.77           	2.057
MS.451         	9.75           	1.874
MS.452         	9.735          	1.62
MS.453         	9.715          	1.617
MS.454         	9.695          	1.517
MS.455         	9.675          	1.784
MS.456         	9.655          	1.456
MS.457         	9.635          	1.402
MS.458         	9.615          	1.366
MS.459         	9.595          	1.355
MS.460         	9.58           	1.445
MS.461         	9.56           	1.247
MS.462         	9.54           	1.41
MS.463         	9.52           	1.32
MS.464         	9.5            	1.27
MS.465         	9.485          	1.132
MS.466         	9.465          	1.195
MS.467         	9.445          	1.228
MS.468         	9.425          	1.189
MS.469         	9.405          	1.173
MS.470         	9.39           	1.186
MS.471         	9.37           	1.115
MS.472         	9.35           	1.208
MS.473         	9.33           	1.225
MS.474         	9.315          	1.166
MS.475         	9.295          	1.45
MS.476         	9.275          	1.073
MS.477         	9.26           	1.129
MS.478         	9.24           	1.122
MS.479         	9.22           	1.027
MS.480         	9.205          	1.18
MS.481         	9.185          	1.118
MS.482         	9.165          	1.076
MS.483         	9.15           	0.987
MS.484         	9.13           	1.134
MS.485         	9.11           	0.996
MS.486         	9.095          	1.067
MS.487         	9.075          	1.03
MS.488         	9.055          	0.916
MS.489         	9.04           	1.07
MS.490         	9.02           	1.079
MS.491         	9              	0.754
MS.492         	8.985          	0.818
MS.493         	8.965          	0.967
MS.494         	8.95           	0.922
MS.495         	8.93           	0.967
MS.496         	8.915          	0.861
MS.497         	8.895          	0.856
MS.498         	8.875          	0.815
MS.499         	8.86           	0.986
