File:              	C:\Qtrac\Data\CKMC00923E.QZD
Name:              	DK.COP.NC.2.2
Protocol:          	MSCAN-R2
Date:              	23/9/20
Start time:        	14:06:04
Age:               	34
Sex:               	F
Temperature:       	36.6
S/R sites:         	RPer FH-AT
NC/disease:        	NC
Operator:          	CK
Comments:          	CG
M-SCAN DATA (8.8-1.2m)
Scanpts: 10, 21, 791, 810
Stim. (mA)     	Amp. (mV)
MS.1           	30             	6.01
MS.2           	30             	6.036
MS.3           	30             	5.986
MS.4           	30             	5.977
MS.5           	30             	5.986
MS.6           	30             	5.984
MS.7           	30             	6.014
MS.8           	30             	5.978
MS.9           	30             	6.002
MS.10          	30             	6.017
MS.11          	30             	6.005
MS.12          	30             	6.028
MS.13          	30             	6.022
MS.14          	30             	6.048
MS.15          	30             	6.013
MS.16          	30             	6.038
MS.17          	30             	5.982
MS.18          	30             	6.005
MS.19          	30             	5.995
MS.20          	30             	6.005
MS.21          	30             	6.039
MS.22          	30             	6.005
MS.23          	30             	6.022
MS.24          	29.88          	6.006
MS.25          	29.82          	6.013
MS.26          	29.76          	5.998
MS.27          	29.7           	6.044
MS.28          	29.64          	6.002
MS.29          	29.585         	6.024
MS.30          	29.525         	6.006
MS.31          	29.465         	6.007
MS.32          	29.405         	5.998
MS.33          	29.345         	5.978
MS.34          	29.29          	6
MS.35          	29.23          	5.997
MS.36          	29.17          	6.029
MS.37          	29.115         	6.012
MS.38          	29.055         	5.996
MS.39          	28.995         	5.966
MS.40          	28.94          	5.966
MS.41          	28.88          	5.953
MS.42          	28.825         	5.98
MS.43          	28.765         	5.978
MS.44          	28.71          	5.984
MS.45          	28.65          	5.981
MS.46          	28.595         	5.943
MS.47          	28.535         	5.961
MS.48          	28.48          	5.994
MS.49          	28.425         	5.947
MS.50          	28.365         	5.974
MS.51          	28.31          	5.965
MS.52          	28.255         	5.918
MS.53          	28.195         	5.936
MS.54          	28.14          	5.961
MS.55          	28.085         	5.987
MS.56          	28.03          	6
MS.57          	27.97          	5.954
MS.58          	27.915         	5.933
MS.59          	27.86          	5.97
MS.60          	27.805         	5.956
MS.61          	27.75          	5.954
MS.62          	27.695         	5.927
MS.63          	27.64          	5.934
MS.64          	27.585         	5.929
MS.65          	27.53          	5.95
MS.66          	27.475         	5.931
MS.67          	27.42          	5.848
MS.68          	27.365         	5.934
MS.69          	27.31          	5.938
MS.70          	27.255         	5.9
MS.71          	27.2           	5.895
MS.72          	27.145         	5.897
MS.73          	27.09          	5.929
MS.74          	27.035         	5.904
MS.75          	26.985         	5.911
MS.76          	26.93          	5.878
MS.77          	26.875         	5.911
MS.78          	26.82          	5.823
MS.79          	26.77          	5.83
MS.80          	26.715         	5.952
MS.81          	26.66          	5.86
MS.82          	26.61          	5.858
MS.83          	26.555         	5.796
MS.84          	26.5           	5.849
MS.85          	26.45          	5.886
MS.86          	26.395         	5.789
MS.87          	26.345         	5.801
MS.88          	26.29          	5.819
MS.89          	26.24          	5.845
MS.90          	26.185         	5.834
MS.91          	26.135         	5.8
MS.92          	26.08          	5.767
MS.93          	26.03          	5.732
MS.94          	25.975         	5.789
MS.95          	25.925         	5.792
MS.96          	25.875         	5.745
MS.97          	25.82          	5.779
MS.98          	25.77          	5.769
MS.99          	25.72          	5.765
MS.100         	25.665         	5.741
MS.101         	25.615         	5.759
MS.102         	25.565         	5.726
MS.103         	25.515         	5.754
MS.104         	25.46          	5.688
MS.105         	25.41          	5.763
MS.106         	25.36          	5.746
MS.107         	25.31          	5.783
MS.108         	25.26          	5.712
MS.109         	25.21          	5.767
MS.110         	25.16          	5.72
MS.111         	25.11          	5.689
MS.112         	25.06          	5.74
MS.113         	25.01          	5.649
MS.114         	24.96          	5.734
MS.115         	24.91          	5.715
MS.116         	24.86          	5.683
MS.117         	24.81          	5.693
MS.118         	24.76          	5.613
MS.119         	24.71          	5.667
MS.120         	24.66          	5.693
MS.121         	24.61          	5.533
MS.122         	24.56          	5.602
MS.123         	24.515         	5.671
MS.124         	24.465         	5.595
MS.125         	24.415         	5.649
MS.126         	24.365         	5.549
MS.127         	24.315         	5.646
MS.128         	24.27          	5.518
MS.129         	24.22          	5.516
MS.130         	24.17          	5.58
MS.131         	24.125         	5.545
MS.132         	24.075         	5.566
MS.133         	24.025         	5.622
MS.134         	23.98          	5.498
MS.135         	23.93          	5.625
MS.136         	23.885         	5.545
MS.137         	23.835         	5.402
MS.138         	23.79          	5.499
MS.139         	23.74          	5.422
MS.140         	23.695         	5.428
MS.141         	23.645         	5.447
MS.142         	23.6           	5.398
MS.143         	23.55          	5.45
MS.144         	23.505         	5.354
MS.145         	23.46          	5.419
MS.146         	23.41          	5.317
MS.147         	23.365         	5.361
MS.148         	23.315         	5.322
MS.149         	23.27          	5.307
MS.150         	23.225         	5.345
MS.151         	23.18          	5.288
MS.152         	23.13          	5.255
MS.153         	23.085         	5.306
MS.154         	23.04          	5.237
MS.155         	22.995         	5.269
MS.156         	22.945         	5.249
MS.157         	22.9           	5.33
MS.158         	22.855         	5.225
MS.159         	22.81          	5.284
MS.160         	22.765         	5.252
MS.161         	22.72          	5.211
MS.162         	22.675         	5.217
MS.163         	22.63          	5.225
MS.164         	22.585         	5.14
MS.165         	22.54          	5.256
MS.166         	22.495         	5.269
MS.167         	22.45          	5.279
MS.168         	22.405         	5.168
MS.169         	22.36          	5.211
MS.170         	22.315         	5.249
MS.171         	22.27          	5.142
MS.172         	22.225         	5.109
MS.173         	22.18          	5.219
MS.174         	22.135         	5.074
MS.175         	22.09          	5.117
MS.176         	22.045         	5.062
MS.177         	22.005         	5.053
MS.178         	21.96          	5.162
MS.179         	21.915         	5.086
MS.180         	21.87          	4.986
MS.181         	21.83          	5.035
MS.182         	21.785         	5.041
MS.183         	21.74          	4.96
MS.184         	21.695         	4.85
MS.185         	21.655         	4.901
MS.186         	21.61          	4.868
MS.187         	21.57          	4.879
MS.188         	21.525         	4.866
MS.189         	21.48          	4.798
MS.190         	21.44          	4.861
MS.191         	21.395         	4.842
MS.192         	21.355         	4.857
MS.193         	21.31          	4.734
MS.194         	21.27          	4.67
MS.195         	21.225         	4.695
MS.196         	21.185         	4.624
MS.197         	21.14          	4.492
MS.198         	21.1           	4.508
MS.199         	21.055         	4.548
MS.200         	21.015         	4.673
MS.201         	20.97          	4.586
MS.202         	20.93          	4.551
MS.203         	20.89          	4.57
MS.204         	20.845         	4.515
MS.205         	20.805         	4.529
MS.206         	20.765         	4.473
MS.207         	20.72          	4.419
MS.208         	20.68          	4.394
MS.209         	20.64          	4.401
MS.210         	20.6           	4.26
MS.211         	20.555         	4.269
MS.212         	20.515         	4.216
MS.213         	20.475         	4.279
MS.214         	20.435         	4.106
MS.215         	20.395         	4.223
MS.216         	20.35          	4.167
MS.217         	20.31          	4.219
MS.218         	20.27          	4.111
MS.219         	20.23          	4.15
MS.220         	20.19          	4.126
MS.221         	20.15          	3.957
MS.222         	20.11          	3.992
MS.223         	20.07          	3.882
MS.224         	20.03          	3.959
MS.225         	19.99          	3.975
MS.226         	19.95          	3.869
MS.227         	19.91          	3.917
MS.228         	19.87          	3.895
MS.229         	19.83          	3.889
MS.230         	19.79          	3.889
MS.231         	19.75          	3.822
MS.232         	19.71          	3.723
MS.233         	19.67          	3.749
MS.234         	19.635         	3.586
MS.235         	19.595         	3.594
MS.236         	19.555         	3.571
MS.237         	19.515         	3.665
MS.238         	19.475         	3.644
MS.239         	19.435         	3.477
MS.240         	19.4           	3.684
MS.241         	19.36          	3.528
MS.242         	19.32          	3.531
MS.243         	19.28          	3.423
MS.244         	19.245         	3.396
MS.245         	19.205         	3.426
MS.246         	19.165         	3.329
MS.247         	19.13          	3.548
MS.248         	19.09          	3.47
MS.249         	19.05          	3.227
MS.250         	19.015         	3.322
MS.251         	18.975         	3.366
MS.252         	18.94          	3.334
MS.253         	18.9           	3.282
MS.254         	18.865         	3.21
MS.255         	18.825         	3.375
MS.256         	18.79          	3.207
MS.257         	18.75          	3.193
MS.258         	18.715         	3.134
MS.259         	18.675         	3.081
MS.260         	18.64          	2.99
MS.261         	18.6           	3.044
MS.262         	18.565         	3.008
MS.263         	18.525         	3.131
MS.264         	18.49          	2.983
MS.265         	18.45          	3.019
MS.266         	18.415         	2.772
MS.267         	18.38          	2.89
MS.268         	18.34          	2.723
MS.269         	18.305         	2.761
MS.270         	18.27          	2.949
MS.271         	18.23          	2.832
MS.272         	18.195         	2.814
MS.273         	18.16          	2.616
MS.274         	18.125         	2.714
MS.275         	18.085         	2.842
MS.276         	18.05          	2.717
MS.277         	18.015         	2.729
MS.278         	17.98          	2.544
MS.279         	17.945         	2.568
MS.280         	17.905         	2.684
MS.281         	17.87          	2.513
MS.282         	17.835         	2.469
MS.283         	17.8           	2.443
MS.284         	17.765         	2.601
MS.285         	17.73          	2.471
MS.286         	17.695         	2.513
MS.287         	17.66          	2.513
MS.288         	17.625         	2.526
MS.289         	17.59          	2.353
MS.290         	17.55          	2.355
MS.291         	17.515         	2.363
MS.292         	17.48          	2.294
MS.293         	17.445         	2.429
MS.294         	17.415         	2.265
MS.295         	17.38          	2.274
MS.296         	17.345         	2.248
MS.297         	17.31          	2.238
MS.298         	17.275         	2.311
MS.299         	17.24          	2.343
MS.300         	17.205         	2.274
MS.301         	17.17          	2.209
MS.302         	17.135         	2.231
MS.303         	17.1           	2.198
MS.304         	17.07          	2.145
MS.305         	17.035         	2.1
MS.306         	17             	2.147
MS.307         	16.965         	2.098
MS.308         	16.93          	2.079
MS.309         	16.9           	2.113
MS.310         	16.865         	2.095
MS.311         	16.83          	1.991
MS.312         	16.795         	1.985
MS.313         	16.765         	2.002
MS.314         	16.73          	1.915
MS.315         	16.695         	1.949
MS.316         	16.665         	2.011
MS.317         	16.63          	1.871
MS.318         	16.595         	1.904
MS.319         	16.565         	1.846
MS.320         	16.53          	1.846
MS.321         	16.495         	1.773
MS.322         	16.465         	1.816
MS.323         	16.43          	1.858
MS.324         	16.4           	1.73
MS.325         	16.365         	1.755
MS.326         	16.335         	1.708
MS.327         	16.3           	1.656
MS.328         	16.27          	1.734
MS.329         	16.235         	1.705
MS.330         	16.205         	1.702
MS.331         	16.17          	1.675
MS.332         	16.14          	1.701
MS.333         	16.105         	1.7
MS.334         	16.075         	1.702
MS.335         	16.04          	1.643
MS.336         	16.01          	1.538
MS.337         	15.98          	1.678
MS.338         	15.945         	1.65
MS.339         	15.915         	1.586
MS.340         	15.88          	1.62
MS.341         	15.85          	1.515
MS.342         	15.82          	1.562
MS.343         	15.785         	1.573
MS.344         	15.755         	1.504
MS.345         	15.725         	1.424
MS.346         	15.695         	1.497
MS.347         	15.66          	1.472
MS.348         	15.63          	1.47
MS.349         	15.6           	1.42
MS.350         	15.57          	1.5
MS.351         	15.535         	1.47
MS.352         	15.505         	1.426
MS.353         	15.475         	1.498
MS.354         	15.445         	1.468
MS.355         	15.415         	1.385
MS.356         	15.38          	1.424
MS.357         	15.35          	1.345
MS.358         	15.32          	1.334
MS.359         	15.29          	1.285
MS.360         	15.26          	1.367
MS.361         	15.23          	1.335
MS.362         	15.2           	1.249
MS.363         	15.17          	1.307
MS.364         	15.14          	1.313
MS.365         	15.11          	1.28
MS.366         	15.075         	1.252
MS.367         	15.045         	1.311
MS.368         	15.015         	1.352
MS.369         	14.985         	1.235
MS.370         	14.955         	1.163
MS.371         	14.925         	1.158
MS.372         	14.895         	1.154
MS.373         	14.87          	1.273
MS.374         	14.84          	1.16
MS.375         	14.81          	1.124
MS.376         	14.78          	1.16
MS.377         	14.75          	1.144
MS.378         	14.72          	1.097
MS.379         	14.69          	1.093
MS.380         	14.66          	1.101
MS.381         	14.63          	1.106
MS.382         	14.605         	1.039
MS.383         	14.575         	1.152
MS.384         	14.545         	1.039
MS.385         	14.515         	1.066
MS.386         	14.485         	1.088
MS.387         	14.455         	1.032
MS.388         	14.43          	1.052
MS.389         	14.4           	1.053
MS.390         	14.37          	1.003
MS.391         	14.34          	0.95
MS.392         	14.315         	0.942
MS.393         	14.285         	0.97
MS.394         	14.255         	0.958
MS.395         	14.23          	0.945
MS.396         	14.2           	0.911
MS.397         	14.17          	0.871
MS.398         	14.145         	0.949
MS.399         	14.115         	0.941
MS.400         	14.085         	0.878
MS.401         	14.06          	0.885
MS.402         	14.03          	0.883
MS.403         	14             	0.882
MS.404         	13.975         	0.828
MS.405         	13.945         	0.894
MS.406         	13.92          	0.85
MS.407         	13.89          	0.823
MS.408         	13.865         	0.807
MS.409         	13.835         	0.768
MS.410         	13.805         	0.813
MS.411         	13.78          	0.758
MS.412         	13.75          	0.765
MS.413         	13.725         	0.669
MS.414         	13.695         	0.725
MS.415         	13.67          	0.718
MS.416         	13.645         	0.677
MS.417         	13.615         	0.682
MS.418         	13.59          	0.698
MS.419         	13.56          	0.645
MS.420         	13.535         	0.701
MS.421         	13.505         	0.687
MS.422         	13.48          	0.699
MS.423         	13.455         	0.707
MS.424         	13.425         	0.612
MS.425         	13.4           	0.636
MS.426         	13.37          	0.614
MS.427         	13.345         	0.569
MS.428         	13.32          	0.646
MS.429         	13.29          	0.568
MS.430         	13.265         	0.581
MS.431         	13.24          	0.629
MS.432         	13.215         	0.602
MS.433         	13.185         	0.605
MS.434         	13.16          	0.559
MS.435         	13.135         	0.572
MS.436         	13.11          	0.528
MS.437         	13.08          	0.549
MS.438         	13.055         	0.534
MS.439         	13.03          	0.526
MS.440         	13.005         	0.557
MS.441         	12.975         	0.543
MS.442         	12.95          	0.521
MS.443         	12.925         	0.515
MS.444         	12.9           	0.543
MS.445         	12.875         	0.522
MS.446         	12.85          	0.52
MS.447         	12.82          	0.507
MS.448         	12.795         	0.5
MS.449         	12.77          	0.492
MS.450         	12.745         	0.492
MS.451         	12.72          	0.463
MS.452         	12.695         	0.48
MS.453         	12.67          	0.477
MS.454         	12.645         	0.464
MS.455         	12.62          	0.482
MS.456         	12.595         	0.483
MS.457         	12.57          	0.466
MS.458         	12.545         	0.431
MS.459         	12.52          	0.462
MS.460         	12.495         	0.457
MS.461         	12.47          	0.443
MS.462         	12.445         	0.438
MS.463         	12.42          	0.429
MS.464         	12.395         	0.432
MS.465         	12.37          	0.431
MS.466         	12.345         	0.443
MS.467         	12.32          	0.444
MS.468         	12.295         	0.424
MS.469         	12.27          	0.439
MS.470         	12.245         	0.399
MS.471         	12.22          	0.413
MS.472         	12.195         	0.41
MS.473         	12.175         	0.397
MS.474         	12.15          	0.41
MS.475         	12.125         	0.378
MS.476         	12.1           	0.42
MS.477         	12.075         	0.394
MS.478         	12.05          	0.403
MS.479         	12.025         	0.365
MS.480         	12.005         	0.38
MS.481         	11.98          	0.356
MS.482         	11.955         	0.367
MS.483         	11.93          	0.338
MS.484         	11.91          	0.353
MS.485         	11.885         	0.384
MS.486         	11.86          	0.353
MS.487         	11.835         	0.357
MS.488         	11.815         	0.355
MS.489         	11.79          	0.342
MS.490         	11.765         	0.352
MS.491         	11.74          	0.346
MS.492         	11.72          	0.33
MS.493         	11.695         	0.34
MS.494         	11.67          	0.316
MS.495         	11.65          	0.337
MS.496         	11.625         	0.312
MS.497         	11.6           	0.322
MS.498         	11.58          	0.315
MS.499         	11.555         	0.314
MS.500         	11.535         	0.316
MS.501         	11.51          	0.306
MS.502         	11.485         	0.318
MS.503         	11.465         	0.333
