File:              	C:\Qtrac\Data\CKMC01111I.QZD
Name:              	DK.COP.NC.9.1
Protocol:          	MSCAN-R2
Date:              	11/11/20
Start time:        	14:22:04
Age:               	73
Sex:               	F
Temperature:       	38.4
S/R sites:         	RMedian Wr-APB
NC/disease:        	NC
Operator:          	CK
Comments:          	CG Smax?
M-SCAN DATA (5.8-1.5m)
Scanpts: 87, 91, 451, 470
Stim. (mA)     	Amp. (mV)
MS.1           	13             	4.833
MS.2           	13             	4.858
MS.3           	13             	4.85
MS.4           	13             	4.845
MS.5           	13             	4.811
MS.6           	13             	4.689
MS.7           	13             	4.812
MS.8           	13             	4.829
MS.9           	13             	4.869
MS.10          	13             	4.733
MS.11          	13             	4.886
MS.12          	13             	4.89
MS.13          	13             	4.899
MS.14          	13             	4.861
MS.15          	13             	4.747
MS.16          	13             	4.851
MS.17          	13             	4.85
MS.18          	13             	4.872
MS.19          	13             	4.863
MS.20          	13             	4.744
MS.21          	13             	4.736
MS.22          	13             	4.89
MS.23          	13             	4.888
MS.24          	12.95          	4.862
MS.25          	12.92          	4.883
MS.26          	12.895         	4.855
MS.27          	12.87          	4.706
MS.28          	12.845         	4.867
MS.29          	12.82          	4.858
MS.30          	12.795         	4.737
MS.31          	12.77          	4.727
MS.32          	12.745         	4.866
MS.33          	12.715         	4.732
MS.34          	12.69          	4.879
MS.35          	12.665         	4.842
MS.36          	12.64          	4.698
MS.37          	12.615         	4.713
MS.38          	12.59          	4.728
MS.39          	12.565         	4.742
MS.40          	12.54          	4.73
MS.41          	12.515         	4.719
MS.42          	12.49          	4.697
MS.43          	12.465         	4.724
MS.44          	12.44          	4.722
MS.45          	12.415         	4.702
MS.46          	12.39          	4.714
MS.47          	12.365         	4.72
MS.48          	12.34          	4.729
MS.49          	12.315         	4.716
MS.50          	12.29          	4.698
MS.51          	12.265         	4.704
MS.52          	12.245         	4.707
MS.53          	12.22          	4.709
MS.54          	12.195         	4.695
MS.55          	12.17          	4.692
MS.56          	12.145         	4.689
MS.57          	12.12          	4.709
MS.58          	12.095         	4.729
MS.59          	12.075         	4.716
MS.60          	12.05          	4.731
MS.61          	12.025         	4.717
MS.62          	12             	4.733
MS.63          	11.975         	4.735
MS.64          	11.955         	4.722
MS.65          	11.93          	4.719
MS.66          	11.905         	4.705
MS.67          	11.88          	4.716
MS.68          	11.855         	4.706
MS.69          	11.835         	4.721
MS.70          	11.81          	4.703
MS.71          	11.785         	4.709
MS.72          	11.765         	4.713
MS.73          	11.74          	4.709
MS.74          	11.715         	4.698
MS.75          	11.69          	4.703
MS.76          	11.67          	4.785
MS.77          	11.645         	4.726
MS.78          	11.625         	4.725
MS.79          	11.6           	4.789
MS.80          	11.575         	4.718
MS.81          	11.555         	4.805
MS.82          	11.53          	4.725
MS.83          	11.505         	4.755
MS.84          	11.485         	4.802
MS.85          	11.46          	4.796
MS.86          	11.44          	4.795
MS.87          	11.415         	4.802
MS.88          	11.39          	4.809
MS.89          	11.37          	4.804
MS.90          	11.345         	4.81
MS.91          	11.325         	4.803
MS.92          	11.3           	4.816
MS.93          	11.28          	4.802
MS.94          	11.255         	4.807
MS.95          	11.235         	4.733
MS.96          	11.21          	4.739
MS.97          	11.19          	4.812
MS.98          	11.165         	4.792
MS.99          	11.145         	4.766
MS.100         	11.12          	4.766
MS.101         	11.1           	4.734
MS.102         	11.08          	4.763
MS.103         	11.055         	4.777
MS.104         	11.035         	4.809
MS.105         	11.01          	4.784
MS.106         	10.99          	4.747
MS.107         	10.97          	4.73
MS.108         	10.945         	4.778
MS.109         	10.925         	4.763
MS.110         	10.9           	4.762
MS.111         	10.88          	4.719
MS.112         	10.86          	4.75
MS.113         	10.835         	4.725
MS.114         	10.815         	4.719
MS.115         	10.795         	4.741
MS.116         	10.77          	4.73
MS.117         	10.75          	4.748
MS.118         	10.73          	4.728
MS.119         	10.71          	4.739
MS.120         	10.685         	4.73
MS.121         	10.665         	4.721
MS.122         	10.645         	4.726
MS.123         	10.62          	4.731
MS.124         	10.6           	4.705
MS.125         	10.58          	4.73
MS.126         	10.56          	4.708
MS.127         	10.54          	4.74
MS.128         	10.515         	4.736
MS.129         	10.495         	4.742
MS.130         	10.475         	4.719
MS.131         	10.455         	4.712
MS.132         	10.435         	4.705
MS.133         	10.41          	4.677
MS.134         	10.39          	4.679
MS.135         	10.37          	4.703
MS.136         	10.35          	4.692
MS.137         	10.33          	4.677
MS.138         	10.31          	4.667
MS.139         	10.29          	4.676
MS.140         	10.265         	4.669
MS.141         	10.245         	4.674
MS.142         	10.225         	4.667
MS.143         	10.205         	4.642
MS.144         	10.185         	4.668
MS.145         	10.165         	4.656
MS.146         	10.145         	4.672
MS.147         	10.125         	4.658
MS.148         	10.105         	4.678
MS.149         	10.085         	4.67
MS.150         	10.065         	4.667
MS.151         	10.045         	4.405
MS.152         	10.025         	4.647
MS.153         	10.005         	4.657
MS.154         	9.985          	4.653
MS.155         	9.965          	4.645
MS.156         	9.945          	4.39
MS.157         	9.925          	4.651
MS.158         	9.905          	4.669
MS.159         	9.885          	4.406
MS.160         	9.865          	4.394
MS.161         	9.845          	4.622
MS.162         	9.825          	4.387
MS.163         	9.805          	4.39
MS.164         	9.785          	4.368
MS.165         	9.765          	4.221
MS.166         	9.745          	4.376
MS.167         	9.725          	4.174
MS.168         	9.71           	4.247
MS.169         	9.69           	4.178
MS.170         	9.67           	4.2
MS.171         	9.65           	4.194
MS.172         	9.63           	4.119
MS.173         	9.61           	4.199
MS.174         	9.59           	4.131
MS.175         	9.575          	3.918
MS.176         	9.555          	4.104
MS.177         	9.535          	3.962
MS.178         	9.515          	4.121
MS.179         	9.495          	4.133
MS.180         	9.48           	3.9
MS.181         	9.46           	4.052
MS.182         	9.44           	3.776
MS.183         	9.42           	4.025
MS.184         	9.4            	3.942
MS.185         	9.385          	4.049
MS.186         	9.365          	3.849
MS.187         	9.345          	3.985
MS.188         	9.325          	3.809
MS.189         	9.31           	3.859
MS.190         	9.29           	3.698
MS.191         	9.27           	3.657
MS.192         	9.255          	3.715
MS.193         	9.235          	3.661
MS.194         	9.215          	3.693
MS.195         	9.2            	3.657
MS.196         	9.18           	3.564
MS.197         	9.16           	3.691
MS.198         	9.145          	3.563
MS.199         	9.125          	3.277
MS.200         	9.105          	3.381
MS.201         	9.09           	3.26
MS.202         	9.07           	3.588
MS.203         	9.05           	3.193
MS.204         	9.035          	3.504
MS.205         	9.015          	3.622
MS.206         	8.995          	3.325
MS.207         	8.98           	3.231
MS.208         	8.96           	3.199
MS.209         	8.945          	3.554
MS.210         	8.925          	3.182
MS.211         	8.91           	2.965
MS.212         	8.89           	3.184
MS.213         	8.87           	3.175
MS.214         	8.855          	2.972
MS.215         	8.835          	3.13
MS.216         	8.82           	3.134
MS.217         	8.8            	3.127
MS.218         	8.785          	3.102
MS.219         	8.765          	3.085
MS.220         	8.75           	3.069
MS.221         	8.73           	3.119
MS.222         	8.715          	2.943
MS.223         	8.695          	2.977
MS.224         	8.68           	2.902
MS.225         	8.66           	2.87
MS.226         	8.645          	2.703
MS.227         	8.625          	2.906
MS.228         	8.61           	2.625
MS.229         	8.595          	2.764
MS.230         	8.575          	2.646
MS.231         	8.56           	2.744
MS.232         	8.54           	2.685
MS.233         	8.525          	2.831
MS.234         	8.505          	2.753
MS.235         	8.49           	2.574
MS.236         	8.475          	2.622
MS.237         	8.455          	2.621
MS.238         	8.44           	2.531
MS.239         	8.425          	2.562
MS.240         	8.405          	2.411
MS.241         	8.39           	2.571
MS.242         	8.37           	2.382
MS.243         	8.355          	2.268
MS.244         	8.34           	2.302
MS.245         	8.32           	2.249
MS.246         	8.305          	2.231
MS.247         	8.29           	2.346
MS.248         	8.275          	2.272
MS.249         	8.255          	1.855
MS.250         	8.24           	1.83
MS.251         	8.225          	2.206
MS.252         	8.205          	1.697
MS.253         	8.19           	1.925
MS.254         	8.175          	2.021
MS.255         	8.16           	1.547
MS.256         	8.14           	1.577
MS.257         	8.125          	1.768
MS.258         	8.11           	1.635
MS.259         	8.095          	1.678
MS.260         	8.075          	1.761
MS.261         	8.06           	1.521
MS.262         	8.045          	1.57
MS.263         	8.03           	1.61
MS.264         	8.01           	1.519
MS.265         	7.995          	1.384
MS.266         	7.98           	1.396
MS.267         	7.965          	1.515
MS.268         	7.95           	1.545
MS.269         	7.93           	1.422
MS.270         	7.915          	1.361
MS.271         	7.9            	1.357
MS.272         	7.885          	1.32
MS.273         	7.87           	1.31
MS.274         	7.855          	1.334
MS.275         	7.84           	1.39
MS.276         	7.82           	1.315
MS.277         	7.805          	1.287
MS.278         	7.79           	1.282
MS.279         	7.775          	1.277
MS.280         	7.76           	1.282
MS.281         	7.745          	1.234
MS.282         	7.73           	1.22
MS.283         	7.715          	1.184
MS.284         	7.7            	1.225
MS.285         	7.685          	1.176
MS.286         	7.665          	1.208
MS.287         	7.65           	1.218
MS.288         	7.635          	1.173
MS.289         	7.62           	1.141
MS.290         	7.605          	1.193
MS.291         	7.59           	1.149
MS.292         	7.575          	1.157
MS.293         	7.56           	1.105
MS.294         	7.545          	1.092
MS.295         	7.53           	1.095
MS.296         	7.515          	1.149
MS.297         	7.5            	0.964
MS.298         	7.485          	1.138
MS.299         	7.47           	1.058
MS.300         	7.455          	1.015
MS.301         	7.44           	0.974
MS.302         	7.425          	1.023
MS.303         	7.41           	0.854
MS.304         	7.395          	1.05
MS.305         	7.38           	1.017
MS.306         	7.365          	1.054
MS.307         	7.35           	0.843
MS.308         	7.335          	0.8
MS.309         	7.32           	0.921
MS.310         	7.31           	0.831
MS.311         	7.295          	0.859
MS.312         	7.28           	0.774
MS.313         	7.265          	0.743
MS.314         	7.25           	0.637
MS.315         	7.235          	0.619
MS.316         	7.22           	0.743
MS.317         	7.205          	0.765
MS.318         	7.19           	0.605
MS.319         	7.175          	0.652
MS.320         	7.165          	0.639
MS.321         	7.15           	0.546
MS.322         	7.135          	0.538
MS.323         	7.12           	0.563
MS.324         	7.105          	0.478
MS.325         	7.09           	0.627
MS.326         	7.08           	0.427
MS.327         	7.065          	0.502
MS.328         	7.05           	0.501
MS.329         	7.035          	0.516
MS.330         	7.02           	0.355
MS.331         	7.005          	0.444
MS.332         	6.995          	0.424
MS.333         	6.98           	0.404
MS.334         	6.965          	0.391
MS.335         	6.95           	0.37
MS.336         	6.94           	0.462
MS.337         	6.925          	0.346
MS.338         	6.91           	0.323
MS.339         	6.895          	0.355
MS.340         	6.88           	0.325
MS.341         	6.87           	0.319
MS.342         	6.855          	0.344
MS.343         	6.84           	0.355
MS.344         	6.825          	0.329
MS.345         	6.815          	0.299
MS.346         	6.8            	0.26
MS.347         	6.785          	0.295
MS.348         	6.775          	0.325
MS.349         	6.76           	0.25
MS.350         	6.745          	0.315
MS.351         	6.73           	0.25
MS.352         	6.72           	0.24
MS.353         	6.705          	0.226
MS.354         	6.69           	0.27
MS.355         	6.68           	0.278
MS.356         	6.665          	0.261
MS.357         	6.65           	0.292
MS.358         	6.64           	0.255
MS.359         	6.625          	0.261
MS.360         	6.61           	0.199
MS.361         	6.6            	0.214
MS.362         	6.585          	0.227
MS.363         	6.575          	0.201
MS.364         	6.56           	0.181
MS.365         	6.545          	0.182
MS.366         	6.535          	0.188
MS.367         	6.52           	0.235
MS.368         	6.505          	0.191
MS.369         	6.495          	0.175
MS.370         	6.48           	0.212
MS.371         	6.47           	0.175
MS.372         	6.455          	0.149
MS.373         	6.445          	0.178
MS.374         	6.43           	0.127
MS.375         	6.415          	0.157
MS.376         	6.405          	0.15
MS.377         	6.39           	0.147
MS.378         	6.38           	0.136
MS.379         	6.365          	0.138
MS.380         	6.355          	0.167
MS.381         	6.34           	0.151
MS.382         	6.33           	0.131
MS.383         	6.315          	0.146
MS.384         	6.3            	0.126
MS.385         	6.29           	0.115
MS.386         	6.275          	0.179
MS.387         	6.265          	0.131
MS.388         	6.25           	0.065
MS.389         	6.24           	0.112
MS.390         	6.225          	0.103
MS.391         	6.215          	0.079
MS.392         	6.2            	0.059
MS.393         	6.19           	0.049
MS.394         	6.18           	0.092
MS.395         	6.165          	0.103
MS.396         	6.155          	0.065
MS.397         	6.14           	0.067
MS.398         	6.13           	0.01
MS.399         	6.115          	0.022
MS.400         	6.105          	0.011
MS.401         	6.09           	0.005
MS.402         	6.08           	0.022
MS.403         	6.065          	0.037
MS.404         	6.055          	0.013
MS.405         	6.045          	0.012
MS.406         	6.03           	0.011
MS.407         	6.02           	0.07
MS.408         	6.005          	0.005
MS.409         	5.995          	0.000
MS.410         	5.985          	0.012
MS.411         	5.97           	0.009
MS.412         	5.96           	-0.001
MS.413         	5.945          	0.013
MS.414         	5.935          	0.001
MS.415         	5.925          	0.002
MS.416         	5.91           	-0.003
MS.417         	5.9            	0.000
MS.418         	5.89           	0.007
MS.419         	5.875          	-0.003
MS.420         	5.865          	-0.002
MS.421         	5.855          	0.01
MS.422         	5.84           	-0.002
MS.423         	5.83           	-0.002
MS.424         	5.82           	-0.007
MS.425         	5.805          	-0.005
MS.426         	5.795          	-0.004
MS.427         	5.785          	-0.004
MS.428         	5.77           	0.002
MS.429         	5.76           	-0.002
MS.430         	5.75           	-0.001
MS.431         	5.735          	-0.006
MS.432         	5.725          	-0.008
MS.433         	5.715          	-0.008
MS.434         	5.705          	-0.006
MS.435         	5.69           	-0.006
MS.436         	5.68           	-0.002
MS.437         	5.67           	-0.006
MS.438         	5.655          	-0.009
MS.439         	5.645          	-0.004
MS.440         	5.635          	-0.01
MS.441         	5.625          	-0.007
MS.442         	5.61           	-0.008
MS.443         	5.6            	-0.007
MS.444         	5.59           	-0.005
MS.445         	5.58           	-0.009
MS.446         	5.565          	-0.007
MS.447         	5.555          	-0.01
MS.448         	5.545          	-0.01
MS.449         	5.535          	-0.011
MS.450         	5.525          	-0.008
MS.451         	5.51           	-0.01
MS.452         	5.5            	-0.008
MS.453         	5.49           	-0.011
MS.454         	5.48           	-0.01
MS.455         	5.47           	-0.009
MS.456         	5.455          	-0.007
MS.457         	5.445          	-0.01
MS.458         	5.435          	-0.01
MS.459         	5.425          	-0.009
MS.460         	5.415          	-0.007
MS.461         	5.405          	-0.006
MS.462         	5.39           	-0.009
MS.463         	5.38           	-0.009
MS.464         	5.37           	-0.007
MS.465         	5.36           	-0.007
MS.466         	5.35           	-0.009
MS.467         	5.34           	-0.008
MS.468         	5.33           	-0.006
MS.469         	5.315          	-0.01
MS.470         	5.305          	-0.012
DERIVED EXCITABILITY VARIABLES
Program = QTracP 20/9/2019
Threshold method = 6 (optimised for CAP, using data for present condition only)
SR method = 1 (using actual data values)
6.                 	0.000               	Peak response\(mV)
9.                 	38.4                	Temperature ( C)
17.                	73                  	Age (years)
18.                	2                   	Sex (M=1, F=2)

EXTRA VARIABLES

MScPeak(mV) = 4.84
MScS5(mA) = 6.68
MScS50(mA) = 8.39
MScS95(mA) = 9.94
MScNSteps = 3
MScSteps(%) = 9.4
MScStepMax(%) = 4.5
MScD50 = 37
MSFPeakAmp(mV) = 4.81
MSFNUnits = 101
MSFMeanUnitAmp(uV) = 47.7
MSFHuntTime(m) = 1.76
MSFError(%) = 2.54
MSFNLarge = 23.44
MSFMedianAmp(%) = 0.72
MSFMedianAmp(mV) = 0.0346
MSFHalfAmpAmp(%) = 1.27
MSFHalfAmpAmp(mV) = 0.0613
MSFLargestAmp(%) = 4.93
MSFLargestAmp(mV) = 0.237
MSFMeanRS(%) = 1.97
MSFOpts = 10106121
Height = 165
MScDuration(min) = 4.3
MSFTraces = 384
MSFSizeLimit(uV) = 12
MSFLimitType = 1
MSFSmallestAmp(uV) = 12.4

EXTRA WAVEFORMS


!MScan Model
!101
	1	6.06	0.71	2
	2	6.13	0.4	2
	3	6.16	0.3	2
	4	6.19	0.38	2
	5	6.24	0.56	2
	6	6.31	0.58	2
	7	6.37	0.31	2
	8	6.43	0.34	2
	9	6.49	0.36	2
