File:              	C:\Qtrac\Data\Daniel M Sørensen\MScan multicentre study\Data from centres\Newcastle\Processed data\SMC00303C.QZD
Name:              	UK.NEW.NC.6.2
Protocol:          	MSCAN-R2
Date:              	3/3/20
Start time:        	13:02:29
Age:               	54
Sex:               	F
Temperature:       	30.8
S/R sites:         	TA
NC/disease:        	NC
Operator:          	SM
Comments:
M-SCAN DATA (6.8-1.7m)
Scanpts: 35, 49, 539, 561
Stim. (mA)     	Amp. (mV)
MS.1           	32             	6.713
MS.2           	32             	6.719
MS.3           	32             	6.723
MS.4           	32             	6.681
MS.5           	32             	6.641
MS.6           	32             	6.61
MS.7           	32             	6.627
MS.8           	32             	6.629
MS.9           	32             	6.598
MS.10          	32             	6.606
MS.11          	32             	6.604
MS.12          	32             	6.649
MS.13          	32             	6.649
MS.14          	32             	6.627
MS.15          	32             	6.621
MS.16          	32             	6.629
MS.17          	32             	6.6
MS.18          	32             	6.625
MS.19          	32             	6.629
MS.20          	32             	6.641
MS.21          	32             	6.645
MS.22          	32             	6.665
MS.23          	32             	6.659
MS.24          	31.872         	6.633
MS.25          	31.807         	6.588
MS.26          	31.745         	6.645
MS.27          	31.682         	6.631
MS.28          	31.617         	6.647
MS.29          	31.555         	6.651
MS.30          	31.492         	6.61
MS.31          	31.43          	6.643
MS.32          	31.365         	6.647
MS.33          	31.302         	6.619
MS.34          	31.24          	6.621
MS.35          	31.177         	6.637
MS.36          	31.117         	6.653
MS.37          	31.055         	6.631
MS.38          	30.992         	6.637
MS.39          	30.93          	6.615
MS.40          	30.867         	6.612
MS.41          	30.807         	6.615
MS.42          	30.745         	6.637
MS.43          	30.682         	6.643
MS.44          	30.622         	6.625
MS.45          	30.56          	6.584
MS.46          	30.5           	6.645
MS.47          	30.44          	6.615
MS.48          	30.377         	6.639
MS.49          	30.317         	6.629
MS.50          	30.257         	6.649
MS.51          	30.198         	6.6
MS.52          	30.137         	6.606
MS.53          	30.075         	6.588
MS.54          	30.015         	6.606
MS.55          	29.955         	6.649
MS.56          	29.895         	6.582
MS.57          	29.837         	6.657
MS.58          	29.778         	6.612
MS.59          	29.717         	6.617
MS.60          	29.657         	6.635
MS.61          	29.597         	6.604
MS.62          	29.54          	6.612
MS.63          	29.48          	6.604
MS.64          	29.422         	6.617
MS.65          	29.362         	6.606
MS.66          	29.305         	6.61
MS.67          	29.245         	6.6
MS.68          	29.188         	6.621
MS.69          	29.13          	6.619
MS.70          	29.07          	6.645
MS.71          	29.012         	6.627
MS.72          	28.955         	6.61
MS.73          	28.897         	6.612
MS.74          	28.84          	6.586
MS.75          	28.782         	6.586
MS.76          	28.725         	6.619
MS.77          	28.667         	6.6
MS.78          	28.61          	6.621
MS.79          	28.552         	6.631
MS.80          	28.495         	6.619
MS.81          	28.438         	6.594
MS.82          	28.382         	6.57
MS.83          	28.325         	6.498
MS.84          	28.267         	6.54
MS.85          	28.212         	6.52
MS.86          	28.155         	6.534
MS.87          	28.1           	6.504
MS.88          	28.042         	6.522
MS.89          	27.987         	6.524
MS.90          	27.93          	6.518
MS.91          	27.875         	6.377
MS.92          	27.82          	6.377
MS.93          	27.765         	6.405
MS.94          	27.707         	6.439
MS.95          	27.653         	6.411
MS.96          	27.597         	6.363
MS.97          	27.542         	6.389
MS.98          	27.487         	6.26
MS.99          	27.432         	6.282
MS.100         	27.377         	6.177
MS.101         	27.323         	6.163
MS.102         	27.267         	6.258
MS.103         	27.215         	6.153
MS.104         	27.16          	6.22
MS.105         	27.105         	6.228
MS.106         	27.05          	6.095
MS.107         	26.997         	6.254
MS.108         	26.942         	5.789
MS.109         	26.89          	6.051
MS.110         	26.835         	6.129
MS.111         	26.782         	6.127
MS.112         	26.727         	6.026
MS.113         	26.675         	6.109
MS.114         	26.622         	5.962
MS.115         	26.567         	5.996
MS.116         	26.515         	5.998
MS.117         	26.462         	5.93
MS.118         	26.41          	5.863
MS.119         	26.358         	5.924
MS.120         	26.305         	5.615
MS.121         	26.252         	5.501
MS.122         	26.2           	5.795
MS.123         	26.147         	5.686
MS.124         	26.095         	5.658
MS.125         	26.042         	5.611
MS.126         	25.99          	5.617
MS.127         	25.938         	5.742
MS.128         	25.887         	5.789
MS.129         	25.835         	5.64
MS.130         	25.782         	5.531
MS.131         	25.733         	5.728
MS.132         	25.68          	5.485
MS.133         	25.63          	5.511
MS.134         	25.577         	5.589
MS.135         	25.528         	4.961
MS.136         	25.475         	5.555
MS.137         	25.425         	5.462
MS.138         	25.375         	5.479
MS.139         	25.323         	5.517
MS.140         	25.272         	5.384
MS.141         	25.222         	5.404
MS.142         	25.172         	5.44
MS.143         	25.122         	5.352
MS.144         	25.073         	5.327
MS.145         	25.022         	4.961
MS.146         	24.972         	5.36
MS.147         	24.922         	5.323
MS.148         	24.872         	5.251
MS.149         	24.823         	5.253
MS.150         	24.772         	5.118
MS.151         	24.722         	4.649
MS.152         	24.672         	5.249
MS.153         	24.625         	5.134
MS.154         	24.575         	5.13
MS.155         	24.525         	5.064
MS.156         	24.477         	4.945
MS.157         	24.427         	5.045
MS.158         	24.38          	4.985
MS.159         	24.33          	5.074
MS.160         	24.282         	5.118
MS.161         	24.233         	5.092
MS.162         	24.185         	4.971
MS.163         	24.137         	4.884
MS.164         	24.087         	5.007
MS.165         	24.04          	4.842
MS.166         	23.993         	4.858
MS.167         	23.945         	4.82
MS.168         	23.897         	4.84
MS.169         	23.85          	4.763
MS.170         	23.8           	4.675
MS.171         	23.752         	4.723
MS.172         	23.705         	4.749
MS.173         	23.657         	4.659
MS.174         	23.612         	4.6
MS.175         	23.565         	4.643
MS.176         	23.517         	4.661
MS.177         	23.47          	4.612
MS.178         	23.422         	4.647
MS.179         	23.377         	4.616
MS.180         	23.33          	4.58
MS.181         	23.282         	4.655
MS.182         	23.237         	4.592
MS.183         	23.19          	4.55
MS.184         	23.145         	4.417
MS.185         	23.097         	4.465
MS.186         	23.052         	4.371
MS.187         	23.005         	4.345
MS.188         	22.96          	4.367
MS.189         	22.913         	4.328
MS.190         	22.868         	4.212
MS.191         	22.823         	4.332
MS.192         	22.778         	4.328
MS.193         	22.73          	4.276
MS.194         	22.685         	4.212
MS.195         	22.64          	4.167
MS.196         	22.595         	4.187
MS.197         	22.55          	4.258
MS.198         	22.505         	4.103
MS.199         	22.46          	4.191
MS.200         	22.415         	4.115
MS.201         	22.37          	4.097
MS.202         	22.325         	4.097
MS.203         	22.28          	4.034
MS.204         	22.237         	4.026
MS.205         	22.192         	4.022
MS.206         	22.147         	3.968
MS.207         	22.102         	3.954
MS.208         	22.06          	3.924
MS.209         	22.015         	3.809
MS.210         	21.97          	3.787
MS.211         	21.927         	3.847
MS.212         	21.882         	3.817
MS.213         	21.84          	3.841
MS.214         	21.795         	3.758
MS.215         	21.752         	3.686
MS.216         	21.71          	3.722
MS.217         	21.665         	3.571
MS.218         	21.622         	3.519
MS.219         	21.58          	3.531
MS.220         	21.535         	3.426
MS.221         	21.493         	3.466
MS.222         	21.45          	3.527
MS.223         	21.407         	3.565
MS.224         	21.365         	3.517
MS.225         	21.323         	3.444
MS.226         	21.28          	3.339
MS.227         	21.237         	3.398
MS.228         	21.195         	3.219
MS.229         	21.153         	3.333
MS.230         	21.11          	3.209
MS.231         	21.067         	3.098
MS.232         	21.025         	3.041
MS.233         	20.983         	3.037
MS.234         	20.942         	3.188
MS.235         	20.9           	3.09
MS.236         	20.858         	3.053
MS.237         	20.815         	3.005
MS.238         	20.775         	2.888
MS.239         	20.733         	2.878
MS.240         	20.692         	2.842
MS.241         	20.65          	2.755
MS.242         	20.61          	2.733
MS.243         	20.567         	2.874
MS.244         	20.528         	2.739
MS.245         	20.485         	2.675
MS.246         	20.445         	2.721
MS.247         	20.405         	2.616
MS.248         	20.362         	2.637
MS.249         	20.323         	2.526
MS.250         	20.282         	2.544
MS.251         	20.243         	2.518
MS.252         	20.2           	2.536
MS.253         	20.16          	2.457
MS.254         	20.12          	2.389
MS.255         	20.08          	2.312
MS.256         	20.04          	2.401
MS.257         	20             	2.379
MS.258         	19.96          	2.401
MS.259         	19.92          	2.413
MS.260         	19.88          	2.304
MS.261         	19.84          	2.306
MS.262         	19.8           	2.244
MS.263         	19.762         	2.292
MS.264         	19.722         	2.268
MS.265         	19.682         	2.139
MS.266         	19.642         	2.081
MS.267         	19.605         	2.181
MS.268         	19.565         	2.067
MS.269         	19.525         	2.05
MS.270         	19.487         	1.982
MS.271         	19.448         	1.978
MS.272         	19.41          	2.058
MS.273         	19.37          	1.952
MS.274         	19.333         	1.877
MS.275         	19.292         	1.897
MS.276         	19.255         	1.885
MS.277         	19.215         	1.857
MS.278         	19.177         	1.865
MS.279         	19.14          	1.803
MS.280         	19.1           	1.817
MS.281         	19.062         	1.716
MS.282         	19.025         	1.696
MS.283         	18.987         	1.545
MS.284         	18.948         	1.724
MS.285         	18.91          	1.66
MS.286         	18.872         	1.702
MS.287         	18.835         	1.601
MS.288         	18.797         	1.625
MS.289         	18.76          	1.46
MS.290         	18.722         	1.589
MS.291         	18.685         	1.488
MS.292         	18.647         	1.543
MS.293         	18.61          	1.503
MS.294         	18.573         	1.511
MS.295         	18.538         	1.388
MS.296         	18.5           	1.426
MS.297         	18.462         	1.362
MS.298         	18.425         	1.358
MS.299         	18.387         	1.38
MS.300         	18.352         	1.335
MS.301         	18.315         	1.239
MS.302         	18.278         	1.347
MS.303         	18.243         	1.243
MS.304         	18.205         	1.253
MS.305         	18.17          	1.253
MS.306         	18.132         	1.247
MS.307         	18.097         	1.2
MS.308         	18.06          	1.225
MS.309         	18.025         	1.19
MS.310         	17.987         	1.166
MS.311         	17.952         	1.184
MS.312         	17.917         	1.168
MS.313         	17.88          	1.112
MS.314         	17.845         	1.106
MS.315         	17.81          	1.134
MS.316         	17.775         	1.068
MS.317         	17.737         	0.999
MS.318         	17.702         	1.011
MS.319         	17.667         	1.003
MS.320         	17.632         	0.999
MS.321         	17.597         	1.033
MS.322         	17.562         	0.985
MS.323         	17.528         	0.949
MS.324         	17.493         	0.953
MS.325         	17.458         	0.892
MS.326         	17.422         	0.963
MS.327         	17.387         	0.86
MS.328         	17.352         	0.906
MS.329         	17.317         	0.88
MS.330         	17.282         	0.792
MS.331         	17.247         	0.862
MS.332         	17.215         	0.822
MS.333         	17.18          	0.784
MS.334         	17.145         	0.806
MS.335         	17.11          	0.743
MS.336         	17.077         	0.779
MS.337         	17.042         	0.765
MS.338         	17.01          	0.796
MS.339         	16.975         	0.745
MS.340         	16.94          	0.707
MS.341         	16.907         	0.612
MS.342         	16.872         	0.657
MS.343         	16.84          	0.673
MS.344         	16.805         	0.622
MS.345         	16.772         	0.61
MS.346         	16.74          	0.606
MS.347         	16.705         	0.63
MS.348         	16.672         	0.576
MS.349         	16.637         	0.592
MS.350         	16.605         	0.55
MS.351         	16.573         	0.556
MS.352         	16.54          	0.55
MS.353         	16.505         	0.558
MS.354         	16.472         	0.516
MS.355         	16.44          	0.588
MS.356         	16.407         	0.562
MS.357         	16.375         	0.514
MS.358         	16.342         	0.52
MS.359         	16.31          	0.487
MS.360         	16.278         	0.5
MS.361         	16.245         	0.443
MS.362         	16.212         	0.435
MS.363         	16.18          	0.453
MS.364         	16.147         	0.451
MS.365         	16.115         	0.419
MS.366         	16.083         	0.421
MS.367         	16.05          	0.409
MS.368         	16.017         	0.369
MS.369         	15.987         	0.395
MS.370         	15.955         	0.389
MS.371         	15.922         	0.363
MS.372         	15.89          	0.407
MS.373         	15.86          	0.363
MS.374         	15.827         	0.35
MS.375         	15.795         	0.375
MS.376         	15.765         	0.35
MS.377         	15.733         	0.385
MS.378         	15.7           	0.316
MS.379         	15.67          	0.334
MS.380         	15.637         	0.328
MS.381         	15.608         	0.328
MS.382         	15.575         	0.33
MS.383         	15.545         	0.29
MS.384         	15.515         	0.31
MS.385         	15.483         	0.31
MS.386         	15.452         	0.308
MS.387         	15.42          	0.264
MS.388         	15.39          	0.246
MS.389         	15.36          	0.27
MS.390         	15.33          	0.294
MS.391         	15.297         	0.274
MS.392         	15.267         	0.23
MS.393         	15.237         	0.232
MS.394         	15.207         	0.234
MS.395         	15.177         	0.262
MS.396         	15.145         	0.228
MS.397         	15.115         	0.256
MS.398         	15.085         	0.211
MS.399         	15.055         	0.207
MS.400         	15.025         	0.209
MS.401         	14.995         	0.201
MS.402         	14.965         	0.216
MS.403         	14.935         	0.193
MS.404         	14.905         	0.209
MS.405         	14.875         	0.216
MS.406         	14.845         	0.195
MS.407         	14.818         	0.175
MS.408         	14.787         	0.177
MS.409         	14.757         	0.185
MS.410         	14.727         	0.199
MS.411         	14.697         	0.179
MS.412         	14.67          	0.155
MS.413         	14.64          	0.195
MS.414         	14.61          	0.165
MS.415         	14.58          	0.169
MS.416         	14.552         	0.171
MS.417         	14.523         	0.151
MS.418         	14.495         	0.155
MS.419         	14.465         	0.153
MS.420         	14.435         	0.151
MS.421         	14.407         	0.151
MS.422         	14.377         	0.151
MS.423         	14.35          	0.161
MS.424         	14.32          	0.155
MS.425         	14.292         	0.151
MS.426         	14.265         	0.147
MS.427         	14.235         	0.155
MS.428         	14.207         	0.145
MS.429         	14.177         	0.151
MS.430         	14.15          	0.143
MS.431         	14.122         	0.137
MS.432         	14.095         	0.157
MS.433         	14.065         	0.149
MS.434         	14.037         	0.129
MS.435         	14.01          	0.135
MS.436         	13.983         	0.137
MS.437         	13.952         	0.151
MS.438         	13.925         	0.129
MS.439         	13.898         	0.141
MS.440         	13.87          	0.125
MS.441         	13.842         	0.135
MS.442         	13.815         	0.139
MS.443         	13.787         	0.129
MS.444         	13.76          	0.113
MS.445         	13.733         	0.115
MS.446         	13.705         	0.141
MS.447         	13.677         	0.121
MS.448         	13.65          	0.103
MS.449         	13.622         	0.095
MS.450         	13.595         	0.117
MS.451         	13.568         	0.121
MS.452         	13.54          	0.095
MS.453         	13.515         	0.093
MS.454         	13.487         	0.113
MS.455         	13.46          	0.107
MS.456         	13.432         	0.099
MS.457         	13.407         	0.099
MS.458         	13.38          	0.085
MS.459         	13.352         	0.099
MS.460         	13.325         	0.093
MS.461         	13.3           	0.089
MS.462         	13.273         	0.083
MS.463         	13.247         	0.087
MS.464         	13.22          	0.099
MS.465         	13.193         	0.085
MS.466         	13.167         	0.083
MS.467         	13.14          	0.087
MS.468         	13.115         	0.091
MS.469         	13.087         	0.081
MS.470         	13.062         	0.097
MS.471         	13.035         	0.097
MS.472         	13.01          	0.07
MS.473         	12.985         	0.091
MS.474         	12.957         	0.077
MS.475         	12.932         	0.099
MS.476         	12.907         	0.091
MS.477         	12.88          	0.075
MS.478         	12.855         	0.06
MS.479         	12.83          	0.054
MS.480         	12.802         	0.062
MS.481         	12.778         	0.056
MS.482         	12.752         	0.06
MS.483         	12.727         	0.089
MS.484         	12.702         	0.054
MS.485         	12.677         	0.056
MS.486         	12.65          	0.058
MS.487         	12.625         	0.06
MS.488         	12.6           	0.05
MS.489         	12.575         	0.06
MS.490         	12.55          	0.05
MS.491         	12.525         	0.052
MS.492         	12.5           	0.052
MS.493         	12.475         	0.054
MS.494         	12.45          	0.058
MS.495         	12.425         	0.064
MS.496         	12.4           	0.052
MS.497         	12.375         	0.05
MS.498         	12.35          	0.048
MS.499         	12.327         	0.05
MS.500         	12.302         	0.046
MS.501         	12.278         	0.046
