File:              	C:\Qtrac\Data\Daniel M Sørensen\MScan multicentre study\Data from centres\Newcastle\Processed data\SMC00226A.QZD
Name:              	UK.NEW.NC.4.2
Protocol:          	MSCAN-R2
Date:              	26/2/20
Start time:        	09:35:32
Age:               	49
Sex:               	M
Temperature:       	33.7
S/R sites:         	APB
NC/disease:        	NC
Operator:          	SM
Comments:
M-SCAN DATA (6-1.8m)
Scanpts: 88, 101, 380, 397
Stim. (mA)     	Amp. (mV)
MS.1           	13             	10.476
MS.2           	13             	10.488
MS.3           	13             	10.488
MS.4           	13             	10.458
MS.5           	13             	10.407
MS.6           	13             	10.443
MS.7           	13             	10.433
MS.8           	13             	10.451
MS.9           	13             	10.453
MS.10          	13             	10.453
MS.11          	13             	10.419
MS.12          	13             	10.456
MS.13          	13             	10.419
MS.14          	13             	10.466
MS.15          	13             	10.447
MS.16          	13             	10.472
MS.17          	13             	10.492
MS.18          	13             	10.46
MS.19          	13             	10.498
MS.20          	13             	10.478
MS.21          	13             	10.474
MS.22          	13             	10.456
MS.23          	13             	10.5
MS.24          	12.947         	10.496
MS.25          	12.922         	10.496
MS.26          	12.898         	10.496
MS.27          	12.87          	10.484
MS.28          	12.845         	10.458
MS.29          	12.82          	10.482
MS.30          	12.792         	10.486
MS.31          	12.767         	10.484
MS.32          	12.742         	10.488
MS.33          	12.717         	10.482
MS.34          	12.693         	10.494
MS.35          	12.667         	10.508
MS.36          	12.64          	10.486
MS.37          	12.615         	10.488
MS.38          	12.59          	10.526
MS.39          	12.565         	10.496
MS.40          	12.54          	10.486
MS.41          	12.515         	10.484
MS.42          	12.49          	10.516
MS.43          	12.465         	10.526
MS.44          	12.44          	10.512
MS.45          	12.415         	10.534
MS.46          	12.39          	10.544
MS.47          	12.365         	10.546
MS.48          	12.34          	10.516
MS.49          	12.318         	10.56
MS.50          	12.292         	10.52
MS.51          	12.267         	10.528
MS.52          	12.242         	10.512
MS.53          	12.217         	10.536
MS.54          	12.195         	10.506
MS.55          	12.17          	10.486
MS.56          	12.145         	10.522
MS.57          	12.12          	10.54
MS.58          	12.097         	10.51
MS.59          	12.072         	10.518
MS.60          	12.047         	10.506
MS.61          	12.025         	10.51
MS.62          	12             	10.504
MS.63          	11.977         	10.514
MS.64          	11.952         	10.53
MS.65          	11.927         	10.5
MS.66          	11.905         	10.534
MS.67          	11.88          	10.516
MS.68          	11.858         	10.512
MS.69          	11.832         	10.5
MS.70          	11.81          	10.51
MS.71          	11.787         	10.51
MS.72          	11.762         	10.556
MS.73          	11.74          	10.534
MS.74          	11.715         	10.52
MS.75          	11.693         	10.522
MS.76          	11.67          	10.554
MS.77          	11.645         	10.524
MS.78          	11.622         	10.53
MS.79          	11.6           	10.508
MS.80          	11.575         	10.528
MS.81          	11.552         	10.518
MS.82          	11.53          	10.526
MS.83          	11.507         	10.514
MS.84          	11.485         	10.546
MS.85          	11.46          	10.576
MS.86          	11.438         	10.554
MS.87          	11.415         	10.56
MS.88          	11.392         	10.568
MS.89          	11.37          	10.55
MS.90          	11.347         	10.574
MS.91          	11.325         	10.564
MS.92          	11.302         	10.574
MS.93          	11.28          	10.566
MS.94          	11.257         	10.56
MS.95          	11.235         	10.554
MS.96          	11.212         	10.536
MS.97          	11.19          	10.55
MS.98          	11.167         	10.564
MS.99          	11.145         	10.54
MS.100         	11.122         	10.546
MS.101         	11.1           	10.558
MS.102         	11.077         	10.566
MS.103         	11.055         	10.562
MS.104         	11.032         	10.552
MS.105         	11.012         	10.562
MS.106         	10.99          	10.556
MS.107         	10.967         	10.536
MS.108         	10.945         	10.566
MS.109         	10.925         	10.57
MS.110         	10.903         	10.572
MS.111         	10.88          	10.58
MS.112         	10.858         	10.47
MS.113         	10.837         	10.566
MS.114         	10.815         	10.576
MS.115         	10.792         	10.594
MS.116         	10.773         	10.596
MS.117         	10.75          	10.296
MS.118         	10.73          	10.548
MS.119         	10.707         	10.016
MS.120         	10.685         	10.031
MS.121         	10.665         	10.308
MS.122         	10.642         	10.601
MS.123         	10.622         	10.29
MS.124         	10.6           	10.006
MS.125         	10.58          	10.204
MS.126         	10.557         	10.014
MS.127         	10.537         	10.31
MS.128         	10.517         	9.972
MS.129         	10.495         	9.986
MS.130         	10.475         	10.051
MS.131         	10.452         	9.9
MS.132         	10.432         	10.226
MS.133         	10.412         	10.045
MS.134         	10.39          	10.063
MS.135         	10.37          	9.894
MS.136         	10.35          	9.958
MS.137         	10.33          	9.904
MS.138         	10.307         	9.906
MS.139         	10.287         	9.912
MS.140         	10.267         	9.912
MS.141         	10.247         	9.966
MS.142         	10.225         	9.988
MS.143         	10.205         	10.031
MS.144         	10.185         	9.912
MS.145         	10.165         	9.91
MS.146         	10.145         	9.908
MS.147         	10.125         	9.916
MS.148         	10.105         	9.914
MS.149         	10.085         	9.998
MS.150         	10.065         	9.954
MS.151         	10.042         	9.952
MS.152         	10.023         	9.936
MS.153         	10.002         	9.694
MS.154         	9.983          	9.656
MS.155         	9.962          	9.825
MS.156         	9.945          	9.682
MS.157         	9.925          	9.74
MS.158         	9.905          	9.614
MS.159         	9.885          	9.624
MS.160         	9.865          	9.89
MS.161         	9.845          	9.718
MS.162         	9.825          	9.72
MS.163         	9.805          	9.593
MS.164         	9.785          	9.523
MS.165         	9.767          	9.694
MS.166         	9.747          	9.179
MS.167         	9.727          	9.571
MS.168         	9.707          	9.539
MS.169         	9.688          	9.352
MS.170         	9.67           	9.68
MS.171         	9.65           	9.281
MS.172         	9.63           	9.553
MS.173         	9.613          	9.467
MS.174         	9.592          	9.211
MS.175         	9.573          	9.579
MS.176         	9.555          	9.394
MS.177         	9.535          	9.418
MS.178         	9.515          	9.076
MS.179         	9.497          	9.211
MS.180         	9.477          	9.195
MS.181         	9.46           	9.142
MS.182         	9.44           	9.315
MS.183         	9.42           	9.084
MS.184         	9.403          	9.138
MS.185         	9.382          	9.287
MS.186         	9.365          	8.735
MS.187         	9.345          	8.699
MS.188         	9.327          	8.566
MS.189         	9.307          	8.526
MS.190         	9.29           	8.461
MS.191         	9.273          	7.571
MS.192         	9.252          	7.557
MS.193         	9.235          	7.807
MS.194         	9.215          	8.075
MS.195         	9.198          	8.248
MS.196         	9.18           	8.921
MS.197         	9.16           	8.024
MS.198         	9.142          	7.875
MS.199         	9.125          	7.281
MS.200         	9.105          	7.803
MS.201         	9.087          	8.234
MS.202         	9.07           	7.454
MS.203         	9.052          	8.369
MS.204         	9.033          	7.479
MS.205         	9.015          	7.104
MS.206         	8.997          	7.646
MS.207         	8.98           	7.563
MS.208         	8.962          	7.023
MS.209         	8.943          	7.726
MS.210         	8.925          	7.839
MS.211         	8.908          	7.225
MS.212         	8.89           	6.995
MS.213         	8.872          	6.842
MS.214         	8.855          	6.79
MS.215         	8.837          	6.641
MS.216         	8.82           	6.776
MS.217         	8.802          	6.522
MS.218         	8.785          	6.548
MS.219         	8.767          	6.445
MS.220         	8.75           	6.512
MS.221         	8.733          	6.425
MS.222         	8.715          	6.355
MS.223         	8.698          	6.075
MS.224         	8.68           	5.63
MS.225         	8.662          	6.055
MS.226         	8.645          	5.767
MS.227         	8.627          	5.825
MS.228         	8.61           	5.73
MS.229         	8.592          	5.795
MS.230         	8.575          	5.331
MS.231         	8.557          	5.333
MS.232         	8.542          	5.849
MS.233         	8.525          	4.475
MS.234         	8.507          	4.58
MS.235         	8.49           	4.983
MS.236         	8.472          	4.929
MS.237         	8.457          	4.761
MS.238         	8.44           	4.832
MS.239         	8.422          	4.584
MS.240         	8.405          	4.461
MS.241         	8.39           	4.562
MS.242         	8.372          	4.465
MS.243         	8.355          	4.51
MS.244         	8.34           	4.693
MS.245         	8.323          	4.264
MS.246         	8.305          	4.26
MS.247         	8.29           	4.274
MS.248         	8.273          	4.214
MS.249         	8.255          	4.077
MS.250         	8.24           	3.889
MS.251         	8.222          	4.026
MS.252         	8.207          	3.849
MS.253         	8.19           	3.843
MS.254         	8.175          	3.819
MS.255         	8.158          	3.825
MS.256         	8.142          	3.567
MS.257         	8.125          	3.668
MS.258         	8.11           	3.656
MS.259         	8.092          	3.348
MS.260         	8.077          	3.619
MS.261         	8.06           	3.658
MS.262         	8.045          	3.062
MS.263         	8.028          	3.648
MS.264         	8.012          	3.331
MS.265         	7.995          	3.426
MS.266         	7.98           	3.36
MS.267         	7.965          	3.158
MS.268         	7.947          	3.241
MS.269         	7.932          	3.09
MS.270         	7.918          	3.007
MS.271         	7.9            	3.396
MS.272         	7.885          	3.078
MS.273         	7.87           	2.868
MS.274         	7.852          	2.973
MS.275         	7.837          	2.957
MS.276         	7.822          	2.89
MS.277         	7.807          	2.908
MS.278         	7.79           	2.834
MS.279         	7.775          	2.423
MS.280         	7.76           	2.655
MS.281         	7.745          	2.733
MS.282         	7.727          	2.27
MS.283         	7.712          	2.9
MS.284         	7.697          	2.86
MS.285         	7.682          	2.548
MS.286         	7.668          	2.282
MS.287         	7.652          	2.274
MS.288         	7.637          	2.751
MS.289         	7.622          	2.294
MS.290         	7.605          	2.099
MS.291         	7.59           	2.171
MS.292         	7.575          	2.193
MS.293         	7.56           	2.012
MS.294         	7.545          	1.825
MS.295         	7.53           	1.597
MS.296         	7.515          	1.307
MS.297         	7.5            	1.245
MS.298         	7.485          	1.297
MS.299         	7.47           	1.12
MS.300         	7.455          	1.291
MS.301         	7.44           	1.37
MS.302         	7.425          	1.259
MS.303         	7.41           	1.098
MS.304         	7.395          	0.983
MS.305         	7.382          	1.027
MS.306         	7.367          	0.79
MS.307         	7.352          	0.794
MS.308         	7.337          	0.876
MS.309         	7.322          	0.713
MS.310         	7.307          	0.81
MS.311         	7.293          	0.697
MS.312         	7.277          	0.665
MS.313         	7.265          	0.604
MS.314         	7.25           	0.594
MS.315         	7.235          	0.538
MS.316         	7.22           	0.63
MS.317         	7.205          	0.691
MS.318         	7.192          	0.576
MS.319         	7.177          	0.411
MS.320         	7.162          	0.506
MS.321         	7.15           	0.602
MS.322         	7.135          	0.344
MS.323         	7.12           	0.439
MS.324         	7.105          	0.379
MS.325         	7.092          	0.399
MS.326         	7.077          	0.357
MS.327         	7.062          	0.502
MS.328         	7.05           	0.274
MS.329         	7.035          	0.346
MS.330         	7.023          	0.3
MS.331         	7.007          	0.31
MS.332         	6.992          	0.475
MS.333         	6.98           	0.427
MS.334         	6.965          	0.35
MS.335         	6.952          	0.3
MS.336         	6.938          	0.26
MS.337         	6.922          	0.228
MS.338         	6.91           	0.25
MS.339         	6.895          	0.25
MS.340         	6.882          	0.306
MS.341         	6.867          	0.286
MS.342         	6.855          	0.22
MS.343         	6.84           	0.258
MS.344         	6.827          	0.222
MS.345         	6.815          	0.23
MS.346         	6.8            	0.242
MS.347         	6.787          	0.26
MS.348         	6.773          	0.169
MS.349         	6.76           	0.143
MS.350         	6.745          	0.179
MS.351         	6.733          	0.214
MS.352         	6.72           	0.224
MS.353         	6.705          	0.149
MS.354         	6.692          	0.177
MS.355         	6.68           	0.131
MS.356         	6.665          	0.183
MS.357         	6.652          	0.238
MS.358         	6.64           	0.185
MS.359         	6.625          	0.187
MS.360         	6.612          	0.181
MS.361         	6.6            	0.175
MS.362         	6.585          	0.256
MS.363         	6.572          	0.145
MS.364         	6.56           	0.125
MS.365         	6.547          	0.159
MS.366         	6.532          	0.173
MS.367         	6.52           	0.111
MS.368         	6.507          	0.089
MS.369         	6.495          	0.133
MS.370         	6.483          	0.165
MS.371         	6.467          	0.089
MS.372         	6.455          	0.077
MS.373         	6.442          	0.107
MS.374         	6.43           	0.079
MS.375         	6.418          	0.06
MS.376         	6.405          	0.068
MS.377         	6.392          	0.064
MS.378         	6.378          	0.062
MS.379         	6.365          	0.056
MS.380         	6.352          	0.056
MS.381         	6.34           	0.064
MS.382         	6.327          	0.066
MS.383         	6.315          	0.062
MS.384         	6.302          	0.085
MS.385         	6.29           	0.062
MS.386         	6.277          	0.068
MS.387         	6.265          	0.056
MS.388         	6.253          	0.062
MS.389         	6.24           	0.064
MS.390         	6.227          	0.066
MS.391         	6.215          	0.06
MS.392         	6.202          	0.066
MS.393         	6.19           	0.058
MS.394         	6.177          	0.062
MS.395         	6.165          	0.054
MS.396         	6.152          	0.064
MS.397         	6.14           	0.064
MS.398         	6.128          	0.064
MS.399         	6.115          	0.056
MS.400         	6.105          	0.06
MS.401         	6.092          	0.056
MS.402         	6.08           	0.068
MS.403         	6.067          	0.058
MS.404         	6.055          	0.056
MS.405         	6.043          	0.054
MS.406         	6.03           	0.056
MS.407         	6.02           	0.054
MS.408         	6.007          	0.058
MS.409         	5.995          	0.064
MS.410         	5.983          	0.058
MS.411         	5.97           	0.056
MS.412         	5.96           	0.056
MS.413         	5.947          	0.056
MS.414         	5.935          	0.064
MS.415         	5.922          	0.066
MS.416         	5.912          	0.07
MS.417         	5.9            	0.056
MS.418         	5.887          	0.058
MS.419         	5.878          	0.056
MS.420         	5.865          	0.058
MS.421         	5.852          	0.056
MS.422         	5.842          	0.062
MS.423         	5.83           	0.056
MS.424         	5.817          	0.064
MS.425         	5.807          	0.058
MS.426         	5.795          	0.056
MS.427         	5.782          	0.008
MS.428         	5.773          	0.054
MS.429         	5.76           	0.058
MS.430         	5.747          	0.06
MS.431         	5.737          	0.06
MS.432         	5.725          	0.056
MS.433         	5.715          	0.002
MS.434         	5.702          	0.062
MS.435         	5.692          	0.004
MS.436         	5.68           	0.054
MS.437         	5.668          	0.004
MS.438         	5.657          	0.054
MS.439         	5.645          	0.004
MS.440         	5.635          	0.002
MS.441         	5.622          	0.004
MS.442         	5.612          	0.004
MS.443         	5.6            	0.004
MS.444         	5.59           	0.004
MS.445         	5.577          	0.000
MS.446         	5.567          	0.004
MS.447         	5.557          	0.006
MS.448         	5.545          	0.000
MS.449         	5.535          	0.06
MS.450         	5.523          	0.01
MS.451         	5.512          	0.004
MS.452         	5.5            	0.000
MS.453         	5.49           	0.006
MS.454         	5.48           	0.012
MS.455         	5.467          	0.004
MS.456         	5.457          	0.008
MS.457         	5.447          	0.006
MS.458         	5.435          	0.004
MS.459         	5.425          	0.006
MS.460         	5.415          	0.006
MS.461         	5.402          	0.008
MS.462         	5.392          	0.002
MS.463         	5.382          	0.006
MS.464         	5.37           	0.006
MS.465         	5.36           	0.006
MS.466         	5.35           	0.000
MS.467         	5.338          	0.002
DERIVED EXCITABILITY VARIABLES
Program = QTracP 9/10/2021
Threshold method = 6 (optimised for CAP, using data for present condition only)
SR method = 1 (using actual data values)
6.                 	0.000               	Peak response\(mV)
9.                 	33.7                	Temperature ( C)
17.                	49                  	Age (years)
18.                	1                   	Sex (M=1, F=2)

EXTRA VARIABLES

MScPeak(mV) = 10.45
MScS5(mA) = 7.16
MScS50(mA) = 8.53
MScS95(mA) = 10.28
MScNSteps = 0
MScSteps(%) = 0.0
MScStepMax(%) = 0.0
MScD50 = 34
MScSlope = 6.19
MScDuration(min) = 4.2
MSFTraces = 310
MSFPeakAmp(mV) = 10.5
MSFNUnits = 102
MSFMeanUnitAmp(uV) = 102.9
MSFHuntTime(m) = 1.89
MSFError(%) = 8.31
MSFNLarge = 20.31
MSFMedianAmp(%) = 0.653
MSFMedianAmp(mV) = 0.0686
MSFHalfAmpAmp(%) = 1.37
MSFHalfAmpAmp(mV) = 0.144
MSFLargestAmp(%) = 8.83
MSFLargestAmp(mV) = 0.926
MSFMeanRS(%) = 2
MSFSizeLimit(uV) = 26.2
MSFLimitType = 1
MSFSmallestAmp(uV) = 28.3
MSFOpts = 10106121

EXTRA WAVEFORMS


!MScan Model
!102
	1	6.46	0.44	2
	2	6.67	0.76	2.1
	3	6.78	0.27	2
	4	6.88	0.47	2
	5	7.01	0.8	2
	6	7.11	0.81	2
	7	7.17	0.76	2
	8	7.2	0.43	2
	9	7.23	0.42	2
