File:              	C:\Qtrac\Data\Daniel M Sørensen\MScan multicentre study\Data from centres\Newcastle\Processed data\SMC00304B.QZD
Name:              	UK.NEW.NC.7.2
Protocol:          	MSCAN-R2
Date:              	4/3/20
Start time:        	10:20:46
Age:               	56
Sex:               	M
Temperature:       	33.5
S/R sites:         	ADM
NC/disease:        	NC
Operator:          	SM
Comments:
M-SCAN DATA (2.8-0.0m)
Scanpts: 20, 33, 562, 584
Stim. (mA)     	Amp. (mV)
MS.1           	22             	8.747
MS.2           	22             	8.776
MS.3           	21.913         	8.739
MS.4           	21.868         	8.774
MS.5           	21.825         	8.778
MS.6           	21.78          	8.814
MS.7           	21.737         	8.806
MS.8           	21.695         	8.739
MS.9           	21.65          	8.78
MS.10          	21.608         	8.743
MS.11          	21.565         	8.78
MS.12          	21.52          	8.766
MS.13          	21.477         	8.776
MS.14          	21.435         	8.778
MS.15          	21.392         	8.798
MS.16          	21.35          	8.846
MS.17          	21.307         	8.85
MS.18          	21.265         	8.756
MS.19          	21.222         	8.818
MS.20          	21.18          	8.812
MS.21          	21.137         	8.796
MS.22          	21.095         	8.862
MS.23          	21.052         	8.84
MS.24          	21.01          	8.79
MS.25          	20.97          	8.832
MS.26          	20.927         	8.806
MS.27          	20.885         	8.848
MS.28          	20.842         	8.84
MS.29          	20.802         	8.798
MS.30          	20.76          	8.808
MS.31          	20.717         	8.806
MS.32          	20.677         	8.794
MS.33          	20.635         	8.782
MS.34          	20.595         	8.808
MS.35          	20.552         	8.796
MS.36          	20.512         	8.82
MS.37          	20.472         	8.798
MS.38          	20.43          	8.804
MS.39          	20.39          	8.8
MS.40          	20.35          	8.814
MS.41          	20.307         	8.81
MS.42          	20.267         	8.786
MS.43          	20.227         	8.77
MS.44          	20.188         	8.76
MS.45          	20.147         	8.727
MS.46          	20.108         	8.76
MS.47          	20.065         	8.802
MS.48          	20.025         	8.83
MS.49          	19.985         	8.786
MS.50          	19.945         	8.741
MS.51          	19.907         	8.741
MS.52          	19.868         	8.703
MS.53          	19.827         	8.762
MS.54          	19.788         	8.768
MS.55          	19.747         	8.747
MS.56          	19.708         	8.778
MS.57          	19.67          	8.727
MS.58          	19.63          	8.727
MS.59          	19.59          	8.653
MS.60          	19.55          	8.707
MS.61          	19.512         	8.721
MS.62          	19.472         	8.711
MS.63          	19.435         	8.725
MS.64          	19.395         	8.794
MS.65          	19.358         	8.737
MS.66          	19.317         	8.643
MS.67          	19.28          	8.733
MS.68          	19.24          	8.649
MS.69          	19.202         	8.598
MS.70          	19.165         	8.683
MS.71          	19.125         	8.645
MS.72          	19.087         	8.665
MS.73          	19.05          	8.691
MS.74          	19.012         	8.558
MS.75          	18.972         	8.602
MS.76          	18.935         	8.468
MS.77          	18.897         	8.514
MS.78          	18.86          	8.47
MS.79          	18.823         	8.544
MS.80          	18.785         	8.53
MS.81          	18.747         	8.623
MS.82          	18.71          	8.558
MS.83          	18.672         	8.478
MS.84          	18.635         	8.397
MS.85          	18.597         	8.431
MS.86          	18.56          	8.391
MS.87          	18.522         	8.443
MS.88          	18.487         	8.377
MS.89          	18.45          	8.429
MS.90          	18.413         	8.504
MS.91          	18.375         	8.381
MS.92          	18.34          	8.391
MS.93          	18.302         	8.23
MS.94          	18.265         	8.385
MS.95          	18.23          	8.365
MS.96          	18.192         	8.363
MS.97          	18.157         	8.224
MS.98          	18.12          	8.254
MS.99          	18.085         	8.262
MS.100         	18.047         	8.236
MS.101         	18.012         	8.381
MS.102         	17.975         	8.26
MS.103         	17.94          	8.363
MS.104         	17.905         	8.198
MS.105         	17.868         	8.234
MS.106         	17.833         	8.192
MS.107         	17.797         	8.236
MS.108         	17.762         	8.371
MS.109         	17.725         	8.224
MS.110         	17.69          	8.214
MS.111         	17.655         	8.184
MS.112         	17.62          	8.2
MS.113         	17.585         	8.198
MS.114         	17.55          	8.2
MS.115         	17.515         	8.177
MS.116         	17.48          	8.147
MS.117         	17.445         	8.169
MS.118         	17.41          	8.111
MS.119         	17.375         	8.041
MS.120         	17.34          	8.101
MS.121         	17.305         	8.175
MS.122         	17.27          	8.19
MS.123         	17.237         	8.184
MS.124         	17.202         	8.079
MS.125         	17.167         	8.045
MS.126         	17.132         	7.964
MS.127         	17.1           	7.968
MS.128         	17.065         	7.974
MS.129         	17.03          	7.928
MS.130         	16.997         	7.946
MS.131         	16.962         	8.02
MS.132         	16.93          	8.089
MS.133         	16.895         	7.767
MS.134         	16.862         	7.44
MS.135         	16.827         	7.587
MS.136         	16.795         	7.67
MS.137         	16.76          	7.577
MS.138         	16.727         	7.469
MS.139         	16.695         	7.68
MS.140         	16.66          	7.708
MS.141         	16.628         	7.579
MS.142         	16.595         	7.511
MS.143         	16.56          	7.422
MS.144         	16.528         	7.517
MS.145         	16.495         	7.539
MS.146         	16.462         	7.62
MS.147         	16.43          	7.551
MS.148         	16.395         	7.541
MS.149         	16.362         	7.392
MS.150         	16.33          	7.346
MS.151         	16.297         	7.356
MS.152         	16.265         	7.412
MS.153         	16.233         	7.428
MS.154         	16.2           	7.265
MS.155         	16.167         	7.066
MS.156         	16.135         	7.1
MS.157         	16.102         	6.999
MS.158         	16.073         	6.983
MS.159         	16.04          	6.86
MS.160         	16.007         	7.122
MS.161         	15.975         	7.193
MS.162         	15.943         	7.037
MS.163         	15.912         	6.848
MS.164         	15.88          	6.84
MS.165         	15.847         	6.856
MS.166         	15.818         	6.76
MS.167         	15.785         	6.987
MS.168         	15.752         	6.85
MS.169         	15.722         	6.832
MS.170         	15.69          	6.78
MS.171         	15.66          	6.758
MS.172         	15.627         	6.695
MS.173         	15.597         	6.669
MS.174         	15.565         	6.707
MS.175         	15.535         	6.667
MS.176         	15.502         	6.78
MS.177         	15.472         	6.739
MS.178         	15.44          	6.675
MS.179         	15.41          	6.701
MS.180         	15.38          	6.59
MS.181         	15.35          	6.637
MS.182         	15.318         	6.441
MS.183         	15.287         	6.52
MS.184         	15.257         	6.776
MS.185         	15.227         	6.639
MS.186         	15.195         	6.534
MS.187         	15.165         	6.478
MS.188         	15.135         	6.419
MS.189         	15.105         	6.407
MS.190         	15.075         	6.314
MS.191         	15.045         	6.389
MS.192         	15.015         	6.286
MS.193         	14.985         	6.079
MS.194         	14.955         	6.324
MS.195         	14.925         	6.113
MS.196         	14.895         	6.196
MS.197         	14.865         	6.175
MS.198         	14.835         	6.071
MS.199         	14.805         	5.988
MS.200         	14.777         	6.087
MS.201         	14.747         	6.2
MS.202         	14.717         	6.202
MS.203         	14.688         	6.196
MS.204         	14.66          	5.873
MS.205         	14.63          	5.775
MS.206         	14.6           	5.7
MS.207         	14.57          	5.765
MS.208         	14.542         	6.053
MS.209         	14.512         	6.01
MS.210         	14.485         	6.051
MS.211         	14.455         	6.012
MS.212         	14.425         	5.654
MS.213         	14.398         	5.595
MS.214         	14.367         	5.597
MS.215         	14.34          	5.358
MS.216         	14.31          	5.396
MS.217         	14.282         	5.573
MS.218         	14.255         	5.934
MS.219         	14.225         	5.744
MS.220         	14.197         	5.456
MS.221         	14.167         	5.36
MS.222         	14.14          	5.182
MS.223         	14.112         	5.241
MS.224         	14.085         	5.237
MS.225         	14.055         	5.748
MS.226         	14.028         	5.406
MS.227         	14             	5.342
MS.228         	13.972         	5.356
MS.229         	13.945         	5.102
MS.230         	13.915         	5.072
MS.231         	13.887         	4.909
MS.232         	13.86          	4.818
MS.233         	13.832         	4.842
MS.234         	13.805         	5.011
MS.235         	13.778         	4.989
MS.236         	13.75          	5.033
MS.237         	13.722         	4.816
MS.238         	13.695         	4.687
MS.239         	13.667         	4.909
MS.240         	13.64          	4.731
MS.241         	13.612         	4.6
MS.242         	13.585         	4.655
MS.243         	13.56          	4.612
MS.244         	13.532         	5.082
MS.245         	13.505         	4.792
MS.246         	13.477         	4.629
MS.247         	13.45          	4.685
MS.248         	13.425         	4.554
MS.249         	13.398         	4.395
MS.250         	13.37          	4.334
MS.251         	13.342         	4.528
MS.252         	13.318         	4.421
MS.253         	13.29          	4.56
MS.254         	13.265         	4.568
MS.255         	13.237         	4.254
MS.256         	13.21          	4.393
MS.257         	13.185         	4.274
MS.258         	13.157         	4.081
MS.259         	13.132         	4.155
MS.260         	13.105         	4.256
MS.261         	13.08          	4.349
MS.262         	13.052         	4.236
MS.263         	13.028         	4.115
MS.264         	13             	4.226
MS.265         	12.975         	4.298
MS.266         	12.95          	4.065
MS.267         	12.922         	4.006
MS.268         	12.898         	4.165
MS.269         	12.872         	4.133
MS.270         	12.845         	4.171
MS.271         	12.82          	4.195
MS.272         	12.795         	3.956
MS.273         	12.77          	4.27
MS.274         	12.742         	4.21
MS.275         	12.717         	4.397
MS.276         	12.693         	4.504
MS.277         	12.667         	4.147
MS.278         	12.642         	4.413
MS.279         	12.617         	4.012
MS.280         	12.592         	3.956
MS.281         	12.568         	4.163
MS.282         	12.542         	3.911
MS.283         	12.517         	4.157
MS.284         	12.492         	3.883
MS.285         	12.467         	3.859
MS.286         	12.443         	4.129
MS.287         	12.417         	4.159
MS.288         	12.392         	3.809
MS.289         	12.367         	3.865
MS.290         	12.342         	3.952
MS.291         	12.318         	3.914
MS.292         	12.292         	3.835
MS.293         	12.267         	3.881
MS.294         	12.245         	3.897
MS.295         	12.22          	3.829
MS.296         	12.195         	3.76
MS.297         	12.17          	3.666
MS.298         	12.148         	3.897
MS.299         	12.122         	3.579
MS.300         	12.097         	3.644
MS.301         	12.075         	3.71
MS.302         	12.05          	3.795
MS.303         	12.025         	3.591
MS.304         	12.002         	3.742
MS.305         	11.977         	3.688
MS.306         	11.952         	3.738
MS.307         	11.93          	3.646
MS.308         	11.905         	3.559
MS.309         	11.882         	3.706
MS.310         	11.858         	3.591
MS.311         	11.835         	3.597
MS.312         	11.81          	3.513
MS.313         	11.787         	3.557
MS.314         	11.765         	3.474
MS.315         	11.74          	3.489
MS.316         	11.717         	3.593
MS.317         	11.693         	3.605
MS.318         	11.67          	3.545
MS.319         	11.648         	3.551
MS.320         	11.622         	3.525
MS.321         	11.6           	3.517
MS.322         	11.577         	3.519
MS.323         	11.555         	3.541
MS.324         	11.53          	3.569
MS.325         	11.507         	3.374
MS.326         	11.485         	3.106
MS.327         	11.462         	3.104
MS.328         	11.44          	3.446
MS.329         	11.415         	3.305
MS.330         	11.392         	3.408
MS.331         	11.37          	3.432
MS.332         	11.347         	3.384
MS.333         	11.325         	3.503
MS.334         	11.302         	3.174
MS.335         	11.28          	3.291
MS.336         	11.257         	3.031
MS.337         	11.235         	2.933
MS.338         	11.212         	3.023
MS.339         	11.19          	3.309
MS.340         	11.167         	3.354
MS.341         	11.145         	2.848
MS.342         	11.122         	2.917
MS.343         	11.1           	2.914
MS.344         	11.08          	2.846
MS.345         	11.057         	2.999
MS.346         	11.035         	2.729
MS.347         	11.012         	2.904
MS.348         	10.99          	2.882
MS.349         	10.967         	2.882
MS.350         	10.948         	2.657
MS.351         	10.925         	2.665
MS.352         	10.903         	2.705
MS.353         	10.88          	2.834
MS.354         	10.86          	2.703
MS.355         	10.837         	2.663
MS.356         	10.815         	2.923
MS.357         	10.795         	2.876
MS.358         	10.773         	2.626
MS.359         	10.752         	2.834
MS.360         	10.73          	2.61
MS.361         	10.707         	2.618
MS.362         	10.688         	2.681
MS.363         	10.665         	2.657
MS.364         	10.645         	2.651
MS.365         	10.622         	2.55
MS.366         	10.602         	2.663
MS.367         	10.58          	2.578
MS.368         	10.56          	2.524
MS.369         	10.537         	2.647
MS.370         	10.517         	2.655
MS.371         	10.497         	2.538
MS.372         	10.475         	2.661
MS.373         	10.455         	2.612
MS.374         	10.432         	2.546
MS.375         	10.412         	2.582
MS.376         	10.392         	2.439
MS.377         	10.372         	2.512
MS.378         	10.35          	2.552
MS.379         	10.33          	2.548
MS.380         	10.31          	2.59
MS.381         	10.287         	2.532
MS.382         	10.267         	2.556
MS.383         	10.247         	2.385
MS.384         	10.227         	2.338
MS.385         	10.207         	2.421
MS.386         	10.185         	2.206
MS.387         	10.165         	2.473
MS.388         	10.145         	2.554
MS.389         	10.125         	2.296
MS.390         	10.105         	2.451
MS.391         	10.085         	2.351
MS.392         	10.065         	2.334
MS.393         	10.045         	2.3
MS.394         	10.025         	2.24
MS.395         	10.005         	2.199
MS.396         	9.985          	2.359
MS.397         	9.965          	2.113
MS.398         	9.945          	2.314
MS.399         	9.925          	2.191
MS.400         	9.905          	2.349
MS.401         	9.885          	2.008
MS.402         	9.865          	1.899
MS.403         	9.845          	2.054
MS.404         	9.825          	1.932
MS.405         	9.807          	1.97
MS.406         	9.787          	1.994
MS.407         	9.767          	1.841
MS.408         	9.747          	1.94
MS.409         	9.727          	1.819
MS.410         	9.71           	1.968
MS.411         	9.69           	1.917
MS.412         	9.67           	1.851
MS.413         	9.65           	1.815
MS.414         	9.632          	1.593
MS.415         	9.613          	1.776
MS.416         	9.592          	1.762
MS.417         	9.575          	1.742
MS.418         	9.555          	1.718
MS.419         	9.535          	1.738
MS.420         	9.517          	1.718
MS.421         	9.497          	1.855
MS.422         	9.477          	1.748
MS.423         	9.46           	1.525
MS.424         	9.44           	1.754
MS.425         	9.422          	1.366
MS.426         	9.403          	1.472
MS.427         	9.385          	1.339
MS.428         	9.365          	1.547
MS.429         	9.347          	1.466
MS.430         	9.327          	1.543
MS.431         	9.31           	1.345
MS.432         	9.29           	1.422
MS.433         	9.273          	1.275
MS.434         	9.255          	1.501
MS.435         	9.235          	1.343
MS.436         	9.217          	1.45
MS.437         	9.198          	1.362
MS.438         	9.18           	1.43
MS.439         	9.162          	1.432
MS.440         	9.142          	1.251
MS.441         	9.125          	1.271
MS.442         	9.108          	1.43
MS.443         	9.09           	1.233
MS.444         	9.07           	1.301
MS.445         	9.052          	1.259
MS.446         	9.035          	1.237
MS.447         	9.017          	1.142
MS.448         	8.997          	1.271
MS.449         	8.98           	1.291
MS.450         	8.962          	1.162
MS.451         	8.945          	1.213
MS.452         	8.927          	1.211
MS.453         	8.91           	1.005
MS.454         	8.89           	1.094
MS.455         	8.872          	1.108
MS.456         	8.855          	1.221
MS.457         	8.837          	0.967
MS.458         	8.82           	1.235
MS.459         	8.802          	1.078
MS.460         	8.785          	0.977
MS.461         	8.767          	1.1
MS.462         	8.75           	0.969
MS.463         	8.733          	0.973
MS.464         	8.715          	1.202
MS.465         	8.698          	0.963
MS.466         	8.68           	1.059
MS.467         	8.662          	0.894
MS.468         	8.645          	0.876
MS.469         	8.627          	0.937
MS.470         	8.61           	0.965
MS.471         	8.595          	0.924
MS.472         	8.577          	0.884
MS.473         	8.56           	0.931
MS.474         	8.542          	0.856
MS.475         	8.525          	0.88
MS.476         	8.507          	0.947
MS.477         	8.492          	0.894
MS.478         	8.475          	0.796
MS.479         	8.457          	0.84
MS.480         	8.44           	0.679
MS.481         	8.422          	0.796
MS.482         	8.408          	0.84
MS.483         	8.39           	0.941
MS.484         	8.372          	0.84
MS.485         	8.358          	0.636
MS.486         	8.34           	0.769
MS.487         	8.323          	0.715
MS.488         	8.307          	0.655
MS.489         	8.29           	0.506
MS.490         	8.273          	0.677
MS.491         	8.257          	0.552
MS.492         	8.24           	0.733
MS.493         	8.225          	0.493
MS.494         	8.207          	0.504
MS.495         	8.19           	0.61
MS.496         	8.175          	0.586
MS.497         	8.158          	0.481
MS.498         	8.142          	0.552
MS.499         	8.125          	0.487
MS.500         	8.11           	0.59
MS.501         	8.092          	0.475
MS.502         	8.077          	0.493
