File:              	C:\Qtrac\Data\Daniel M Sørensen\MScan multicentre study\Data from centres\Newcastle\Processed data\SMC00221A.QZD
Name:              	UK.NEW.NC.5.1
Protocol:          	MSCAN-R2
Date:              	21/2/20
Start time:        	09:12:01
Age:               	40
Sex:               	F
Temperature:       	32.9
S/R sites:         	APB
NC/disease:        	NC
Operator:          	SM
Comments:
M-SCAN DATA (6.3-2.1m)
Scanpts: 76, 86, 455, 463
Stim. (mA)     	Amp. (mV)
MS.1           	10.5           	5.956
MS.2           	10.5           	5.964
MS.3           	10.5           	5.968
MS.4           	10.5           	5.946
MS.5           	10.5           	5.954
MS.6           	10.5           	5.946
MS.7           	10.5           	5.934
MS.8           	10.5           	5.928
MS.9           	10.5           	5.914
MS.10          	10.5           	5.916
MS.11          	10.5           	5.918
MS.12          	10.5           	5.922
MS.13          	10.5           	5.924
MS.14          	10.5           	5.934
MS.15          	10.5           	5.928
MS.16          	10.5           	5.932
MS.17          	10.5           	5.938
MS.18          	10.5           	5.938
MS.19          	10.5           	5.928
MS.20          	10.5           	5.92
MS.21          	10.5           	5.91
MS.22          	10.5           	5.922
MS.23          	10.5           	5.924
MS.24          	10.457         	5.908
MS.25          	10.438         	5.922
MS.26          	10.417         	5.916
MS.27          	10.395         	5.91
MS.28          	10.375         	5.926
MS.29          	10.355         	5.932
MS.30          	10.332         	5.936
MS.31          	10.312         	5.934
MS.32          	10.292         	5.95
MS.33          	10.273         	5.954
MS.34          	10.25          	5.962
MS.35          	10.23          	5.976
MS.36          	10.21          	5.982
MS.37          	10.19          	5.976
MS.38          	10.17          	5.966
MS.39          	10.15          	5.982
MS.40          	10.127         	5.976
MS.41          	10.108         	5.998
MS.42          	10.087         	5.99
MS.43          	10.068         	5.998
MS.44          	10.047         	5.992
MS.45          	10.028         	6
MS.46          	10.007         	5.986
MS.47          	9.988          	5.992
MS.48          	9.967          	5.976
MS.49          	9.948          	5.946
MS.50          	9.927          	5.97
MS.51          	9.907          	5.992
MS.52          	9.887          	6.004
MS.53          	9.867          	6.014
MS.54          	9.85           	6.01
MS.55          	9.83           	6.002
MS.56          	9.81           	6.004
MS.57          	9.79           	6.016
MS.58          	9.77           	6.03
MS.59          	9.75           	6.02
MS.60          	9.733          	6.032
MS.61          	9.712          	6.044
MS.62          	9.693          	6.044
MS.63          	9.672          	6.053
MS.64          	9.655          	6.063
MS.65          	9.635          	6.055
MS.66          	9.615          	6.059
MS.67          	9.595          	6.071
MS.68          	9.577          	6.044
MS.69          	9.557          	6.075
MS.70          	9.54           	6.065
MS.71          	9.52           	6.075
MS.72          	9.5            	6.049
MS.73          	9.483          	6.067
MS.74          	9.462          	6.077
MS.75          	9.445          	6.071
MS.76          	9.425          	6.079
MS.77          	9.405          	6.069
MS.78          	9.387          	6.071
MS.79          	9.367          	6.093
MS.80          	9.35           	6.083
MS.81          	9.332          	6.095
MS.82          	9.312          	6.099
MS.83          	9.295          	6.093
MS.84          	9.275          	6.085
MS.85          	9.257          	6.069
MS.86          	9.238          	6.083
MS.87          	9.22           	6.087
MS.88          	9.202          	6.089
MS.89          	9.182          	6.091
MS.90          	9.165          	6.085
MS.91          	9.148          	6.081
MS.92          	9.127          	6.099
MS.93          	9.11           	6.083
MS.94          	9.092          	6.097
MS.95          	9.073          	6.101
MS.96          	9.055          	6.089
MS.97          	9.037          	6.099
MS.98          	9.02           	5.922
MS.99          	9.002          	5.92
MS.100         	8.983          	6.087
MS.101         	8.965          	6.095
MS.102         	8.948          	6.109
MS.103         	8.93           	5.926
MS.104         	8.912          	6.077
MS.105         	8.895          	6.095
MS.106         	8.875          	6.091
MS.107         	8.858          	6.095
MS.108         	8.84           	6.091
MS.109         	8.823          	5.934
MS.110         	8.805          	6.087
MS.111         	8.787          	5.916
MS.112         	8.77           	5.887
MS.113         	8.752          	6.087
MS.114         	8.735          	6.083
MS.115         	8.717          	6.083
MS.116         	8.7            	5.922
MS.117         	8.682          	5.926
MS.118         	8.665          	5.92
MS.119         	8.648          	5.926
MS.120         	8.63           	6.099
MS.121         	8.615          	5.924
MS.122         	8.597          	5.924
MS.123         	8.58           	5.845
MS.124         	8.562          	5.841
MS.125         	8.545          	5.928
MS.126         	8.528          	5.859
MS.127         	8.51           	5.934
MS.128         	8.495          	5.926
MS.129         	8.477          	5.914
MS.130         	8.46           	5.855
MS.131         	8.443          	5.851
MS.132         	8.427          	5.918
MS.133         	8.41           	5.918
MS.134         	8.392          	5.91
MS.135         	8.375          	5.855
MS.136         	8.36           	5.857
MS.137         	8.342          	5.861
MS.138         	8.325          	5.775
MS.139         	8.31           	5.926
MS.140         	8.292          	5.773
MS.141         	8.275          	5.853
MS.142         	8.26           	5.918
MS.143         	8.242          	5.855
MS.144         	8.227          	5.839
MS.145         	8.21           	5.777
MS.146         	8.193          	5.845
MS.147         	8.177          	5.777
MS.148         	8.16           	5.773
MS.149         	8.145          	5.851
MS.150         	8.127          	5.775
MS.151         	8.113          	5.777
MS.152         	8.095          	5.851
MS.153         	8.08           	5.777
MS.154         	8.062          	5.775
MS.155         	8.047          	5.767
MS.156         	8.033          	5.855
MS.157         	8.015          	5.771
MS.158         	8              	5.771
MS.159         	7.982          	5.773
MS.160         	7.967          	5.771
MS.161         	7.952          	5.775
MS.162         	7.935          	5.777
MS.163         	7.92           	5.767
MS.164         	7.905          	5.773
MS.165         	7.887          	5.767
MS.166         	7.872          	5.642
MS.167         	7.857          	5.783
MS.168         	7.84           	5.775
MS.169         	7.825          	5.775
MS.170         	7.81           	5.771
MS.171         	7.795          	5.779
MS.172         	7.777          	5.511
MS.173         	7.762          	5.777
MS.174         	7.747          	5.632
MS.175         	7.732          	5.773
MS.176         	7.717          	5.513
MS.177         	7.7            	5.775
MS.178         	7.685          	5.646
MS.179         	7.67           	5.644
MS.180         	7.655          	5.638
MS.181         	7.64           	5.769
MS.182         	7.625          	5.777
MS.183         	7.61           	5.642
MS.184         	7.595          	5.638
MS.185         	7.58           	5.388
MS.186         	7.565          	5.392
MS.187         	7.547          	5.63
MS.188         	7.532          	5.42
MS.189         	7.517          	5.638
MS.190         	7.503          	5.783
MS.191         	7.487          	5.507
MS.192         	7.472          	5.531
MS.193         	7.457          	5.638
MS.194         	7.442          	5.279
MS.195         	7.43           	5.531
MS.196         	7.415          	5.168
MS.197         	7.4            	5.372
MS.198         	7.385          	5.275
MS.199         	7.37           	5.511
MS.200         	7.355          	5.273
MS.201         	7.34           	5.168
MS.202         	7.325          	5.521
MS.203         	7.31           	5.279
MS.204         	7.297          	5.056
MS.205         	7.282          	5.054
MS.206         	7.267          	5.257
MS.207         	7.253          	5.049
MS.208         	7.237          	5.049
MS.209         	7.222          	5.16
MS.210         	7.21           	5.056
MS.211         	7.195          	5.128
MS.212         	7.18           	4.983
MS.213         	7.165          	5.162
MS.214         	7.152          	5.043
MS.215         	7.137          	5.027
MS.216         	7.122          	5.049
MS.217         	7.11           	4.985
MS.218         	7.095          	5.049
MS.219         	7.08           	4.945
MS.220         	7.067          	5.011
MS.221         	7.052          	5.086
MS.222         	7.037          	4.967
MS.223         	7.025          	4.953
MS.224         	7.01           	4.961
MS.225         	6.995          	4.979
MS.226         	6.983          	4.975
MS.227         	6.967          	4.874
MS.228         	6.955          	4.774
MS.229         	6.94           	4.917
MS.230         	6.927          	4.872
MS.231         	6.912          	4.741
MS.232         	6.9            	4.826
MS.233         	6.885          	4.804
MS.234         	6.872          	4.802
MS.235         	6.858          	4.89
MS.236         	6.845          	4.606
MS.237         	6.83           	4.84
MS.238         	6.817          	4.814
MS.239         	6.802          	4.766
MS.240         	6.79           	4.665
MS.241         	6.775          	4.731
MS.242         	6.762          	4.594
MS.243         	6.75           	4.475
MS.244         	6.735          	4.482
MS.245         	6.722          	4.391
MS.246         	6.707          	4.637
MS.247         	6.695          	4.22
MS.248         	6.682          	4.461
MS.249         	6.668          	4.328
MS.250         	6.655          	4.566
MS.251         	6.642          	4.647
MS.252         	6.628          	4.629
MS.253         	6.615          	4.548
MS.254         	6.602          	4.55
MS.255         	6.59           	4.276
MS.256         	6.575          	4.326
MS.257         	6.562          	4.419
MS.258         	6.55           	3.811
MS.259         	6.537          	4.057
MS.260         	6.523          	4.075
MS.261         	6.51           	3.926
MS.262         	6.497          	4.004
MS.263         	6.485          	3.69
MS.264         	6.472          	4.161
MS.265         	6.457          	3.924
MS.266         	6.445          	4.032
MS.267         	6.432          	3.869
MS.268         	6.42           	3.68
MS.269         	6.407          	3.911
MS.270         	6.395          	3.495
MS.271         	6.382          	4.038
MS.272         	6.367          	3.803
MS.273         	6.355          	3.458
MS.274         	6.342          	3.75
MS.275         	6.33           	3.39
MS.276         	6.317          	3.728
MS.277         	6.305          	3.533
MS.278         	6.293          	3.482
MS.279         	6.28           	3.499
MS.280         	6.267          	3.442
MS.281         	6.255          	3.086
MS.282         	6.242          	3.352
MS.283         	6.23           	3.446
MS.284         	6.217          	3.198
MS.285         	6.205          	3.015
MS.286         	6.192          	3.48
MS.287         	6.18           	3.068
MS.288         	6.168          	3.311
MS.289         	6.155          	3.444
MS.290         	6.142          	3.305
MS.291         	6.13           	2.937
MS.292         	6.12           	2.939
MS.293         	6.108          	3.323
MS.294         	6.095          	3.062
MS.295         	6.082          	2.921
MS.296         	6.07           	2.757
MS.297         	6.057          	2.927
MS.298         	6.045          	2.737
MS.299         	6.035          	2.866
MS.300         	6.023          	2.763
MS.301         	6.01           	2.514
MS.302         	5.997          	2.54
MS.303         	5.985          	2.669
MS.304         	5.972          	2.353
MS.305         	5.963          	2.296
MS.306         	5.95           	2.262
MS.307         	5.938          	2.27
MS.308         	5.925          	2.397
MS.309         	5.915          	2.195
MS.310         	5.902          	2.143
MS.311         	5.89           	2.23
MS.312         	5.88           	2.206
MS.313         	5.867          	1.998
MS.314         	5.855          	2.077
MS.315         	5.842          	1.968
MS.316         	5.832          	2.054
MS.317         	5.82           	2.129
MS.318         	5.81           	1.887
MS.319         	5.797          	1.787
MS.320         	5.785          	2.153
MS.321         	5.775          	2.071
MS.322         	5.762          	1.746
MS.323         	5.75           	1.919
MS.324         	5.74           	1.936
MS.325         	5.727          	1.724
MS.326         	5.717          	1.905
MS.327         	5.705          	1.543
MS.328         	5.695          	1.644
MS.329         	5.682          	1.607
MS.330         	5.67           	1.779
MS.331         	5.66           	1.555
MS.332         	5.648          	1.644
MS.333         	5.637          	1.386
MS.334         	5.625          	1.313
MS.335         	5.615          	1.591
MS.336         	5.602          	1.581
MS.337         	5.592          	1.396
MS.338         	5.58           	1.404
MS.339         	5.57           	1.313
MS.340         	5.557          	1.249
MS.341         	5.547          	1.36
MS.342         	5.537          	1.285
MS.343         	5.525          	1.237
MS.344         	5.515          	1.374
MS.345         	5.503          	1.057
MS.346         	5.492          	1.277
MS.347         	5.483          	1.065
MS.348         	5.47           	1.148
MS.349         	5.46           	0.981
MS.350         	5.447          	1.045
MS.351         	5.438          	1.128
MS.352         	5.427          	1.098
MS.353         	5.415          	1.035
MS.354         	5.405          	0.993
MS.355         	5.395          	0.973
MS.356         	5.382          	0.846
MS.357         	5.372          	0.924
MS.358         	5.362          	0.888
MS.359         	5.352          	0.83
MS.360         	5.34           	0.757
MS.361         	5.33           	0.747
MS.362         	5.32           	0.564
MS.363         	5.31           	0.733
MS.364         	5.297          	0.916
MS.365         	5.287          	0.645
MS.366         	5.277          	0.775
MS.367         	5.267          	0.721
MS.368         	5.255          	0.63
MS.369         	5.245          	0.427
MS.370         	5.235          	0.677
MS.371         	5.225          	0.443
MS.372         	5.215          	0.655
MS.373         	5.202          	0.431
MS.374         	5.193          	0.419
MS.375         	5.182          	0.62
MS.376         	5.172          	0.594
MS.377         	5.162          	0.425
MS.378         	5.152          	0.423
MS.379         	5.142          	0.491
MS.380         	5.132          	0.548
MS.381         	5.12           	0.437
MS.382         	5.11           	0.524
MS.383         	5.1            	0.405
MS.384         	5.09           	0.429
MS.385         	5.08           	0.201
MS.386         	5.07           	0.393
MS.387         	5.06           	0.383
MS.388         	5.05           	0.308
MS.389         	5.04           	0.133
MS.390         	5.03           	0.288
MS.391         	5.02           	0.371
MS.392         	5.01           	0.385
MS.393         	5              	0.203
MS.394         	4.99           	0.278
MS.395         	4.98           	0.177
MS.396         	4.97           	0.141
MS.397         	4.96           	0.185
MS.398         	4.95           	0.244
MS.399         	4.94           	0.048
MS.400         	4.93           	0.155
MS.401         	4.92           	0.06
MS.402         	4.91           	0.066
MS.403         	4.9            	0.111
MS.404         	4.89           	0.113
MS.405         	4.88           	0.181
MS.406         	4.872          	0.133
MS.407         	4.862          	0.06
MS.408         	4.852          	0.036
MS.409         	4.842          	0.056
MS.410         	4.832          	0.054
MS.411         	4.822          	0.143
MS.412         	4.812          	0.054
MS.413         	4.802          	0.087
MS.414         	4.795          	0.105
MS.415         	4.785          	0.06
MS.416         	4.775          	0.04
MS.417         	4.765          	0.02
MS.418         	4.755          	0.06
MS.419         	4.747          	0.068
MS.420         	4.737          	0.004
MS.421         	4.727          	0.113
MS.422         	4.717          	0.038
MS.423         	4.707          	0.022
MS.424         	4.7            	0.002
MS.425         	4.69           	0.044
MS.426         	4.68           	0.066
MS.427         	4.67           	0.042
MS.428         	4.662          	0.002
MS.429         	4.652          	0.002
MS.430         	4.642          	0.004
MS.431         	4.635          	0.042
MS.432         	4.625          	0.044
MS.433         	4.615          	0.004
MS.434         	4.605          	0.04
MS.435         	4.597          	0.044
MS.436         	4.588          	0.004
MS.437         	4.577          	0.006
MS.438         	4.57           	0.002
MS.439         	4.56           	0.006
MS.440         	4.55           	0.004
MS.441         	4.543          	0.002
MS.442         	4.532          	0.044
MS.443         	4.525          	0.044
MS.444         	4.515          	0.004
MS.445         	4.505          	0.006
MS.446         	4.497          	0.004
MS.447         	4.487          	0.004
MS.448         	4.48           	0.004
MS.449         	4.47           	0.004
MS.450         	4.46           	0.006
MS.451         	4.452          	0.004
MS.452         	4.443          	0.004
MS.453         	4.435          	0.004
MS.454         	4.425          	0.006
MS.455         	4.418          	0.002
MS.456         	4.407          	0.004
MS.457         	4.4            	0.004
MS.458         	4.39           	0.004
MS.459         	4.382          	0.004
MS.460         	4.372          	0.004
MS.461         	4.365          	0.004
MS.462         	4.355          	0.002
MS.463         	4.347          	0.006
MS.464         	4.338          	0.004
MS.465         	4.33           	0.004
DERIVED EXCITABILITY VARIABLES
Program = QTracP 9/10/2021
Threshold method = 6 (optimised for CAP, using data for present condition only)
SR method = 1 (using actual data values)
6.                 	0.000               	Peak response\(mV)
9.                 	32.9                	Temperature ( C)
17.                	40                  	Age (years)
18.                	2                   	Sex (M=1, F=2)

EXTRA VARIABLES

MScPeak(mV) = 5.93
MScS5(mA) = 5.05
MScS50(mA) = 6.11
MScS95(mA) = 7.64
MScNSteps = 3
MScSteps(%) = 6.9
MScStepMax(%) = 2.5
MScD50 = 40
MScSlope = 5.75
MScDuration(min) = 4.2
MSFTraces = 388
MSFPeakAmp(mV) = 6.08
MSFNUnits = 60
MSFMeanUnitAmp(uV) = 101.3
MSFHuntTime(m) = 1.65
MSFError(%) = 3.27
MSFNLarge = 18.22
MSFMedianAmp(%) = 1.41
MSFMedianAmp(mV) = 0.0858
MSFHalfAmpAmp(%) = 1.78
MSFHalfAmpAmp(mV) = 0.108
MSFLargestAmp(%) = 4.45
MSFLargestAmp(mV) = 0.27
MSFMeanRS(%) = 2
MSFSizeLimit(uV) = 20.3
MSFLimitType = 3
MSFSmallestAmp(uV) = 31.5
MSFOpts = 10106121

EXTRA WAVEFORMS


!MScan Model
!60
	1	4.68	0.52	2
	2	4.86	1.12	2
	3	4.94	1.23	2
	4	4.99	1.1	2
	5	5.03	0.85	2
	6	5.09	1.48	2
	7	5.17	2.02	2
	8	5.24	1.92	2
	9	5.27	1.01	2
	10	5.3	1.13	2
	11	5.34	1.04	2
	12	5.36	1.06	2
	13	5.39	1.03	2
	14	5.41	0.84	2
	15	5.43	0.55	2
	16	5.44	0.61	2
	17	5.46	0.67	2
	18	5.48	1.08	2
	19	5.51	1.01	2
	20	5.54	1.13	2
