File:              	C:\Qtrac\Data\Daniel M Sørensen\MScan multicentre study\Data from centres\Newcastle\Processed data\SMC00304C.QZD
Name:              	UK.NEW.NC.7.2
Protocol:          	MSCAN-R2
Date:              	4/3/20
Start time:        	10:33:56
Age:               	56
Sex:               	M
Temperature:       	32
S/R sites:         	TA
NC/disease:        	NC
Operator:          	SM
Comments:
M-SCAN DATA (2-0.0m)
Scanpts: 47, 68, 734, 751
Stim. (mA)     	Amp. (mV)
MS.1           	26.5           	8.053
MS.2           	26.5           	8.045
MS.3           	26.395         	8.049
MS.4           	26.342         	8.022
MS.5           	26.287         	7.998
MS.6           	26.235         	8.057
MS.7           	26.185         	8.041
MS.8           	26.132         	8.045
MS.9           	26.08          	8.022
MS.10          	26.028         	8.03
MS.11          	25.975         	8.065
MS.12          	25.922         	8.026
MS.13          	25.872         	8.028
MS.14          	25.82          	8.034
MS.15          	25.767         	8.061
MS.16          	25.717         	8.069
MS.17          	25.665         	8.026
MS.18          	25.615         	8.018
MS.19          	25.562         	8.002
MS.20          	25.512         	8.028
MS.21          	25.46          	8.049
MS.22          	25.41          	8.039
MS.23          	25.36          	8.067
MS.24          	25.307         	8.053
MS.25          	25.257         	8.014
MS.26          	25.207         	8.032
MS.27          	25.157         	8.053
MS.28          	25.108         	8.059
MS.29          	25.057         	8
MS.30          	25.007         	8.085
MS.31          	24.957         	8.032
MS.32          	24.907         	8.018
MS.33          	24.858         	7.96
MS.34          	24.807         	8.047
MS.35          	24.757         	8.002
MS.36          	24.707         	8
MS.37          	24.66          	7.986
MS.38          	24.61          	8.01
MS.39          	24.56          	8.01
MS.40          	24.512         	7.996
MS.41          	24.462         	8.02
MS.42          	24.413         	8.043
MS.43          	24.365         	8.008
MS.44          	24.315         	8.053
MS.45          	24.267         	8.045
MS.46          	24.22          	8.034
MS.47          	24.17          	8.041
MS.48          	24.122         	8.057
MS.49          	24.075         	8.014
MS.50          	24.025         	8.004
MS.51          	23.977         	8.047
MS.52          	23.93          	8.01
MS.53          	23.882         	8.036
MS.54          	23.835         	8
MS.55          	23.788         	8.02
MS.56          	23.74          	8.059
MS.57          	23.692         	8.039
MS.58          	23.645         	8.034
MS.59          	23.597         	7.998
MS.60          	23.55          	8.01
MS.61          	23.502         	8.022
MS.62          	23.457         	8.047
MS.63          	23.41          	7.978
MS.64          	23.362         	8.02
MS.65          	23.315         	8.008
MS.66          	23.27          	8.047
MS.67          	23.222         	8.073
MS.68          	23.177         	8.014
MS.69          	23.13          	8.01
MS.70          	23.085         	8.053
MS.71          	23.038         	8.057
MS.72          	22.993         	7.998
MS.73          	22.945         	8
MS.74          	22.9           	8.018
MS.75          	22.855         	8.014
MS.76          	22.807         	8.022
MS.77          	22.762         	7.924
MS.78          	22.717         	7.974
MS.79          	22.672         	7.978
MS.80          	22.627         	7.928
MS.81          	22.582         	8.006
MS.82          	22.538         	8.002
MS.83          	22.493         	7.97
MS.84          	22.448         	8.065
MS.85          	22.403         	8.036
MS.86          	22.358         	8.02
MS.87          	22.312         	7.938
MS.88          	22.267         	7.966
MS.89          	22.222         	8.006
MS.90          	22.18          	7.902
MS.91          	22.135         	7.976
MS.92          	22.09          	7.986
MS.93          	22.045         	8.014
MS.94          	22.002         	7.96
MS.95          	21.958         	7.934
MS.96          	21.915         	7.968
MS.97          	21.87          	7.893
MS.98          	21.827         	7.93
MS.99          	21.782         	7.974
MS.100         	21.74          	7.928
MS.101         	21.698         	7.944
MS.102         	21.653         	7.926
MS.103         	21.61          	7.908
MS.104         	21.567         	7.885
MS.105         	21.522         	7.914
MS.106         	21.48          	7.906
MS.107         	21.438         	7.928
MS.108         	21.395         	7.948
MS.109         	21.352         	7.908
MS.110         	21.31          	7.863
MS.111         	21.267         	7.865
MS.112         	21.225         	7.914
MS.113         	21.182         	7.96
MS.114         	21.14          	7.904
MS.115         	21.097         	7.831
MS.116         	21.055         	7.889
MS.117         	21.012         	7.904
MS.118         	20.97          	7.887
MS.119         	20.93          	7.873
MS.120         	20.887         	7.914
MS.121         	20.845         	7.879
MS.122         	20.805         	7.859
MS.123         	20.762         	7.837
MS.124         	20.72          	7.835
MS.125         	20.68          	7.849
MS.126         	20.637         	7.92
MS.127         	20.597         	7.853
MS.128         	20.555         	7.845
MS.129         	20.515         	7.829
MS.130         	20.472         	7.904
MS.131         	20.432         	7.881
MS.132         	20.392         	7.871
MS.133         	20.35          	7.857
MS.134         	20.31          	7.825
MS.135         	20.27          	7.942
MS.136         	20.23          	7.887
MS.137         	20.19          	7.839
MS.138         	20.147         	7.869
MS.139         	20.108         	7.879
MS.140         	20.067         	7.942
MS.141         	20.028         	7.861
MS.142         	19.987         	7.881
MS.143         	19.948         	7.825
MS.144         	19.907         	7.887
MS.145         	19.868         	7.887
MS.146         	19.83          	7.906
MS.147         	19.79          	7.807
MS.148         	19.75          	7.829
MS.149         	19.71          	7.906
MS.150         	19.67          	7.93
MS.151         	19.632         	7.936
MS.152         	19.592         	7.908
MS.153         	19.552         	7.942
MS.154         	19.515         	7.791
MS.155         	19.475         	7.93
MS.156         	19.438         	7.859
MS.157         	19.397         	7.926
MS.158         	19.358         	7.873
MS.159         	19.32          	7.823
MS.160         	19.282         	7.908
MS.161         	19.243         	7.889
MS.162         	19.205         	7.829
MS.163         	19.165         	7.918
MS.164         	19.127         	7.873
MS.165         	19.09          	7.883
MS.166         	19.052         	7.869
MS.167         	19.012         	7.877
MS.168         	18.975         	7.924
MS.169         	18.938         	7.833
MS.170         	18.9           	7.821
MS.171         	18.862         	7.954
MS.172         	18.825         	7.893
MS.173         	18.788         	7.861
MS.174         	18.75          	7.926
MS.175         	18.712         	7.875
MS.176         	18.675         	7.839
MS.177         	18.637         	7.972
MS.178         	18.6           	7.924
MS.179         	18.562         	7.908
MS.180         	18.525         	7.783
MS.181         	18.487         	7.877
MS.182         	18.452         	7.879
MS.183         	18.415         	7.837
MS.184         	18.378         	7.877
MS.185         	18.34          	7.893
MS.186         	18.305         	7.877
MS.187         	18.267         	7.781
MS.188         	18.233         	7.853
MS.189         	18.195         	7.847
MS.190         	18.157         	7.817
MS.191         	18.122         	7.821
MS.192         	18.085         	7.736
MS.193         	18.05          	7.922
MS.194         	18.015         	7.883
MS.195         	17.977         	7.746
MS.196         	17.942         	7.819
MS.197         	17.905         	7.728
MS.198         	17.87          	7.771
MS.199         	17.835         	7.906
MS.200         	17.8           	7.755
MS.201         	17.762         	7.835
MS.202         	17.727         	7.722
MS.203         	17.692         	7.871
MS.204         	17.657         	7.734
MS.205         	17.622         	7.724
MS.206         	17.587         	7.755
MS.207         	17.552         	7.805
MS.208         	17.517         	7.813
MS.209         	17.483         	7.765
MS.210         	17.448         	7.777
MS.211         	17.413         	7.799
MS.212         	17.378         	7.724
MS.213         	17.342         	7.716
MS.214         	17.307         	7.736
MS.215         	17.272         	7.722
MS.216         	17.237         	7.712
MS.217         	17.205         	7.706
MS.218         	17.17          	7.686
MS.219         	17.135         	7.811
MS.220         	17.1           	7.775
MS.221         	17.067         	7.771
MS.222         	17.032         	7.783
MS.223         	17             	7.767
MS.224         	16.965         	7.712
MS.225         	16.93          	7.682
MS.226         	16.897         	7.686
MS.227         	16.862         	7.765
MS.228         	16.83          	7.71
MS.229         	16.795         	7.753
MS.230         	16.762         	7.698
MS.231         	16.73          	7.73
MS.232         	16.695         	7.728
MS.233         	16.663         	7.69
MS.234         	16.63          	7.736
MS.235         	16.595         	7.706
MS.236         	16.562         	7.71
MS.237         	16.53          	7.781
MS.238         	16.497         	7.763
MS.239         	16.462         	7.765
MS.240         	16.43          	7.718
MS.241         	16.397         	7.748
MS.242         	16.365         	7.664
MS.243         	16.333         	7.759
MS.244         	16.3           	7.746
MS.245         	16.267         	7.69
MS.246         	16.235         	7.605
MS.247         	16.202         	7.728
MS.248         	16.17          	7.64
MS.249         	16.137         	7.67
MS.250         	16.105         	7.716
MS.251         	16.073         	7.626
MS.252         	16.04          	7.662
MS.253         	16.01          	7.74
MS.254         	15.977         	7.698
MS.255         	15.945         	7.658
MS.256         	15.912         	7.692
MS.257         	15.882         	7.668
MS.258         	15.85          	7.62
MS.259         	15.818         	7.662
MS.260         	15.787         	7.72
MS.261         	15.755         	7.688
MS.262         	15.722         	7.612
MS.263         	15.693         	7.595
MS.264         	15.66          	7.628
MS.265         	15.63          	7.628
MS.266         	15.597         	7.646
MS.267         	15.568         	7.601
MS.268         	15.535         	7.684
MS.269         	15.505         	7.765
MS.270         	15.472         	7.593
MS.271         	15.443         	7.628
MS.272         	15.412         	7.569
MS.273         	15.38          	7.587
MS.274         	15.35          	7.587
MS.275         	15.32          	7.573
MS.276         	15.29          	7.595
MS.277         	15.257         	7.672
MS.278         	15.227         	7.638
MS.279         	15.197         	7.626
MS.280         	15.167         	7.565
MS.281         	15.137         	7.605
MS.282         	15.108         	7.571
MS.283         	15.077         	7.545
MS.284         	15.047         	7.575
MS.285         	15.017         	7.561
MS.286         	14.987         	7.531
MS.287         	14.957         	7.581
MS.288         	14.927         	7.555
MS.289         	14.898         	7.464
MS.290         	14.867         	7.575
MS.291         	14.837         	7.505
MS.292         	14.807         	7.587
MS.293         	14.777         	7.541
MS.294         	14.747         	7.41
MS.295         	14.72          	7.523
MS.296         	14.69          	7.531
MS.297         	14.66          	7.426
MS.298         	14.63          	7.487
MS.299         	14.602         	7.535
MS.300         	14.572         	7.477
MS.301         	14.542         	7.487
MS.302         	14.515         	7.519
MS.303         	14.485         	7.501
MS.304         	14.457         	7.426
MS.305         	14.427         	7.342
MS.306         	14.398         	7.456
MS.307         	14.37          	7.313
MS.308         	14.342         	7.398
MS.309         	14.312         	7.432
MS.310         	14.285         	7.368
MS.311         	14.255         	7.35
MS.312         	14.227         	7.352
MS.313         	14.197         	7.323
MS.314         	14.17          	7.243
MS.315         	14.142         	7.321
MS.316         	14.112         	7.36
MS.317         	14.085         	7.317
MS.318         	14.057         	7.311
MS.319         	14.03          	7.289
MS.320         	14             	7.17
MS.321         	13.972         	7.277
MS.322         	13.945         	7.291
MS.323         	13.917         	7.225
MS.324         	13.89          	7.162
MS.325         	13.862         	7.241
MS.326         	13.835         	7.201
MS.327         	13.807         	7.17
MS.328         	13.78          	7.18
MS.329         	13.752         	7.221
MS.330         	13.725         	7.14
MS.331         	13.697         	7.178
MS.332         	13.67          	7.17
MS.333         	13.642         	7.16
MS.334         	13.615         	7.16
MS.335         	13.587         	7.182
MS.336         	13.56          	7.156
MS.337         	13.532         	7.088
MS.338         	13.505         	7.114
MS.339         	13.48          	7.142
MS.340         	13.452         	7.015
MS.341         	13.425         	7.09
MS.342         	13.398         	7.07
MS.343         	13.372         	7.037
MS.344         	13.345         	7.046
MS.345         	13.318         	6.955
MS.346         	13.292         	7.027
MS.347         	13.265         	7.048
MS.348         	13.237         	6.981
MS.349         	13.212         	6.961
MS.350         	13.185         	7.005
MS.351         	13.16          	6.941
MS.352         	13.132         	6.898
MS.353         	13.108         	6.911
MS.354         	13.08          	6.852
MS.355         	13.055         	6.741
MS.356         	13.028         	6.778
MS.357         	13.002         	6.719
MS.358         	12.977         	6.794
MS.359         	12.95          	6.623
MS.360         	12.925         	6.645
MS.361         	12.9           	6.806
MS.362         	12.872         	6.629
MS.363         	12.847         	6.667
MS.364         	12.822         	6.619
MS.365         	12.795         	6.328
MS.366         	12.77          	6.556
MS.367         	12.745         	6.415
MS.368         	12.72          	6.6
MS.369         	12.695         	6.459
MS.370         	12.67          	6.512
MS.371         	12.642         	6.433
MS.372         	12.617         	6.345
MS.373         	12.592         	6.463
MS.374         	12.568         	6.322
MS.375         	12.542         	6.175
MS.376         	12.517         	6.302
MS.377         	12.492         	5.988
MS.378         	12.467         	6.053
MS.379         	12.443         	6.27
MS.380         	12.417         	6.083
MS.381         	12.392         	6.03
MS.382         	12.367         	6.097
MS.383         	12.342         	6.034
MS.384         	12.32          	5.893
MS.385         	12.295         	5.754
MS.386         	12.27          	5.908
MS.387         	12.245         	5.847
MS.388         	12.22          	5.908
MS.389         	12.197         	5.795
MS.390         	12.172         	5.662
MS.391         	12.148         	5.736
MS.392         	12.122         	5.771
MS.393         	12.1           	5.644
MS.394         	12.075         	5.718
MS.395         	12.05          	5.716
MS.396         	12.028         	5.752
MS.397         	12.002         	5.654
MS.398         	11.98          	5.648
MS.399         	11.955         	5.571
MS.400         	11.93          	5.579
MS.401         	11.907         	5.569
MS.402         	11.882         	5.523
MS.403         	11.86          	5.543
MS.404         	11.835         	5.535
MS.405         	11.812         	5.539
MS.406         	11.787         	5.547
MS.407         	11.765         	5.529
MS.408         	11.742         	5.547
MS.409         	11.717         	5.537
MS.410         	11.695         	5.615
MS.411         	11.672         	5.432
MS.412         	11.648         	5.559
MS.413         	11.625         	5.454
MS.414         	11.602         	5.434
MS.415         	11.577         	5.39
MS.416         	11.555         	5.352
MS.417         	11.532         	5.07
MS.418         	11.51          	5.213
MS.419         	11.485         	5.317
MS.420         	11.462         	5.019
MS.421         	11.44          	5.269
MS.422         	11.417         	5.168
MS.423         	11.395         	5.108
MS.424         	11.372         	5.17
MS.425         	11.35          	4.969
MS.426         	11.327         	4.983
MS.427         	11.305         	4.83
MS.428         	11.28          	5.07
MS.429         	11.257         	4.911
MS.430         	11.235         	4.9
MS.431         	11.215         	4.574
MS.432         	11.193         	4.477
MS.433         	11.17          	4.653
MS.434         	11.148         	4.629
MS.435         	11.125         	4.725
MS.436         	11.102         	4.576
MS.437         	11.08          	4.645
MS.438         	11.057         	4.687
MS.439         	11.035         	4.598
MS.440         	11.012         	4.488
MS.441         	10.992         	4.411
MS.442         	10.97          	4.383
MS.443         	10.948         	4.395
MS.444         	10.925         	4.308
MS.445         	10.905         	4.351
MS.446         	10.882         	4.312
MS.447         	10.86          	4.405
MS.448         	10.84          	4.345
MS.449         	10.818         	4.226
MS.450         	10.795         	4.222
MS.451         	10.775         	4.284
MS.452         	10.752         	4.115
MS.453         	10.73          	4.02
MS.454         	10.71          	4.185
MS.455         	10.688         	4.175
MS.456         	10.667         	3.952
MS.457         	10.645         	4.181
MS.458         	10.625         	4.008
MS.459         	10.602         	4.095
MS.460         	10.582         	3.932
MS.461         	10.56          	3.94
MS.462         	10.54          	3.964
MS.463         	10.517         	4.087
MS.464         	10.497         	3.891
MS.465         	10.477         	3.928
MS.466         	10.455         	3.684
MS.467         	10.435         	3.883
MS.468         	10.415         	3.811
MS.469         	10.392         	3.636
MS.470         	10.372         	3.73
MS.471         	10.352         	3.775
MS.472         	10.33          	3.754
MS.473         	10.31          	3.686
MS.474         	10.29          	3.76
MS.475         	10.27          	3.694
MS.476         	10.247         	3.617
MS.477         	10.227         	3.644
MS.478         	10.207         	3.752
MS.479         	10.188         	3.666
MS.480         	10.167         	3.553
MS.481         	10.148         	3.513
MS.482         	10.127         	3.468
MS.483         	10.105         	3.563
MS.484         	10.085         	3.448
MS.485         	10.065         	3.533
MS.486         	10.045         	3.531
MS.487         	10.025         	3.509
MS.488         	10.005         	3.414
MS.489         	9.985          	3.317
MS.490         	9.965          	3.396
MS.491         	9.945          	3.416
MS.492         	9.925          	3.293
MS.493         	9.905          	3.291
MS.494         	9.885          	3.295
MS.495         	9.867          	3.253
MS.496         	9.847          	3.158
MS.497         	9.827          	3.209
MS.498         	9.807          	3.094
MS.499         	9.787          	3.001
MS.500         	9.767          	3.039
MS.501         	9.75           	2.949
MS.502         	9.73           	2.923
