File:              	C:\Qtrac\Data\Daniel M Sørensen\MScan multicentre study\Data from centres\Oslo\Processed data\SZC00608A.QZD
Name:              	NO.OSL.NC.14.2
Protocol:          	MSCAN-R2
Date:              	8/6/20
Start time:        	16:01:47
Age:               	28
Sex:               	F
Temperature:       	30.0
S/R sites:         	APB
NC/disease:        	NC14
Operator:          	SZ
Comments:          	Test2
M-SCAN DATA (6.2-2.1m)
Scanpts: 4, 29, 433, 443
Stim. (mA)     	Amp. (mV)
MS.1           	11             	12.252
MS.2           	11             	12.264
MS.3           	11             	12.24
MS.4           	11             	12.272
MS.5           	11             	12.23
MS.6           	11             	12.224
MS.7           	11             	12.228
MS.8           	11             	12.234
MS.9           	11             	12.234
MS.10          	11             	12.224
MS.11          	11             	12.214
MS.12          	11             	12.254
MS.13          	11             	12.238
MS.14          	11             	12.21
MS.15          	11             	12.23
MS.16          	11             	12.244
MS.17          	11             	12.24
MS.18          	11             	12.27
MS.19          	11             	12.228
MS.20          	11             	12.25
MS.21          	11             	12.234
MS.22          	11             	12.252
MS.23          	11             	12.254
MS.24          	10.955         	12.23
MS.25          	10.935         	12.23
MS.26          	10.912         	12.238
MS.27          	10.89          	12.242
MS.28          	10.867         	12.256
MS.29          	10.847         	12.24
MS.30          	10.825         	12.224
MS.31          	10.802         	12.226
MS.32          	10.782         	12.248
MS.33          	10.76          	12.234
MS.34          	10.74          	12.232
MS.35          	10.717         	12.222
MS.36          	10.695         	12.254
MS.37          	10.675         	12.238
MS.38          	10.653         	12.262
MS.39          	10.632         	12.24
MS.40          	10.61          	12.246
MS.41          	10.59          	12.176
MS.42          	10.568         	12.232
MS.43          	10.547         	12.168
MS.44          	10.528         	12.296
MS.45          	10.505         	12.127
MS.46          	10.485         	12.266
MS.47          	10.462         	12.155
MS.48          	10.443         	12.23
MS.49          	10.422         	12.226
MS.50          	10.4           	12.117
MS.51          	10.38          	12.123
MS.52          	10.36          	12.194
MS.53          	10.337         	12.021
MS.54          	10.318         	12.133
MS.55          	10.297         	12.109
MS.56          	10.278         	12.071
MS.57          	10.257         	12.143
MS.58          	10.235         	12.059
MS.59          	10.215         	12.057
MS.60          	10.195         	12.079
MS.61          	10.175         	12.061
MS.62          	10.155         	12.081
MS.63          	10.135         	12.073
MS.64          	10.113         	12.077
MS.65          	10.092         	12.069
MS.66          	10.073         	12.081
MS.67          	10.052         	12.065
MS.68          	10.032         	12.057
MS.69          	10.012         	11.988
MS.70          	9.992          	12.087
MS.71          	9.972          	11.984
MS.72          	9.952          	12.085
MS.73          	9.932          	11.972
MS.74          	9.912          	12.083
MS.75          	9.892          	11.978
MS.76          	9.875          	11.978
MS.77          	9.855          	11.962
MS.78          	9.835          	11.984
MS.79          	9.815          	11.97
MS.80          	9.795          	12.065
MS.81          	9.775          	11.976
MS.82          	9.755          	11.966
MS.83          	9.738          	11.962
MS.84          	9.717          	11.914
MS.85          	9.698          	11.928
MS.86          	9.677          	11.914
MS.87          	9.66           	11.912
MS.88          	9.64           	11.92
MS.89          	9.62           	11.821
MS.90          	9.6            	11.914
MS.91          	9.582          	11.882
MS.92          	9.562          	11.855
MS.93          	9.545          	11.962
MS.94          	9.525          	11.767
MS.95          	9.505          	11.861
MS.96          	9.488          	11.827
MS.97          	9.467          	11.634
MS.98          	9.45           	11.793
MS.99          	9.43           	11.652
MS.100         	9.41           	11.745
MS.101         	9.392          	11.547
MS.102         	9.372          	11.507
MS.103         	9.355          	11.598
MS.104         	9.335          	11.638
MS.105         	9.318          	11.553
MS.106         	9.3            	11.551
MS.107         	9.28           	11.674
MS.108         	9.262          	11.561
MS.109         	9.242          	11.513
MS.110         	9.225          	11.509
MS.111         	9.207          	11.688
MS.112         	9.188          	11.561
MS.113         	9.17           	11.481
MS.114         	9.153          	11.475
MS.115         	9.132          	11.521
MS.116         	9.115          	11.521
MS.117         	9.097          	11.491
MS.118         	9.077          	11.354
MS.119         	9.06           	11.529
MS.120         	9.042          	11.43
MS.121         	9.025          	11.316
MS.122         	9.005          	11.428
MS.123         	8.988          	11.322
MS.124         	8.97           	11.398
MS.125         	8.952          	11.326
MS.126         	8.935          	10.83
MS.127         	8.917          	11.092
MS.128         	8.898          	11.102
MS.129         	8.88           	11.138
MS.130         	8.863          	11.221
MS.131         	8.845          	11.021
MS.132         	8.827          	10.961
MS.133         	8.81           	10.905
MS.134         	8.792          	11.144
MS.135         	8.775          	10.941
MS.136         	8.757          	10.77
MS.137         	8.74           	10.802
MS.138         	8.722          	10.788
MS.139         	8.705          	10.496
MS.140         	8.688          	10.359
MS.141         	8.67           	10.498
MS.142         	8.653          	10.518
MS.143         	8.635          	10.232
MS.144         	8.617          	10.246
MS.145         	8.6            	9.924
MS.146         	8.585          	9.98
MS.147         	8.568          	9.996
MS.148         	8.55           	10.089
MS.149         	8.533          	9.771
MS.150         	8.515          	9.712
MS.151         	8.497          	10.093
MS.152         	8.483          	9.509
MS.153         	8.465          	9.42
MS.154         	8.448          	9.73
MS.155         	8.43           	9.616
MS.156         	8.415          	9.265
MS.157         	8.398          	9.471
MS.158         	8.38           	9.078
MS.159         	8.363          	8.592
MS.160         	8.347          	8.816
MS.161         	8.33           	8.882
MS.162         	8.312          	8.526
MS.163         	8.297          	8.574
MS.164         	8.28           	8.407
MS.165         	8.265          	8.592
MS.166         	8.247          	8.717
MS.167         	8.23           	8.484
MS.168         	8.215          	8.129
MS.169         	8.198          	8.24
MS.170         	8.182          	7.823
MS.171         	8.165          	7.682
MS.172         	8.15           	7.934
MS.173         	8.132          	7.678
MS.174         	8.117          	7.775
MS.175         	8.1            	7.805
MS.176         	8.085          	7.823
MS.177         	8.068          	7.475
MS.178         	8.052          	7.646
MS.179         	8.035          	7.549
MS.180         	8.02           	7.217
MS.181         	8.002          	7.315
MS.182         	7.987          	7.684
MS.183         	7.972          	7.106
MS.184         	7.955          	6.737
MS.185         	7.94           	6.878
MS.186         	7.925          	7.072
MS.187         	7.907          	6.619
MS.188         	7.892          	6.615
MS.189         	7.878          	6.935
MS.190         	7.86           	6.651
MS.191         	7.845          	6.216
MS.192         	7.83           	6.28
MS.193         	7.815          	6.377
MS.194         	7.797          	6.351
MS.195         	7.782          	5.861
MS.196         	7.767          	6.03
MS.197         	7.753          	6.04
MS.198         	7.735          	5.523
MS.199         	7.72           	5.541
MS.200         	7.705          	5.603
MS.201         	7.69           	5.199
MS.202         	7.675          	5.346
MS.203         	7.66           	5.593
MS.204         	7.645          	4.967
MS.205         	7.628          	5.019
MS.206         	7.612          	5.277
MS.207         	7.597          	5.132
MS.208         	7.582          	5.281
MS.209         	7.567          	5.045
MS.210         	7.552          	4.306
MS.211         	7.537          	4.51
MS.212         	7.523          	4.322
MS.213         	7.507          	4.51
MS.214         	7.492          	3.853
MS.215         	7.477          	3.964
MS.216         	7.462          	3.116
MS.217         	7.447          	3.499
MS.218         	7.432          	4.179
MS.219         	7.418          	3.714
MS.220         	7.402          	2.89
MS.221         	7.387          	3.021
MS.222         	7.372          	2.87
MS.223         	7.36           	3.11
MS.224         	7.345          	3.225
MS.225         	7.33           	3.19
MS.226         	7.315          	2.747
MS.227         	7.3            	2.896
MS.228         	7.285          	2.475
MS.229         	7.27           	2.542
MS.230         	7.257          	2.457
MS.231         	7.242          	2.441
MS.232         	7.227          	2.314
MS.233         	7.212          	2.471
MS.234         	7.197          	2.163
MS.235         	7.185          	2.203
MS.236         	7.17           	2.246
MS.237         	7.155          	1.648
MS.238         	7.142          	2.191
MS.239         	7.128          	1.875
MS.240         	7.112          	1.642
MS.241         	7.097          	1.521
MS.242         	7.085          	1.521
MS.243         	7.07           	1.754
MS.244         	7.055          	1.577
MS.245         	7.043          	1.521
MS.246         	7.027          	1.478
MS.247         	7.015          	1.581
MS.248         	7              	1.239
MS.249         	6.985          	1.211
MS.250         	6.972          	1.241
MS.251         	6.957          	1.196
MS.252         	6.945          	1.178
MS.253         	6.93           	1.269
MS.254         	6.918          	1.251
MS.255         	6.902          	1.301
MS.256         	6.89           	1.231
MS.257         	6.875          	1.172
MS.258         	6.862          	0.999
MS.259         	6.847          	1.142
MS.260         	6.835          	1.039
MS.261         	6.82           	1.023
MS.262         	6.807          	0.969
MS.263         	6.793          	0.963
MS.264         	6.78           	0.924
MS.265         	6.765          	0.908
MS.266         	6.753          	0.904
MS.267         	6.74           	0.884
MS.268         	6.725          	0.842
MS.269         	6.712          	0.818
MS.270         	6.697          	0.745
MS.271         	6.685          	0.794
MS.272         	6.672          	0.802
MS.273         	6.657          	0.763
MS.274         	6.645          	0.749
MS.275         	6.632          	0.838
MS.276         	6.617          	0.725
MS.277         	6.605          	0.477
MS.278         	6.592          	0.723
MS.279         	6.58           	0.775
MS.280         	6.565          	0.568
MS.281         	6.552          	0.703
MS.282         	6.54           	0.415
MS.283         	6.527          	0.707
MS.284         	6.512          	0.431
MS.285         	6.5            	0.534
MS.286         	6.487          	0.302
MS.287         	6.475          	0.52
MS.288         	6.462          	0.284
MS.289         	6.45           	0.504
MS.290         	6.435          	0.348
MS.291         	6.422          	0.218
MS.292         	6.41           	0.359
MS.293         	6.398          	0.248
MS.294         	6.385          	0.34
MS.295         	6.372          	0.328
MS.296         	6.36           	0.205
MS.297         	6.347          	0.199
MS.298         	6.332          	0.155
MS.299         	6.32           	0.207
MS.300         	6.307          	0.143
MS.301         	6.295          	0.163
MS.302         	6.282          	0.191
MS.303         	6.27           	0.143
MS.304         	6.257          	0.173
MS.305         	6.245          	0.203
MS.306         	6.233          	0.147
MS.307         	6.22           	0.147
MS.308         	6.207          	0.224
MS.309         	6.195          	0.147
MS.310         	6.182          	0.121
MS.311         	6.17           	0.179
MS.312         	6.16           	0.123
MS.313         	6.148          	0.121
MS.314         	6.135          	0.123
MS.315         	6.122          	0.121
MS.316         	6.11           	0.123
MS.317         	6.097          	0.125
MS.318         	6.085          	0.123
MS.319         	6.072          	0.127
MS.320         	6.06           	0.125
MS.321         	6.05           	0.121
MS.322         	6.037          	0.121
MS.323         	6.025          	0.125
MS.324         	6.012          	0.121
MS.325         	6              	0.099
MS.326         	5.99           	0.097
MS.327         	5.977          	0.095
MS.328         	5.965          	0.095
MS.329         	5.952          	0.097
MS.330         	5.94           	0.095
MS.331         	5.93           	0.093
MS.332         	5.918          	0.099
MS.333         	5.905          	0.097
MS.334         	5.892          	0.099
MS.335         	5.882          	0.093
MS.336         	5.87           	0.091
MS.337         	5.858          	0.097
MS.338         	5.847          	0.097
MS.339         	5.835          	0.097
MS.340         	5.822          	0.097
MS.341         	5.812          	0.099
MS.342         	5.8            	0.095
MS.343         	5.787          	0.095
MS.344         	5.777          	0.085
MS.345         	5.765          	0.083
MS.346         	5.755          	0.087
MS.347         	5.742          	0.091
MS.348         	5.73           	0.095
MS.349         	5.72           	0.097
MS.350         	5.707          	0.085
MS.351         	5.697          	0.093
MS.352         	5.685          	0.095
MS.353         	5.675          	0.087
MS.354         	5.662          	0.087
MS.355         	5.652          	0.085
MS.356         	5.64           	0.087
MS.357         	5.63           	0.087
MS.358         	5.617          	0.087
MS.359         	5.608          	0.087
MS.360         	5.595          	0.087
MS.361         	5.585          	0.085
MS.362         	5.572          	0.089
MS.363         	5.562          	0.089
MS.364         	5.55           	0.085
MS.365         	5.54           	0.085
MS.366         	5.527          	0.085
MS.367         	5.517          	0.087
MS.368         	5.507          	0.091
MS.369         	5.495          	0.089
MS.370         	5.485          	0.087
MS.371         	5.472          	0.087
MS.372         	5.463          	0.089
MS.373         	5.452          	0.095
MS.374         	5.44           	0.093
MS.375         	5.43           	0.089
MS.376         	5.42           	0.091
MS.377         	5.407          	0.087
MS.378         	5.398          	0.083
MS.379         	5.387          	0.089
MS.380         	5.375          	0.087
MS.381         	5.365          	0.089
MS.382         	5.355          	0.087
MS.383         	5.342          	0.087
MS.384         	5.332          	0.087
MS.385         	5.322          	0.087
MS.386         	5.312          	0.087
MS.387         	5.3            	0.089
MS.388         	5.29           	0.085
MS.389         	5.28           	0.089
MS.390         	5.27           	0.087
MS.391         	5.257          	0.089
MS.392         	5.247          	0.085
MS.393         	5.237          	0.087
MS.394         	5.227          	0.085
MS.395         	5.217          	0.085
MS.396         	5.207          	0.087
MS.397         	5.195          	0.091
MS.398         	5.185          	0.089
MS.399         	5.175          	0.091
MS.400         	5.165          	0.087
MS.401         	5.155          	0.091
MS.402         	5.145          	0.087
MS.403         	5.135          	0.087
MS.404         	5.125          	0.087
MS.405         	5.112          	0.089
MS.406         	5.102          	0.085
MS.407         	5.092          	0.085
MS.408         	5.082          	0.091
MS.409         	5.072          	0.087
MS.410         	5.062          	0.087
MS.411         	5.052          	0.085
MS.412         	5.043          	0.085
MS.413         	5.032          	0.083
MS.414         	5.023          	0.087
MS.415         	5.012          	0.083
MS.416         	5.003          	0.089
MS.417         	4.992          	0.087
MS.418         	4.983          	0.022
MS.419         	4.972          	0.024
MS.420         	4.963          	0.085
MS.421         	4.952          	0.089
MS.422         	4.943          	0.085
MS.423         	4.932          	0.022
MS.424         	4.922          	0.018
MS.425         	4.912          	0.022
MS.426         	4.902          	0.022
MS.427         	4.892          	0.02
MS.428         	4.882          	0.022
MS.429         	4.875          	0.022
MS.430         	4.865          	0.02
MS.431         	4.855          	0.022
MS.432         	4.845          	0.02
MS.433         	4.835          	0.024
MS.434         	4.825          	0.024
MS.435         	4.815          	0.024
MS.436         	4.805          	0.022
MS.437         	4.797          	0.02
MS.438         	4.787          	0.02
MS.439         	4.777          	0.018
MS.440         	4.767          	0.024
MS.441         	4.757          	0.022
MS.442         	4.75           	0.018
MS.443         	4.74           	0.02
MS.444         	4.73           	0.018
MS.445         	4.72           	0.024
MS.446         	4.71           	0.02
MS.447         	4.702          	0.026
MS.448         	4.693          	0.022
DERIVED EXCITABILITY VARIABLES
Program = QTracP 3/4/2020
Threshold method = 6 (optimised for CAP, using data for present condition only)
SR method = 1 (using actual data values)
6.                 	0.000               	Peak response\(mV)
9.                 	30                  	Temperature ( C)
17.                	28                  	Age (years)
18.                	2                   	Sex (M=1, F=2)

EXTRA VARIABLES

MScPeak(mV) = 12.22
MScS5(mA) = 6.56
MScS50(mA) = 7.79
MScS95(mA) = 9.29
MScNSteps = 4
MScSteps(%) = 10.3
MScStepMax(%) = 3.7
MScD50 = 34
MScSlope = 7.64
MSFPeakAmp(mV) = 12.2
MSFNUnits = 137
MSFMeanUnitAmp(uV) = 89.2
MSFHuntTime(m) = 2.48
MSFError(%) = 2.5
MSFNLarge = 41.7
MSFMedianAmp(%) = 0.661
MSFMedianAmp(mV) = 0.0808
MSFHalfAmpAmp(%) = 0.795
MSFHalfAmpAmp(mV) = 0.0972
MSFLargestAmp(%) = 3.16
MSFLargestAmp(mV) = 0.387
MSFMeanRS(%) = 2.01
MSFOpts = 10106121
MScDuration(min) = 4.1
MSFTraces = 440
MSFSizeLimit(uV) = 30.5
MSFLimitType = 1
MSFSmallestAmp(uV) = 30.8

EXTRA WAVEFORMS


!MScan Model
!137
	1	4.95	0.25	2
	2	5.88	0.64	2
	3	6.28	0.45	2
	4	6.35	0.34	2
	5	6.38	0.39	2
	6	6.43	0.53	2
	7	6.46	0.53	2
	8	6.5	0.69	2
	9	6.55	0.83	2
	10	6.63	1.12	2
	11	6.67	0.36	2
	12	6.7	0.36	2
	13	6.73	0.35	2
	14	6.76	0.45	2
	15	6.78	0.27	2
	16	6.8	0.32	2
	17	6.82	0.53	2
	18	6.85	0.38	2
	19	6.87	0.29	2
	20	6.9	0.38	2
	21	6.93	0.57	2
	22	6.96	0.49	2
	23	6.99	0.42	2
	24	7.02	0.54	2
	25	7.04	0.55	2
	26	7.07	0.95	2
	27	7.09	0.76	2
	28	7.1	0.54	2
	29	7.12	0.44	2.4
	30	7.13	0.45	2
	31	7.14	0.52	2
	32	7.16	0.62	2
	33	7.17	0.63	2
	34	7.2	1.55	2
	35	7.22	0.72	2
	36	7.25	1.41	2
	37	7.29	1.42	2
	38	7.34	1.89	2
	39	7.4	3.16	2
	40	7.42	0.91	2
	41	7.44	1.08	2
	42	7.46	1.22	2
	43	7.47	1.12	2
	44	7.48	0.96	2
	45	7.49	0.91	2
	46	7.51	0.44	2
	47	7.51	0.3	2
	48	7.52	0.69	2
	49	7.53	0.89	2
	50	7.54	0.98	2
