File:              	C:\Qtrac\Data\Daniel M Sørensen\MScan multicentre study\Data from centres\Oslo\IronKey\Oslo_NC_first examination\SZC00602B.QZD
Name:              	NO.OSL.NC.15.1
Protocol:          	MSCAN-R2
Date:              	2/6/20
Start time:        	16:19:18
Age:               	41
Sex:               	M
Temperature:       	34.0
S/R sites:         	Ulnar Wr-ADM
NC/disease:        	NC15
Operator:          	SZ
Comments:          	Test1
M-SCAN DATA (10.5-5m)
Scanpts: 19, 24, 574, 596
Stim. (mA)     	Amp. (mV)
MS.1           	30.5           	12.282
MS.2           	30.5           	12.315
MS.3           	30.5           	12.357
MS.4           	30.5           	12.339
MS.5           	30.5           	12.335
MS.6           	30.5           	12.375
MS.7           	30.5           	12.405
MS.8           	30.5           	12.383
MS.9           	30.5           	12.349
MS.10          	30.5           	12.391
MS.11          	30.5           	12.409
MS.12          	30.5           	12.472
MS.13          	30.5           	12.464
MS.14          	30.5           	12.437
MS.15          	30.5           	12.427
MS.16          	30.5           	12.441
MS.17          	30.5           	12.443
MS.18          	30.5           	12.407
MS.19          	30.5           	12.445
MS.20          	30.5           	12.474
MS.21          	30.5           	12.462
MS.22          	30.5           	12.46
MS.23          	30.5           	12.458
MS.24          	30.377         	12.439
MS.25          	30.317         	12.439
MS.26          	30.257         	12.427
MS.27          	30.198         	12.516
MS.28          	30.135         	12.476
MS.29          	30.075         	12.474
MS.30          	30.015         	12.454
MS.31          	29.955         	12.458
MS.32          	29.895         	12.401
MS.33          	29.835         	12.454
MS.34          	29.778         	12.415
MS.35          	29.717         	12.48
MS.36          	29.657         	12.478
MS.37          	29.597         	12.435
MS.38          	29.54          	12.45
MS.39          	29.48          	12.474
MS.40          	29.422         	12.405
MS.41          	29.362         	12.431
MS.42          	29.305         	12.443
MS.43          	29.245         	12.437
MS.44          	29.188         	12.441
MS.45          	29.127         	12.397
MS.46          	29.07          	12.423
MS.47          	29.012         	12.381
MS.48          	28.955         	12.375
MS.49          	28.897         	12.373
MS.50          	28.84          	12.415
MS.51          	28.78          	12.331
MS.52          	28.722         	12.357
MS.53          	28.667         	12.355
MS.54          	28.61          	12.339
MS.55          	28.552         	12.359
MS.56          	28.495         	12.302
MS.57          	28.438         	12.315
MS.58          	28.38          	12.284
MS.59          	28.325         	12.268
MS.60          	28.267         	12.258
MS.61          	28.212         	12.278
MS.62          	28.155         	12.288
MS.63          	28.097         	12.333
MS.64          	28.042         	12.292
MS.65          	27.987         	12.315
MS.66          	27.93          	12.307
MS.67          	27.875         	12.305
MS.68          	27.82          	12.288
MS.69          	27.762         	12.252
MS.70          	27.707         	12.264
MS.71          	27.653         	12.29
MS.72          	27.597         	12.313
MS.73          	27.542         	12.23
MS.74          	27.487         	12.296
MS.75          	27.432         	12.232
MS.76          	27.377         	12.232
MS.77          	27.323         	12.226
MS.78          	27.267         	12.204
MS.79          	27.215         	12.208
MS.80          	27.16          	12.228
MS.81          	27.105         	12.161
MS.82          	27.05          	12.228
MS.83          	26.997         	12.172
MS.84          	26.942         	12.192
MS.85          	26.89          	12.206
MS.86          	26.835         	12.145
MS.87          	26.782         	12.147
MS.88          	26.727         	12.061
MS.89          	26.675         	12.133
MS.90          	26.622         	12.053
MS.91          	26.567         	12.123
MS.92          	26.515         	11.936
MS.93          	26.462         	11.982
MS.94          	26.41          	11.956
MS.95          	26.358         	11.956
MS.96          	26.305         	11.928
MS.97          	26.252         	11.878
MS.98          	26.2           	11.815
MS.99          	26.147         	11.801
MS.100         	26.095         	11.7
MS.101         	26.042         	11.819
MS.102         	25.99          	11.728
MS.103         	25.938         	11.682
MS.104         	25.887         	11.696
MS.105         	25.835         	11.654
MS.106         	25.782         	11.708
MS.107         	25.733         	11.829
MS.108         	25.68          	11.684
MS.109         	25.63          	11.809
MS.110         	25.577         	11.743
MS.111         	25.528         	11.678
MS.112         	25.475         	11.626
MS.113         	25.425         	11.644
MS.114         	25.375         	11.467
MS.115         	25.323         	11.65
MS.116         	25.272         	11.467
MS.117         	25.222         	11.563
MS.118         	25.172         	11.114
MS.119         	25.122         	11.372
MS.120         	25.073         	11.342
MS.121         	25.02          	11.104
MS.122         	24.97          	11.32
MS.123         	24.922         	11.134
MS.124         	24.872         	11.185
MS.125         	24.823         	11.263
MS.126         	24.772         	10.868
MS.127         	24.722         	10.86
MS.128         	24.672         	10.953
MS.129         	24.625         	10.594
MS.130         	24.575         	10.31
MS.131         	24.525         	10.308
MS.132         	24.477         	10.566
MS.133         	24.427         	10.727
MS.134         	24.38          	10.552
MS.135         	24.33          	10.206
MS.136         	24.282         	10.554
MS.137         	24.233         	10.02
MS.138         	24.185         	9.783
MS.139         	24.137         	10.123
MS.140         	24.087         	9.406
MS.141         	24.04          	10.306
MS.142         	23.993         	9.324
MS.143         	23.945         	9.348
MS.144         	23.897         	9.553
MS.145         	23.847         	9.374
MS.146         	23.8           	9.527
MS.147         	23.752         	9.4
MS.148         	23.705         	9.056
MS.149         	23.657         	9.072
MS.150         	23.61          	9.263
MS.151         	23.565         	9.094
MS.152         	23.517         	9.001
MS.153         	23.47          	9.11
MS.154         	23.422         	8.8
MS.155         	23.377         	9.38
MS.156         	23.33          	8.808
MS.157         	23.282         	8.723
MS.158         	23.237         	8.667
MS.159         	23.19          	8.798
MS.160         	23.142         	8.814
MS.161         	23.097         	8.314
MS.162         	23.052         	8.482
MS.163         	23.005         	8.383
MS.164         	22.96          	8.28
MS.165         	22.913         	8.294
MS.166         	22.868         	8.282
MS.167         	22.823         	8.276
MS.168         	22.778         	7.904
MS.169         	22.73          	8.163
MS.170         	22.685         	8.103
MS.171         	22.64          	7.976
MS.172         	22.595         	7.865
MS.173         	22.55          	7.95
MS.174         	22.505         	7.902
MS.175         	22.46          	7.763
MS.176         	22.415         	7.781
MS.177         	22.37          	7.62
MS.178         	22.325         	7.833
MS.179         	22.28          	7.69
MS.180         	22.235         	7.69
MS.181         	22.192         	7.728
MS.182         	22.147         	7.509
MS.183         	22.102         	7.386
MS.184         	22.06          	7.382
MS.185         	22.015         	7.297
MS.186         	21.97          	7.575
MS.187         	21.927         	7.239
MS.188         	21.882         	7.299
MS.189         	21.84          	7.39
MS.190         	21.795         	7.211
MS.191         	21.752         	7.136
MS.192         	21.71          	7.027
MS.193         	21.665         	7.076
MS.194         	21.622         	7.241
MS.195         	21.58          	6.927
MS.196         	21.535         	6.804
MS.197         	21.493         	6.824
MS.198         	21.45          	6.689
MS.199         	21.407         	6.776
MS.200         	21.365         	6.788
MS.201         	21.323         	6.705
MS.202         	21.28          	6.548
MS.203         	21.237         	6.667
MS.204         	21.195         	6.598
MS.205         	21.153         	6.955
MS.206         	21.11          	6.028
MS.207         	21.067         	6.359
MS.208         	21.025         	6.127
MS.209         	20.983         	6.109
MS.210         	20.942         	5.901
MS.211         	20.9           	6.181
MS.212         	20.858         	6.157
MS.213         	20.815         	6.244
MS.214         	20.775         	6.26
MS.215         	20.733         	6.502
MS.216         	20.692         	6.065
MS.217         	20.65          	5.704
MS.218         	20.61          	5.787
MS.219         	20.567         	5.845
MS.220         	20.528         	5.567
MS.221         	20.485         	5.672
MS.222         	20.445         	5.444
MS.223         	20.405         	5.563
MS.224         	20.362         	5.646
MS.225         	20.323         	5.611
MS.226         	20.282         	5.551
MS.227         	20.243         	5.394
MS.228         	20.2           	5.464
MS.229         	20.16          	5.613
MS.230         	20.12          	5.394
MS.231         	20.08          	5.336
MS.232         	20.04          	5.368
MS.233         	20             	5.481
MS.234         	19.96          	5.414
MS.235         	19.92          	5.364
MS.236         	19.88          	5.468
MS.237         	19.84          	5.342
MS.238         	19.8           	5.394
MS.239         	19.76          	5.311
MS.240         	19.722         	5.412
MS.241         	19.682         	5.309
MS.242         	19.642         	5.34
MS.243         	19.605         	5.229
MS.244         	19.565         	5.309
MS.245         	19.525         	5.209
MS.246         	19.487         	5.231
MS.247         	19.448         	5.146
MS.248         	19.407         	5.178
MS.249         	19.37          	5.219
MS.250         	19.33          	5.265
MS.251         	19.292         	5.12
MS.252         	19.255         	5.013
MS.253         	19.215         	5.162
MS.254         	19.177         	5.267
MS.255         	19.14          	5.043
MS.256         	19.1           	5.041
MS.257         	19.062         	4.906
MS.258         	19.025         	4.963
MS.259         	18.987         	5.054
MS.260         	18.948         	4.981
MS.261         	18.91          	4.85
MS.262         	18.872         	4.955
MS.263         	18.835         	4.963
MS.264         	18.797         	4.804
MS.265         	18.76          	4.963
MS.266         	18.722         	4.776
MS.267         	18.685         	4.761
MS.268         	18.647         	4.808
MS.269         	18.61          	4.858
MS.270         	18.573         	4.689
MS.271         	18.535         	4.971
MS.272         	18.5           	4.665
MS.273         	18.462         	4.866
MS.274         	18.425         	4.687
MS.275         	18.387         	4.598
MS.276         	18.352         	4.824
MS.277         	18.315         	4.707
MS.278         	18.278         	4.667
MS.279         	18.243         	4.629
MS.280         	18.205         	4.679
MS.281         	18.17          	4.663
MS.282         	18.132         	4.635
MS.283         	18.097         	4.546
MS.284         	18.06          	4.528
MS.285         	18.025         	4.614
MS.286         	17.987         	4.548
MS.287         	17.952         	4.57
MS.288         	17.917         	4.677
MS.289         	17.88          	4.528
MS.290         	17.845         	4.631
MS.291         	17.81          	4.498
MS.292         	17.772         	4.351
MS.293         	17.737         	4.447
MS.294         	17.702         	4.345
MS.295         	17.667         	4.522
MS.296         	17.632         	4.498
MS.297         	17.597         	4.397
MS.298         	17.562         	4.343
MS.299         	17.528         	4.387
MS.300         	17.493         	4.347
MS.301         	17.458         	4.212
MS.302         	17.422         	4.252
MS.303         	17.387         	4.25
MS.304         	17.352         	4.244
MS.305         	17.317         	4.117
MS.306         	17.282         	3.771
MS.307         	17.247         	4.214
MS.308         	17.215         	4
MS.309         	17.18          	3.899
MS.310         	17.145         	3.69
MS.311         	17.11          	4.073
MS.312         	17.077         	3.684
MS.313         	17.042         	4.105
MS.314         	17.007         	4.232
MS.315         	16.975         	3.39
MS.316         	16.94          	4.028
MS.317         	16.907         	3.867
MS.318         	16.872         	3.466
MS.319         	16.84          	3.436
MS.320         	16.805         	3.406
MS.321         	16.772         	3.414
MS.322         	16.737         	3.309
MS.323         	16.705         	3.452
MS.324         	16.672         	3.422
MS.325         	16.637         	3.428
MS.326         	16.605         	3.426
MS.327         	16.573         	3.416
MS.328         	16.54          	3.454
MS.329         	16.505         	3.46
MS.330         	16.472         	3.44
MS.331         	16.44          	3.192
MS.332         	16.407         	3.182
MS.333         	16.375         	3.168
MS.334         	16.342         	3.37
MS.335         	16.31          	3.263
MS.336         	16.278         	3.392
MS.337         	16.245         	3.366
MS.338         	16.212         	3.261
MS.339         	16.18          	3.178
MS.340         	16.147         	3.319
MS.341         	16.115         	3.134
MS.342         	16.083         	3.11
MS.343         	16.05          	2.84
MS.344         	16.017         	3.094
MS.345         	15.985         	3.136
MS.346         	15.955         	2.838
MS.347         	15.922         	2.828
MS.348         	15.89          	2.709
MS.349         	15.86          	2.836
MS.350         	15.827         	2.749
MS.351         	15.795         	2.604
MS.352         	15.765         	2.741
MS.353         	15.733         	2.135
MS.354         	15.7           	2.735
MS.355         	15.67          	2.624
MS.356         	15.637         	2.608
MS.357         	15.608         	2.548
MS.358         	15.575         	2.58
MS.359         	15.545         	2.572
MS.360         	15.512         	2.471
MS.361         	15.483         	2.49
MS.362         	15.452         	2.292
MS.363         	15.42          	1.911
MS.364         	15.39          	1.698
MS.365         	15.36          	1.934
MS.366         	15.327         	1.829
MS.367         	15.297         	2.33
MS.368         	15.267         	1.65
MS.369         	15.237         	1.722
MS.370         	15.207         	1.799
MS.371         	15.175         	1.72
MS.372         	15.145         	1.607
MS.373         	15.115         	1.66
MS.374         	15.085         	1.593
MS.375         	15.055         	1.781
MS.376         	15.025         	1.619
MS.377         	14.995         	1.64
MS.378         	14.965         	1.561
MS.379         	14.935         	1.414
MS.380         	14.905         	1.352
MS.381         	14.875         	1.424
MS.382         	14.845         	1.349
MS.383         	14.815         	1.313
MS.384         	14.787         	1.223
MS.385         	14.757         	1.231
MS.386         	14.727         	1.283
MS.387         	14.697         	1.347
MS.388         	14.67          	1.196
MS.389         	14.64          	1.104
MS.390         	14.61          	1.227
MS.391         	14.58          	1.098
MS.392         	14.552         	1.035
MS.393         	14.523         	1.211
MS.394         	14.495         	1.1
MS.395         	14.465         	1.031
MS.396         	14.435         	1.202
MS.397         	14.407         	1.025
MS.398         	14.377         	1.051
MS.399         	14.35          	1.035
MS.400         	14.32          	1.134
MS.401         	14.292         	0.969
MS.402         	14.265         	0.802
MS.403         	14.235         	0.558
MS.404         	14.207         	0.626
MS.405         	14.177         	0.6
MS.406         	14.15          	0.808
MS.407         	14.122         	0.614
MS.408         	14.092         	0.592
MS.409         	14.065         	0.848
MS.410         	14.037         	0.636
MS.411         	14.01          	0.628
MS.412         	13.983         	0.818
MS.413         	13.952         	0.59
MS.414         	13.925         	0.636
MS.415         	13.898         	0.628
MS.416         	13.87          	0.669
MS.417         	13.842         	0.622
MS.418         	13.815         	0.572
MS.419         	13.787         	0.661
MS.420         	13.76          	0.524
MS.421         	13.733         	0.572
MS.422         	13.705         	0.578
MS.423         	13.677         	0.574
MS.424         	13.65          	0.586
MS.425         	13.622         	0.497
MS.426         	13.595         	0.576
MS.427         	13.568         	0.504
MS.428         	13.54          	0.473
MS.429         	13.515         	0.602
MS.430         	13.487         	0.483
MS.431         	13.46          	0.437
MS.432         	13.432         	0.481
MS.433         	13.407         	0.435
MS.434         	13.38          	0.554
MS.435         	13.352         	0.383
MS.436         	13.325         	0.427
MS.437         	13.3           	0.538
MS.438         	13.273         	0.342
MS.439         	13.247         	0.363
MS.440         	13.22          	0.352
MS.441         	13.193         	0.316
MS.442         	13.167         	0.379
MS.443         	13.14          	0.35
MS.444         	13.115         	0.371
MS.445         	13.087         	0.429
MS.446         	13.062         	0.375
MS.447         	13.035         	0.296
MS.448         	13.01          	0.24
MS.449         	12.985         	0.262
MS.450         	12.957         	0.318
MS.451         	12.932         	0.201
MS.452         	12.907         	0.332
MS.453         	12.88          	0.234
MS.454         	12.855         	0.22
MS.455         	12.83          	0.304
MS.456         	12.802         	0.224
MS.457         	12.778         	0.195
MS.458         	12.752         	0.195
MS.459         	12.727         	0.29
MS.460         	12.702         	0.191
MS.461         	12.675         	0.137
MS.462         	12.65          	0.205
MS.463         	12.625         	0.121
MS.464         	12.6           	0.214
MS.465         	12.575         	0.187
MS.466         	12.55          	0.105
MS.467         	12.525         	0.177
MS.468         	12.5           	0.093
MS.469         	12.475         	0.115
MS.470         	12.45          	0.125
MS.471         	12.425         	0.191
MS.472         	12.4           	0.185
MS.473         	12.375         	0.101
MS.474         	12.35          	0.139
MS.475         	12.325         	0.123
MS.476         	12.302         	0.113
MS.477         	12.278         	0.113
MS.478         	12.252         	0.075
MS.479         	12.227         	0.125
MS.480         	12.202         	0.113
MS.481         	12.18          	0.058
MS.482         	12.155         	0.109
MS.483         	12.13          	0.111
MS.484         	12.108         	0.101
MS.485         	12.082         	0.115
MS.486         	12.057         	0.054
MS.487         	12.035         	0.143
MS.488         	12.01          	0.111
MS.489         	11.985         	0.056
MS.490         	11.962         	0.052
MS.491         	11.938         	0.107
MS.492         	11.915         	0.052
MS.493         	11.89          	0.077
MS.494         	11.867         	0.052
MS.495         	11.842         	0.06
MS.496         	11.82          	0.062
MS.497         	11.795         	0.05
