File:              	C:\Qtrac\Data\Daniel M Sørensen\MScan multicentre study\Data from centres\Oslo\IronKey\Oslo_NC_first examination\SZC00422B.QZD
Name:              	NO.OSL.NC.1.1
Protocol:          	MSCAN-R2
Date:              	22/4/20
Start time:        	07:50:58
Age:               	57
Sex:               	F
Temperature:       	31,1
S/R sites:         	Ulnaris Wr-APB
NC/disease:        	NC
Operator:          	SZ
Comments:
M-SCAN DATA (7.6-2.8m)
Scanpts: 6, 14, 461, 487
Stim. (mA)     	Amp. (mV)
MS.1           	21.5           	11.04
MS.2           	21.5           	11.191
MS.3           	21.5           	11.052
MS.4           	21.5           	11.052
MS.5           	21.5           	11.013
MS.6           	21.5           	11.013
MS.7           	21.5           	10.901
MS.8           	21.5           	11.072
MS.9           	21.5           	11.092
MS.10          	21.5           	10.909
MS.11          	21.5           	11.064
MS.12          	21.5           	10.945
MS.13          	21.5           	10.846
MS.14          	21.5           	10.794
MS.15          	21.5           	11.07
MS.16          	21.5           	10.826
MS.17          	21.5           	10.816
MS.18          	21.5           	10.981
MS.19          	21.5           	10.899
MS.20          	21.5           	10.897
MS.21          	21.5           	10.993
MS.22          	21.5           	10.885
MS.23          	21.5           	10.969
MS.24          	21.415         	10.774
MS.25          	21.372         	10.999
MS.26          	21.327         	10.74
MS.27          	21.285         	10.737
MS.28          	21.243         	10.663
MS.29          	21.2           	10.754
MS.30          	21.157         	10.742
MS.31          	21.118         	10.796
MS.32          	21.075         	10.633
MS.33          	21.032         	10.653
MS.34          	20.99          	10.635
MS.35          	20.948         	10.649
MS.36          	20.907         	10.476
MS.37          	20.865         	10.635
MS.38          	20.823         	10.5
MS.39          	20.78          	10.673
MS.40          	20.74          	10.514
MS.41          	20.698         	10.506
MS.42          	20.657         	10.339
MS.43          	20.615         	10.419
MS.44          	20.575         	10.369
MS.45          	20.532         	10.552
MS.46          	20.493         	10.256
MS.47          	20.452         	10.462
MS.48          	20.41          	10.226
MS.49          	20.37          	10.284
MS.50          	20.33          	10.204
MS.51          	20.288         	10.254
MS.52          	20.247         	10.127
MS.53          	20.208         	10.133
MS.54          	20.167         	10.159
MS.55          	20.127         	10.131
MS.56          	20.087         	10.127
MS.57          	20.047         	10.206
MS.58          	20.007         	9.922
MS.59          	19.967         	9.988
MS.60          	19.927         	9.892
MS.61          	19.887         	9.801
MS.62          	19.847         	9.952
MS.63          	19.807         	9.948
MS.64          	19.767         	9.904
MS.65          	19.727         	9.906
MS.66          	19.69          	9.865
MS.67          	19.65          	9.831
MS.68          	19.61          	9.454
MS.69          	19.57          	9.696
MS.70          	19.532         	9.565
MS.71          	19.493         	9.73
MS.72          	19.455         	9.469
MS.73          	19.415         	9.569
MS.74          	19.377         	9.581
MS.75          	19.337         	9.646
MS.76          	19.3           	9.559
MS.77          	19.26          	9.41
MS.78          	19.222         	9.495
MS.79          	19.182         	9.533
MS.80          	19.145         	9.273
MS.81          	19.108         	9.624
MS.82          	19.067         	9.539
MS.83          	19.03          	9.422
MS.84          	18.993         	9.257
MS.85          	18.955         	9.158
MS.86          	18.917         	8.907
MS.87          	18.88          	9.15
MS.88          	18.842         	8.884
MS.89          	18.802         	8.985
MS.90          	18.765         	8.838
MS.91          	18.727         	8.772
MS.92          	18.69          	8.81
MS.93          	18.655         	8.963
MS.94          	18.618         	8.814
MS.95          	18.58          	8.743
MS.96          	18.542         	8.834
MS.97          	18.505         	8.604
MS.98          	18.467         	8.393
MS.99          	18.432         	8.435
MS.100         	18.395         	8.254
MS.101         	18.358         	8.47
MS.102         	18.32          	8.192
MS.103         	18.285         	8.18
MS.104         	18.247         	8.254
MS.105         	18.212         	8.375
MS.106         	18.175         	8.451
MS.107         	18.137         	8.202
MS.108         	18.102         	8.091
MS.109         	18.067         	8.095
MS.110         	18.03          	7.865
MS.111         	17.995         	7.855
MS.112         	17.958         	7.958
MS.113         	17.922         	7.992
MS.114         	17.887         	7.841
MS.115         	17.85          	7.742
MS.116         	17.815         	7.847
MS.117         	17.78          	7.885
MS.118         	17.745         	7.654
MS.119         	17.708         	7.517
MS.120         	17.672         	7.454
MS.121         	17.637         	7.571
MS.122         	17.602         	7.553
MS.123         	17.567         	7.344
MS.124         	17.532         	7.4
MS.125         	17.497         	7.277
MS.126         	17.462         	7.376
MS.127         	17.427         	7.624
MS.128         	17.392         	7.056
MS.129         	17.358         	7.289
MS.130         	17.323         	7.039
MS.131         	17.288         	7.287
MS.132         	17.255         	6.844
MS.133         	17.22          	7.352
MS.134         	17.185         	7.094
MS.135         	17.15          	6.919
MS.136         	17.118         	6.886
MS.137         	17.083         	6.862
MS.138         	17.047         	6.739
MS.139         	17.015         	6.929
MS.140         	16.98          	6.6
MS.141         	16.948         	6.606
MS.142         	16.913         	6.254
MS.143         	16.878         	6.5
MS.144         	16.845         	6.49
MS.145         	16.812         	6.469
MS.146         	16.778         	6.286
MS.147         	16.745         	6.206
MS.148         	16.71          	6.028
MS.149         	16.677         	6.393
MS.150         	16.645         	6.359
MS.151         	16.61          	6.093
MS.152         	16.577         	5.916
MS.153         	16.545         	6.24
MS.154         	16.512         	5.791
MS.155         	16.477         	5.72
MS.156         	16.445         	5.914
MS.157         	16.413         	5.765
MS.158         	16.38          	5.694
MS.159         	16.347         	5.658
MS.160         	16.315         	5.678
MS.161         	16.282         	5.577
MS.162         	16.25          	5.648
MS.163         	16.217         	5.696
MS.164         	16.185         	5.599
MS.165         	16.153         	5.394
MS.166         	16.12          	5.348
MS.167         	16.087         	5.325
MS.168         	16.055         	5.414
MS.169         	16.022         	5.269
MS.170         	15.992         	5.293
MS.171         	15.96          	5.271
MS.172         	15.927         	5.09
MS.173         	15.895         	4.987
MS.174         	15.865         	5.317
MS.175         	15.832         	5.136
MS.176         	15.8           	4.886
MS.177         	15.77          	4.923
MS.178         	15.737         	4.766
MS.179         	15.705         	4.683
MS.180         	15.675         	4.484
MS.181         	15.642         	4.729
MS.182         	15.612         	4.566
MS.183         	15.58          	4.719
MS.184         	15.55          	4.693
MS.185         	15.52          	4.697
MS.186         	15.487         	4.165
MS.187         	15.457         	4.548
MS.188         	15.425         	4.246
MS.189         	15.395         	4.437
MS.190         	15.365         	4.185
MS.191         	15.332         	4.401
MS.192         	15.302         	4.105
MS.193         	15.273         	4.163
MS.194         	15.242         	4.181
MS.195         	15.212         	4.115
MS.196         	15.18          	4.139
MS.197         	15.15          	4.071
MS.198         	15.12          	3.956
MS.199         	15.09          	4.063
MS.200         	15.06          	3.974
MS.201         	15.03          	3.916
MS.202         	15             	4.107
MS.203         	14.97          	3.93
MS.204         	14.94          	3.94
MS.205         	14.91          	3.962
MS.206         	14.88          	3.718
MS.207         	14.85          	3.716
MS.208         	14.82          	3.815
MS.209         	14.792         	3.771
MS.210         	14.762         	3.801
MS.211         	14.733         	3.692
MS.212         	14.702         	3.71
MS.213         	14.672         	3.736
MS.214         	14.645         	3.71
MS.215         	14.615         	3.766
MS.216         	14.585         	3.535
MS.217         	14.557         	3.656
MS.218         	14.527         	3.686
MS.219         	14.497         	3.541
MS.220         	14.47          	3.499
MS.221         	14.44          	3.561
MS.222         	14.412         	3.652
MS.223         	14.382         	3.615
MS.224         	14.355         	3.587
MS.225         	14.325         	3.472
MS.226         	14.297         	3.545
MS.227         	14.267         	3.396
MS.228         	14.24          	3.652
MS.229         	14.212         	3.454
MS.230         	14.182         	3.527
MS.231         	14.155         	3.511
MS.232         	14.127         	3.382
MS.233         	14.097         	3.39
MS.234         	14.07          	3.364
MS.235         	14.042         	3.265
MS.236         	14.015         	3.515
MS.237         	13.985         	3.106
MS.238         	13.957         	3.36
MS.239         	13.93          	3.402
MS.240         	13.903         	3.243
MS.241         	13.875         	3.269
MS.242         	13.847         	3.178
MS.243         	13.82          	3.072
MS.244         	13.792         	3.126
MS.245         	13.765         	3.11
MS.246         	13.737         	3.241
MS.247         	13.71          	3.205
MS.248         	13.682         	2.995
MS.249         	13.655         	3.027
MS.250         	13.627         	3.209
MS.251         	13.6           	3.021
MS.252         	13.572         	3.076
MS.253         	13.545         	3.029
MS.254         	13.517         	2.981
MS.255         	13.492         	3.045
MS.256         	13.465         	2.997
MS.257         	13.438         	3.051
MS.258         	13.41          	2.925
MS.259         	13.385         	3.011
MS.260         	13.358         	2.9
MS.261         	13.33          	2.971
MS.262         	13.305         	2.945
MS.263         	13.278         	2.85
MS.264         	13.25          	2.882
MS.265         	13.225         	2.975
MS.266         	13.197         	2.816
MS.267         	13.172         	2.896
MS.268         	13.145         	2.912
MS.269         	13.12          	2.755
MS.270         	13.092         	2.83
MS.271         	13.068         	2.753
MS.272         	13.04          	2.761
MS.273         	13.015         	2.802
MS.274         	12.987         	2.572
MS.275         	12.962         	2.717
MS.276         	12.938         	2.703
MS.277         	12.91          	2.906
MS.278         	12.885         	2.612
MS.279         	12.86          	2.719
MS.280         	12.832         	2.604
MS.281         	12.807         	2.582
MS.282         	12.782         	2.608
MS.283         	12.757         	2.665
MS.284         	12.73          	2.336
MS.285         	12.705         	2.576
MS.286         	12.68          	2.467
MS.287         	12.655         	2.437
MS.288         	12.63          	2.338
MS.289         	12.605         	2.395
MS.290         	12.58          	2.296
MS.291         	12.555         	2.439
MS.292         	12.53          	2.123
MS.293         	12.505         	2.502
MS.294         	12.48          	2.028
MS.295         	12.455         	2.326
MS.296         	12.43          	2.25
MS.297         	12.405         	2.397
MS.298         	12.38          	2.058
MS.299         	12.355         	2.187
MS.300         	12.33          	2.008
MS.301         	12.305         	2.157
MS.302         	12.28          	1.994
MS.303         	12.257         	1.974
MS.304         	12.233         	1.926
MS.305         	12.207         	2.054
MS.306         	12.182         	1.905
MS.307         	12.157         	1.98
MS.308         	12.135         	1.984
MS.309         	12.11          	1.954
MS.310         	12.085         	1.96
MS.311         	12.062         	1.899
MS.312         	12.037         	1.849
MS.313         	12.012         	1.899
MS.314         	11.99          	1.712
MS.315         	11.965         	1.672
MS.316         	11.943         	1.797
MS.317         	11.917         	1.476
MS.318         	11.895         	1.561
MS.319         	11.87          	1.664
MS.320         	11.847         	1.611
MS.321         	11.822         	1.513
MS.322         	11.8           	1.404
MS.323         	11.775         	1.426
MS.324         	11.752         	1.263
MS.325         	11.73          	1.352
MS.326         	11.705         	1.271
MS.327         	11.682         	1.198
MS.328         	11.657         	1.16
MS.329         	11.635         	1.281
MS.330         	11.613         	1.15
MS.331         	11.59          	1.186
MS.332         	11.565         	1.094
MS.333         	11.542         	1.08
MS.334         	11.52          	0.951
MS.335         	11.497         	1.035
MS.336         	11.472         	0.896
MS.337         	11.45          	1.013
MS.338         	11.427         	1.037
MS.339         	11.405         	1.029
MS.340         	11.382         	0.908
MS.341         	11.36          	1.074
MS.342         	11.337         	0.929
MS.343         	11.315         	0.862
MS.344         	11.292         	0.705
MS.345         	11.27          	0.918
MS.346         	11.247         	0.818
MS.347         	11.225         	0.792
MS.348         	11.202         	0.834
MS.349         	11.18          	0.842
MS.350         	11.157         	0.711
MS.351         	11.135         	0.612
MS.352         	11.113         	0.606
MS.353         	11.09          	0.558
MS.354         	11.068         	0.661
MS.355         	11.045         	0.622
MS.356         	11.023         	0.56
MS.357         	11.002         	0.558
MS.358         	10.98          	0.618
MS.359         	10.957         	0.489
MS.360         	10.935         	0.574
MS.361         	10.915         	0.572
MS.362         	10.892         	0.483
MS.363         	10.87          	0.493
MS.364         	10.847         	0.493
MS.365         	10.827         	0.483
MS.366         	10.805         	0.495
MS.367         	10.785         	0.387
MS.368         	10.762         	0.463
MS.369         	10.74          	0.373
MS.370         	10.72          	0.389
MS.371         	10.698         	0.421
MS.372         	10.677         	0.316
MS.373         	10.655         	0.312
MS.374         	10.635         	0.306
MS.375         	10.613         	0.29
MS.376         	10.592         	0.3
MS.377         	10.57          	0.342
MS.378         	10.55          	0.292
MS.379         	10.528         	0.282
MS.380         	10.507         	0.3
MS.381         	10.485         	0.238
MS.382         	10.465         	0.26
MS.383         	10.445         	0.284
MS.384         	10.422         	0.272
MS.385         	10.403         	0.282
MS.386         	10.382         	0.232
MS.387         	10.36          	0.252
MS.388         	10.34          	0.23
MS.389         	10.32          	0.254
MS.390         	10.3           	0.234
MS.391         	10.278         	0.28
MS.392         	10.257         	0.191
MS.393         	10.238         	0.211
MS.394         	10.217         	0.258
MS.395         	10.198         	0.187
MS.396         	10.175         	0.153
MS.397         	10.155         	0.244
MS.398         	10.135         	0.173
MS.399         	10.115         	0.143
MS.400         	10.095         	0.161
MS.401         	10.075         	0.232
MS.402         	10.055         	0.131
MS.403         	10.035         	0.201
MS.404         	10.015         	0.177
MS.405         	9.995          	0.183
MS.406         	9.975          	0.207
MS.407         	9.955          	0.129
MS.408         	9.935          	0.143
MS.409         	9.915          	0.185
MS.410         	9.895          	0.143
MS.411         	9.875          	0.179
MS.412         	9.855          	0.137
MS.413         	9.835          	0.159
MS.414         	9.818          	0.127
MS.415         	9.797          	0.107
MS.416         	9.778          	0.133
MS.417         	9.757          	0.125
MS.418         	9.738          	0.107
MS.419         	9.717          	0.077
MS.420         	9.7            	0.093
MS.421         	9.68           	0.081
MS.422         	9.66           	0.107
MS.423         	9.64           	0.111
MS.424         	9.622          	0.111
MS.425         	9.602          	0.064
MS.426         	9.582          	0.064
MS.427         	9.565          	0.101
MS.428         	9.545          	0.111
MS.429         	9.525          	0.066
MS.430         	9.507          	0.099
MS.431         	9.488          	0.083
MS.432         	9.47           	0.066
MS.433         	9.45           	0.064
MS.434         	9.432          	0.064
MS.435         	9.412          	0.068
MS.436         	9.395          	0.068
MS.437         	9.375          	0.066
MS.438         	9.358          	0.068
MS.439         	9.337          	0.068
MS.440         	9.32           	0.068
MS.441         	9.3            	0.066
MS.442         	9.283          	0.105
MS.443         	9.262          	0.083
MS.444         	9.245          	0.068
MS.445         	9.225          	0.066
MS.446         	9.207          	0.068
MS.447         	9.19           	0.07
MS.448         	9.17           	0.068
MS.449         	9.153          	0.066
MS.450         	9.135          	0.066
MS.451         	9.115          	0.07
MS.452         	9.097          	0.068
MS.453         	9.08           	0.068
MS.454         	9.062          	0.068
MS.455         	9.042          	0.068
MS.456         	9.025          	0.066
MS.457         	9.007          	0.066
MS.458         	8.99           	0.073
MS.459         	8.972          	0.068
MS.460         	8.952          	0.068
MS.461         	8.935          	0.07
MS.462         	8.917          	0.068
MS.463         	8.9            	0.07
MS.464         	8.882          	0.068
MS.465         	8.865          	0.066
MS.466         	8.847          	0.07
MS.467         	8.83           	0.07
MS.468         	8.812          	0.064
MS.469         	8.795          	0.068
MS.470         	8.775          	0.066
MS.471         	8.757          	0.066
MS.472         	8.74           	0.068
MS.473         	8.722          	0.07
MS.474         	8.707          	0.07
MS.475         	8.69           	0.066
MS.476         	8.672          	0.066
MS.477         	8.655          	0.068
MS.478         	8.637          	0.068
MS.479         	8.62           	0.066
MS.480         	8.602          	0.07
MS.481         	8.585          	0.064
MS.482         	8.568          	0.066
MS.483         	8.55           	0.068
MS.484         	8.535          	0.066
MS.485         	8.517          	0.068
MS.486         	8.5            	0.073
MS.487         	8.483          	0.068
MS.488         	8.465          	0.073
MS.489         	8.45           	0.073
MS.490         	8.432          	0.068
MS.491         	8.415          	0.073
MS.492         	8.398          	0.066
MS.493         	8.382          	0.07
MS.494         	8.365          	0.07
MS.495         	8.347          	0.068
MS.496         	8.332          	0.066
MS.497         	8.315          	0.066
MS.498         	8.297          	0.068
MS.499         	8.283          	0.068
