File:              	C:\Qtrac\Data\Daniel M Sørensen\MScan multicentre study\Data from centres\Oslo\IronKey\Oslo_NC_first examination\SZC00619A.QZD
Name:              	NO.OSL.NC.21.1
Protocol:          	MSCAN-R2
Date:              	19/6/20
Start time:        	11:38:05
Age:               	37
Sex:               	M
Temperature:       	32.0
S/R sites:         	Median Wr-APB
NC/disease:        	NC21
Operator:          	SZ
Comments:          	Test1
M-SCAN DATA (6.7-3.2m)
Scanpts: 26, 29, 376, 397
Stim. (mA)     	Amp. (mV)
MS.1           	13.5           	12.991
MS.2           	13.5           	12.977
MS.3           	13.5           	12.977
MS.4           	13.5           	13.005
MS.5           	13.5           	12.981
MS.6           	13.5           	12.967
MS.7           	13.5           	12.973
MS.8           	13.5           	13.007
MS.9           	13.5           	12.989
MS.10          	13.5           	13.013
MS.11          	13.5           	12.979
MS.12          	13.5           	12.985
MS.13          	13.5           	12.991
MS.14          	13.5           	13.003
MS.15          	13.5           	12.975
MS.16          	13.5           	12.985
MS.17          	13.5           	13.005
MS.18          	13.5           	12.987
MS.19          	13.5           	12.997
MS.20          	13.5           	12.991
MS.21          	13.5           	12.997
MS.22          	13.5           	13.036
MS.23          	13.5           	13.054
MS.24          	13.445         	13.003
MS.25          	13.392         	13.007
MS.26          	13.365         	13.024
MS.27          	13.34          	13.005
MS.28          	13.312         	12.995
MS.29          	13.285         	12.991
MS.30          	13.26          	13.009
MS.31          	13.233         	13.001
MS.32          	13.205         	12.993
MS.33          	13.18          	13.007
MS.34          	13.153         	12.985
MS.35          	13.127         	13.005
MS.36          	13.1           	13.013
MS.37          	13.075         	13.011
MS.38          	13.047         	12.957
MS.39          	13.023         	12.852
MS.40          	12.997         	12.961
MS.41          	12.97          	12.967
MS.42          	12.945         	12.885
MS.43          	12.92          	12.824
MS.44          	12.892         	12.695
MS.45          	12.867         	12.883
MS.46          	12.842         	12.792
MS.47          	12.815         	12.917
MS.48          	12.79          	12.822
MS.49          	12.765         	12.81
MS.50          	12.74          	12.586
MS.51          	12.715         	12.611
MS.52          	12.688         	12.639
MS.53          	12.662         	12.903
MS.54          	12.637         	12.593
MS.55          	12.613         	12.554
MS.56          	12.587         	12.703
MS.57          	12.562         	12.691
MS.58          	12.537         	12.528
MS.59          	12.512         	12.58
MS.60          	12.488         	12.58
MS.61          	12.462         	12.399
MS.62          	12.438         	12.52
MS.63          	12.412         	12.276
MS.64          	12.387         	12.464
MS.65          	12.363         	12.208
MS.66          	12.337         	12.574
MS.67          	12.312         	12.619
MS.68          	12.29          	12.456
MS.69          	12.265         	12.45
MS.70          	12.24          	12.427
MS.71          	12.215         	12.46
MS.72          	12.19          	12.236
MS.73          	12.167         	12.375
MS.74          	12.142         	12.454
MS.75          	12.117         	12.164
MS.76          	12.092         	12.228
MS.77          	12.07          	12.242
MS.78          	12.045         	12.234
MS.79          	12.023         	12.184
MS.80          	11.997         	12.182
MS.81          	11.972         	12.155
MS.82          	11.95          	12.2
MS.83          	11.925         	12.145
MS.84          	11.903         	12.153
MS.85          	11.877         	12.25
MS.86          	11.855         	12.157
MS.87          	11.83          	12.127
MS.88          	11.807         	12.061
MS.89          	11.782         	12.115
MS.90          	11.76          	12.117
MS.91          	11.738         	12.023
MS.92          	11.712         	12.059
MS.93          	11.69          	11.972
MS.94          	11.665         	12.069
MS.95          	11.642         	12.057
MS.96          	11.62          	12.073
MS.97          	11.597         	12.012
MS.98          	11.572         	12.099
MS.99          	11.55          	12.002
MS.100         	11.528         	11.739
MS.101         	11.505         	12
MS.102         	11.48          	12
MS.103         	11.457         	11.668
MS.104         	11.435         	11.7
MS.105         	11.412         	12.008
MS.106         	11.39          	11.988
MS.107         	11.367         	11.708
MS.108         	11.345         	11.67
MS.109         	11.322         	11.976
MS.110         	11.297         	11.664
MS.111         	11.275         	11.777
MS.112         	11.252         	11.672
MS.113         	11.23          	11.553
MS.114         	11.207         	11.809
MS.115         	11.188         	11.602
MS.116         	11.165         	11.461
MS.117         	11.142         	11.606
MS.118         	11.12          	11.63
MS.119         	11.097         	11.505
MS.120         	11.075         	11.698
MS.121         	11.052         	11.314
MS.122         	11.03          	11.453
MS.123         	11.007         	11.541
MS.124         	10.988         	11.183
MS.125         	10.965         	11.13
MS.126         	10.943         	11.185
MS.127         	10.92          	10.802
MS.128         	10.9           	11.378
MS.129         	10.877         	11.032
MS.130         	10.855         	10.758
MS.131         	10.835         	10.931
MS.132         	10.812         	10.939
MS.133         	10.79          	10.441
MS.134         	10.77          	10.828
MS.135         	10.747         	10.669
MS.136         	10.725         	10.655
MS.137         	10.705         	10.395
MS.138         	10.682         	10.691
MS.139         	10.662         	10.415
MS.140         	10.64          	10.21
MS.141         	10.62          	10.055
MS.142         	10.597         	10.22
MS.143         	10.577         	10.135
MS.144         	10.555         	10.389
MS.145         	10.535         	9.835
MS.146         	10.515         	9.589
MS.147         	10.492         	8.927
MS.148         	10.472         	9.771
MS.149         	10.45          	10.184
MS.150         	10.43          	9.728
MS.151         	10.41          	9.072
MS.152         	10.387         	9.064
MS.153         	10.367         	8.613
MS.154         	10.347         	9.088
MS.155         	10.325         	8.389
MS.156         	10.305         	8.182
MS.157         	10.285         	8.57
MS.158         	10.265         	8.222
MS.159         	10.245         	8.095
MS.160         	10.222         	7.873
MS.161         	10.202         	7.845
MS.162         	10.182         	7.718
MS.163         	10.162         	7.559
MS.164         	10.142         	7.706
MS.165         	10.122         	7.448
MS.166         	10.102         	7.436
MS.167         	10.082         	7.43
MS.168         	10.06          	7.295
MS.169         	10.04          	6.814
MS.170         	10.02          	6.927
MS.171         	10             	6.947
MS.172         	9.98           	6.538
MS.173         	9.96           	7.132
MS.174         	9.94           	6.874
MS.175         	9.922          	6.417
MS.176         	9.903          	6.619
MS.177         	9.882          	6.19
MS.178         	9.863          	5.813
MS.179         	9.842          	6.093
MS.180         	9.823          	6.566
MS.181         	9.802          	6.558
MS.182         	9.782          	6.212
MS.183         	9.765          	5.36
MS.184         	9.745          	5.38
MS.185         	9.725          	5.448
MS.186         	9.705          	5.573
MS.187         	9.685          	4.955
MS.188         	9.667          	4.637
MS.189         	9.648          	4.828
MS.190         	9.627          	4.794
MS.191         	9.61           	4.711
MS.192         	9.59           	4.778
MS.193         	9.57           	4.572
MS.194         	9.552          	4.552
MS.195         	9.532          	4.258
MS.196         	9.512          	4.324
MS.197         	9.495          	4.401
MS.198         	9.475          	4.359
MS.199         	9.457          	4.077
MS.200         	9.438          	3.972
MS.201         	9.417          	3.891
MS.202         	9.4            	3.734
MS.203         	9.38           	3.805
MS.204         	9.363          	3.756
MS.205         	9.342          	3.899
MS.206         	9.325          	3.883
MS.207         	9.305          	3.736
MS.208         	9.287          	3.493
MS.209         	9.27           	3.307
MS.210         	9.25           	3.559
MS.211         	9.233          	3.251
MS.212         	9.212          	3.221
MS.213         	9.195          	3.092
MS.214         	9.177          	3.17
MS.215         	9.158          	3.253
MS.216         	9.14           	3.011
MS.217         	9.122          	3.17
MS.218         	9.102          	2.993
MS.219         	9.085          	3.029
MS.220         	9.068          	3.029
MS.221         	9.05           	2.697
MS.222         	9.03           	2.854
MS.223         	9.012          	2.91
MS.224         	8.995          	2.594
MS.225         	8.977          	2.618
MS.226         	8.96           	2.635
MS.227         	8.943          	2.663
MS.228         	8.922          	2.61
MS.229         	8.905          	2.536
MS.230         	8.887          	2.381
MS.231         	8.87           	2.439
MS.232         	8.852          	2.381
MS.233         	8.835          	2.145
MS.234         	8.818          	2.018
MS.235         	8.8            	2.302
MS.236         	8.783          	2.228
MS.237         	8.765          	2.123
MS.238         	8.747          	2.089
MS.239         	8.73           	2.097
MS.240         	8.712          	2.081
MS.241         	8.695          	1.974
MS.242         	8.677          	1.982
MS.243         	8.66           	1.766
MS.244         	8.642          	2.05
MS.245         	8.625          	1.928
MS.246         	8.608          	1.917
MS.247         	8.59           	2.079
MS.248         	8.573          	1.807
MS.249         	8.557          	1.805
MS.250         	8.54           	1.712
MS.251         	8.523          	1.595
MS.252         	8.505          	1.438
MS.253         	8.488          	1.821
MS.254         	8.472          	1.505
MS.255         	8.455          	1.061
MS.256         	8.438          	1.682
MS.257         	8.42           	1.533
MS.258         	8.405          	1.037
MS.259         	8.387          	1.055
MS.260         	8.37           	1.202
MS.261         	8.352          	1.124
MS.262         	8.337          	1.051
MS.263         	8.32           	1.061
MS.264         	8.302          	0.902
MS.265         	8.287          	0.667
MS.266         	8.27           	0.828
MS.267         	8.255          	0.802
MS.268         	8.238          	0.61
MS.269         	8.22           	0.798
MS.270         	8.205          	0.643
MS.271         	8.188          	0.691
MS.272         	8.172          	0.552
MS.273         	8.155          	0.645
MS.274         	8.14           	0.534
MS.275         	8.122          	0.626
MS.276         	8.108          	0.647
MS.277         	8.09           	0.483
MS.278         	8.075          	0.445
MS.279         	8.057          	0.489
MS.280         	8.042          	0.469
MS.281         	8.025          	0.423
MS.282         	8.01           	0.473
MS.283         	7.995          	0.403
MS.284         	7.977          	0.354
MS.285         	7.962          	0.401
MS.286         	7.945          	0.441
MS.287         	7.93           	0.401
MS.288         	7.915          	0.367
MS.289         	7.898          	0.379
MS.290         	7.882          	0.278
MS.291         	7.867          	0.363
MS.292         	7.852          	0.274
MS.293         	7.835          	0.34
MS.294         	7.82           	0.238
MS.295         	7.805          	0.294
MS.296         	7.79           	0.24
MS.297         	7.773          	0.294
MS.298         	7.757          	0.276
MS.299         	7.742          	0.234
MS.300         	7.727          	0.216
MS.301         	7.712          	0.234
MS.302         	7.695          	0.165
MS.303         	7.68           	0.141
MS.304         	7.665          	0.183
MS.305         	7.65           	0.203
MS.306         	7.635          	0.224
MS.307         	7.62           	0.157
MS.308         	7.605          	0.089
MS.309         	7.59           	0.133
MS.310         	7.572          	0.046
MS.311         	7.557          	0.105
MS.312         	7.543          	0.113
MS.313         	7.527          	0.093
MS.314         	7.512          	0.044
MS.315         	7.497          	0.131
MS.316         	7.482          	0.042
MS.317         	7.467          	0.097
MS.318         	7.452          	0.054
MS.319         	7.438          	0.02
MS.320         	7.425          	0.02
MS.321         	7.41           	0.081
MS.322         	7.395          	0.016
MS.323         	7.38           	0.000
MS.324         	7.365          	0.006
MS.325         	7.35           	0.014
MS.326         	7.335          	0.02
MS.327         	7.32           	0.002
MS.328         	7.305          	0.012
MS.329         	7.293          	0.01
MS.330         	7.277          	0.044
MS.331         	7.262          	0.008
MS.332         	7.247          	0.008
MS.333         	7.233          	0.008
MS.334         	7.22           	0.004
MS.335         	7.205          	0.002
MS.336         	7.19           	0.012
MS.337         	7.175          	0.002
MS.338         	7.162          	0.01
MS.339         	7.148          	0.004
MS.340         	7.132          	0.008
MS.341         	7.117          	0.002
MS.342         	7.105          	0.000
MS.343         	7.09           	-0.002
MS.344         	7.075          	0.004
MS.345         	7.062          	0.008
MS.346         	7.047          	0.006
MS.347         	7.032          	0.004
MS.348         	7.02           	0.004
MS.349         	7.005          	0.006
MS.350         	6.992          	0.016
MS.351         	6.977          	0.01
MS.352         	6.962          	0.01
MS.353         	6.95           	0.006
MS.354         	6.935          	0.01
MS.355         	6.922          	0.008
MS.356         	6.907          	0.006
MS.357         	6.895          	0.016
MS.358         	6.88           	0.012
MS.359         	6.867          	0.01
MS.360         	6.852          	0.016
MS.361         	6.84           	0.004
MS.362         	6.825          	0.01
MS.363         	6.812          	0.01
MS.364         	6.797          	0.004
MS.365         	6.785          	0.006
MS.366         	6.773          	0.008
MS.367         	6.757          	0.006
MS.368         	6.745          	0.01
MS.369         	6.73           	0.01
MS.370         	6.717          	0.016
MS.371         	6.705          	0.006
MS.372         	6.69           	0.016
MS.373         	6.677          	0.002
MS.374         	6.665          	0.008
MS.375         	6.65           	0.01
MS.376         	6.637          	0.002
MS.377         	6.625          	0.008
MS.378         	6.61           	0.004
MS.379         	6.597          	0.000
MS.380         	6.585          	-0.002
MS.381         	6.57           	0.006
MS.382         	6.557          	0.000
MS.383         	6.545          	-0.004
MS.384         	6.532          	-0.002
MS.385         	6.52           	0.000
MS.386         	6.505          	-0.004
MS.387         	6.492          	-0.002
MS.388         	6.48           	0.002
MS.389         	6.467          	0.000
MS.390         	6.455          	0.008
MS.391         	6.44           	0.002
MS.392         	6.427          	0.000
MS.393         	6.415          	0.000
MS.394         	6.402          	-0.002
MS.395         	6.39           	0.002
MS.396         	6.378          	-0.002
MS.397         	6.365          	0.004
DERIVED EXCITABILITY VARIABLES
Program = QTracP 3/4/2020
Threshold method = 6 (optimised for CAP, using data for present condition only)
SR method = 1 (using actual data values)
6.                 	0.000               	Peak response\(mV)
9.                 	32                  	Temperature ( C)
17.                	37                  	Age (years)
18.                	1                   	Sex (M=1, F=2)

EXTRA VARIABLES

MScPeak(mV) = 12.99
MScS5(mA) = 8.21
MScS50(mA) = 9.87
MScS95(mA) = 12.29
MScNSteps = 3
MScSteps(%) = 9.4
MScStepMax(%) = 3.9
MScD50 = 35
MScSlope = 7.62
MSFPeakAmp(mV) = 13
MSFNUnits = 156
MSFMeanUnitAmp(uV) = 83.4
MSFHuntTime(m) = 2.3
MSFError(%) = 5.67
MSFNLarge = 36.87
MSFMedianAmp(%) = 0.437
MSFMedianAmp(mV) = 0.0568
MSFHalfAmpAmp(%) = 0.818
MSFHalfAmpAmp(mV) = 0.106
MSFLargestAmp(%) = 3.7
MSFLargestAmp(mV) = 0.482
MSFMeanRS(%) = 2
MSFOpts = 10106121
MScDuration(min) = 3.5
MSFTraces = 372
MSFSizeLimit(uV) = 32.5
MSFLimitType = 1
MSFSmallestAmp(uV) = 33

EXTRA WAVEFORMS


!MScan Model
!156
	1	7.44	0.53	2
	2	7.57	0.4	2
	3	7.65	0.36	2
	4	7.69	0.32	2
	5	7.78	0.39	2
	6	7.83	0.29	2
	7	7.88	0.35	2
	8	7.94	0.29	2
	9	7.99	0.36	2
	10	8.04	0.44	2
	11	8.09	0.37	2
	12	8.14	0.42	2
	13	8.19	0.6	2
	14	8.23	0.42	2
	15	8.24	0.27	2
	16	8.25	0.27	2
	17	8.26	0.27	2
	18	8.29	0.54	2
	19	8.33	0.75	2
	20	8.37	0.99	2
	21	8.41	1.21	2
	22	8.45	1.12	2
	23	8.51	1.71	2
	24	8.55	0.92	2
	25	8.58	0.38	2
	26	8.63	0.87	2
	27	8.7	1.07	2
	28	8.75	0.42	2
	29	8.77	0.36	2
	30	8.8	0.43	2
	31	8.83	0.43	2
	32	8.84	0.28	2
	33	8.85	0.26	2
	34	8.86	0.26	2
	35	8.88	0.29	2
	36	8.89	0.33	2
	37	8.91	0.34	2
	38	8.92	0.43	2
	39	8.94	0.29	2
	40	8.95	0.29	2
	41	8.97	0.28	2
	42	8.98	0.27	2
	43	8.99	0.27	2
	44	9.01	0.29	2
	45	9.02	0.3	2
	46	9.04	0.3	2
	47	9.05	0.3	2
	48	9.07	0.44	2
	49	9.09	0.38	2
	50	9.11	0.29	2
	51	9.13	0.39	2
	52	9.15	0.35	2
	53	9.16	0.31	2
	54	9.18	0.32	2
	55	9.2	0.38	2
	56	9.21	0.45	2
	57	9.23	0.45	2
	58	9.25	0.53	2
	59	9.27	0.38	2
	60	9.29	0.26	2
	61	9.31	0.54	2
	62	9.33	0.52	2
	63	9.35	0.59	2
	64	9.37	0.8	2
	65	9.38	0.5	2
	66	9.4	0.43	2
	67	9.42	0.47	2
	68	9.44	0.46	2
	69	9.46	0.3	2
	70	9.47	0.25	2
	71	9.48	0.25	2
	72	9.48	0.25	2
	73	9.49	0.25	2
	74	9.5	0.42	2
	75	9.52	0.78	2
	76	9.55	0.81	2
	77	9.57	0.71	2
	78	9.59	0.66	2
	79	9.61	0.49	2
	80	9.62	0.49	2
	81	9.64	0.69	2
	82	9.66	0.84	2
	83	9.67	0.92	2
	84	9.69	1.13	2
	85	9.72	1.6	2
	86	9.75	0.75	2
	87	9.78	1.5	2
	88	9.84	3.7	2
	89	9.89	1.63	2
	90	9.92	0.86	2
	91	9.96	0.94	2
	92	9.98	0.93	2
	93	10	0.73	2
	94	10.02	0.73	2
	95	10.03	0.65	2
	96	10.05	0.61	2
	97	10.07	0.6	2
	98	10.08	0.53	2
	99	10.09	0.28	2
	100	10.1	0.28	2
	101	10.11	0.28	2
	102	10.12	0.28	2
	103	10.12	0.33	2
	104	10.13	0.44	2
	105	10.14	0.44	2
	106	10.15	0.31	2
	107	10.16	0.28	2
	108	10.17	0.28	2
	109	10.17	0.28	2
	110	10.18	0.28	2
	111	10.19	0.29	2
	112	10.2	0.29	2
	113	10.21	0.29	2
	114	10.21	0.29	2
	115	10.22	0.29	2
	116	10.23	0.3	2
	117	10.24	0.3	2
	118	10.25	0.32	2
	119	10.25	0.39	2
	120	10.26	0.39	2
	121	10.27	0.39	2
	122	10.28	0.39	2
	123	10.3	0.79	2
	124	10.33	1.78	2
	125	10.37	2.02	2
	126	10.41	1.95	2
	127	10.46	2.59	2
	128	10.5	1.82	2
	129	10.54	1.31	2
	130	10.57	0.67	2
	131	10.6	1.16	2
	132	10.62	0.82	2
	133	10.65	0.75	2
	134	10.67	0.57	2
	135	10.69	0.54	2
	136	10.73	0.85	2
	137	10.79	1.48	2
	138	10.83	0.88	2
	139	10.87	0.58	2
	140	10.91	0.83	2
	141	10.97	1.35	2
	142	11.04	1.05	2
	143	11.18	1.96	2
	144	11.29	0.95	2
	145	11.5	1.65	1.95
	146	11.83	1.25	2
	147	11.91	0.26	2
	148	12.03	0.59	2.4
	149	12.09	0.29	2
	150	12.14	0.35	2
	151	12.19	0.49	2
	152	12.48	1.28	2
	153	12.59	0.56	2
	154	12.77	1.19	2
	155	12.91	0.79	2
	156	12.98	0.37	2

