File:              	C:\Qtrac\Data\Daniel M Sørensen\MScan multicentre study\Data from centres\Oslo\IronKey\Oslo_NC_first examination\SZC00430C.QZD
Name:              	NO.OSL.NC.5.1
Protocol:          	MSCAN-R2
Date:              	30/4/20
Start time:        	13:12:39
Age:               	56
Sex:               	F
Temperature:       	33.2
S/R sites:         	Peronea TA
NC/disease:        	NC5
Operator:          	SZ
Comments:          	Test1
M-SCAN DATA (10.4-2.3m)
Scanpts: 11, 15, 695, 714
Stim. (mA)     	Amp. (mV)
MS.1           	41             	8.486
MS.2           	41             	8.518
MS.3           	41             	8.5
MS.4           	41             	8.472
MS.5           	41             	8.443
MS.6           	41             	8.455
MS.7           	41             	8.437
MS.8           	41             	8.439
MS.9           	41             	8.435
MS.10          	41             	8.435
MS.11          	41             	8.433
MS.12          	41             	8.431
MS.13          	41             	8.417
MS.14          	41             	8.453
MS.15          	41             	8.431
MS.16          	41             	8.405
MS.17          	41             	8.433
MS.18          	41             	8.425
MS.19          	41             	8.417
MS.20          	41             	8.439
MS.21          	41             	8.445
MS.22          	41             	8.445
MS.23          	40.835         	8.425
MS.24          	40.755         	8.395
MS.25          	40.673         	8.425
MS.26          	40.592         	8.423
MS.27          	40.51          	8.421
MS.28          	40.43          	8.427
MS.29          	40.35          	8.401
MS.30          	40.267         	8.391
MS.31          	40.188         	8.393
MS.32          	40.107         	8.405
MS.33          	40.028         	8.415
MS.34          	39.947         	8.433
MS.35          	39.868         	8.387
MS.36          	39.787         	8.409
MS.37          	39.708         	8.409
MS.38          	39.63          	8.419
MS.39          	39.55          	8.401
MS.40          	39.47          	8.395
MS.41          	39.392         	8.407
MS.42          	39.312         	8.353
MS.43          	39.235         	8.399
MS.44          	39.157         	8.397
MS.45          	39.077         	8.387
MS.46          	39             	8.359
MS.47          	38.923         	8.409
MS.48          	38.845         	8.385
MS.49          	38.767         	8.343
MS.50          	38.69          	8.349
MS.51          	38.612         	8.335
MS.52          	38.535         	8.373
MS.53          	38.458         	8.337
MS.54          	38.38          	8.381
MS.55          	38.305         	8.302
MS.56          	38.228         	8.341
MS.57          	38.153         	8.349
MS.58          	38.075         	8.323
MS.59          	38             	8.367
MS.60          	37.923         	8.327
MS.61          	37.847         	8.349
MS.62          	37.772         	8.327
MS.63          	37.697         	8.333
MS.64          	37.62          	8.28
MS.65          	37.545         	8.27
MS.66          	37.47          	8.244
MS.67          	37.395         	8.246
MS.68          	37.322         	8.242
MS.69          	37.247         	8.258
MS.70          	37.173         	8.284
MS.71          	37.097         	8.256
MS.72          	37.025         	8.278
MS.73          	36.95          	8.204
MS.74          	36.875         	8.234
MS.75          	36.802         	8.218
MS.76          	36.73          	8.214
MS.77          	36.655         	8.31
MS.78          	36.583         	8.212
MS.79          	36.51          	8.226
MS.80          	36.438         	8.214
MS.81          	36.362         	8.204
MS.82          	36.29          	8.212
MS.83          	36.217         	8.25
MS.84          	36.145         	8.216
MS.85          	36.075         	8.188
MS.86          	36.002         	8.194
MS.87          	35.93          	8.188
MS.88          	35.857         	8.212
MS.89          	35.787         	8.171
MS.90          	35.715         	8.186
MS.91          	35.642         	8.186
MS.92          	35.572         	8.173
MS.93          	35.5           	8.167
MS.94          	35.43          	8.163
MS.95          	35.36          	8.173
MS.96          	35.29          	8.206
MS.97          	35.217         	8.182
MS.98          	35.147         	8.182
MS.99          	35.077         	8.151
MS.100         	35.007         	8.131
MS.101         	34.938         	8.151
MS.102         	34.868         	8.19
MS.103         	34.798         	8.153
MS.104         	34.73          	8.145
MS.105         	34.66          	8.149
MS.106         	34.59          	8.149
MS.107         	34.52          	8.159
MS.108         	34.452         	8.137
MS.109         	34.382         	8.143
MS.110         	34.315         	8.159
MS.111         	34.245         	8.115
MS.112         	34.177         	8.125
MS.113         	34.11          	8.161
MS.114         	34.04          	8.125
MS.115         	33.972         	8.145
MS.116         	33.905         	8.182
MS.117         	33.837         	8.129
MS.118         	33.77          	8.143
MS.119         	33.702         	8.121
MS.120         	33.635         	8.127
MS.121         	33.568         	8.173
MS.122         	33.5           	8.131
MS.123         	33.435         	8.113
MS.124         	33.368         	8.109
MS.125         	33.3           	8.101
MS.126         	33.235         	8.101
MS.127         	33.167         	8.081
MS.128         	33.1           	8.107
MS.129         	33.035         	8.103
MS.130         	32.97          	8.073
MS.131         	32.903         	8.097
MS.132         	32.837         	8.036
MS.133         	32.772         	8.091
MS.134         	32.708         	8.065
MS.135         	32.64          	8.051
MS.136         	32.575         	8.053
MS.137         	32.51          	8.018
MS.138         	32.445         	8.041
MS.139         	32.38          	8.006
MS.140         	32.315         	7.918
MS.141         	32.252         	7.986
MS.142         	32.188         	7.946
MS.143         	32.122         	8.012
MS.144         	32.057         	8.047
MS.145         	31.995         	8.008
MS.146         	31.93          	7.996
MS.147         	31.867         	7.97
MS.148         	31.802         	7.9
MS.149         	31.74          	7.916
MS.150         	31.677         	7.956
MS.151         	31.612         	7.924
MS.152         	31.55          	7.922
MS.153         	31.487         	7.833
MS.154         	31.425         	7.853
MS.155         	31.36          	7.889
MS.156         	31.297         	7.815
MS.157         	31.235         	7.823
MS.158         	31.172         	7.855
MS.159         	31.11          	7.809
MS.160         	31.05          	7.821
MS.161         	30.987         	7.696
MS.162         	30.925         	7.823
MS.163         	30.862         	7.827
MS.164         	30.802         	7.74
MS.165         	30.74          	7.722
MS.166         	30.677         	7.694
MS.167         	30.617         	7.781
MS.168         	30.555         	7.761
MS.169         	30.495         	7.674
MS.170         	30.435         	7.692
MS.171         	30.372         	7.652
MS.172         	30.312         	7.72
MS.173         	30.252         	7.67
MS.174         	30.192         	7.634
MS.175         	30.132         	7.694
MS.176         	30.07          	7.616
MS.177         	30.01          	7.64
MS.178         	29.95          	7.601
MS.179         	29.892         	7.605
MS.180         	29.832         	7.668
MS.181         	29.772         	7.595
MS.182         	29.712         	7.614
MS.183         	29.653         	7.628
MS.184         	29.595         	7.612
MS.185         	29.535         	7.601
MS.186         	29.475         	7.585
MS.187         	29.417         	7.591
MS.188         	29.358         	7.589
MS.189         	29.3           	7.531
MS.190         	29.24          	7.547
MS.191         	29.182         	7.545
MS.192         	29.125         	7.537
MS.193         	29.065         	7.557
MS.194         	29.007         	7.589
MS.195         	28.95          	7.543
MS.196         	28.892         	7.519
MS.197         	28.835         	7.553
MS.198         	28.778         	7.531
MS.199         	28.72          	7.539
MS.200         	28.662         	7.517
MS.201         	28.605         	7.444
MS.202         	28.547         	7.523
MS.203         	28.49          	7.458
MS.204         	28.432         	7.394
MS.205         	28.377         	7.418
MS.206         	28.32          	7.414
MS.207         	28.262         	7.41
MS.208         	28.207         	7.438
MS.209         	28.15          	7.432
MS.210         	28.095         	7.354
MS.211         	28.037         	7.402
MS.212         	27.983         	7.448
MS.213         	27.927         	7.301
MS.214         	27.87          	7.35
MS.215         	27.815         	7.287
MS.216         	27.76          	7.317
MS.217         	27.705         	7.116
MS.218         	27.647         	7.271
MS.219         	27.592         	7.172
MS.220         	27.537         	7.094
MS.221         	27.483         	7.064
MS.222         	27.427         	7.124
MS.223         	27.372         	7.076
MS.224         	27.317         	7.17
MS.225         	27.265         	7.088
MS.226         	27.21          	7.102
MS.227         	27.155         	7.08
MS.228         	27.1           	7.033
MS.229         	27.047         	6.935
MS.230         	26.993         	6.963
MS.231         	26.94          	6.921
MS.232         	26.885         	6.955
MS.233         	26.832         	6.961
MS.234         	26.778         	6.78
MS.235         	26.725         	6.79
MS.236         	26.67          	6.753
MS.237         	26.618         	6.739
MS.238         	26.565         	6.737
MS.239         	26.51          	6.762
MS.240         	26.457         	6.737
MS.241         	26.405         	6.731
MS.242         	26.352         	6.711
MS.243         	26.3           	6.586
MS.244         	26.247         	6.592
MS.245         	26.195         	6.578
MS.246         	26.142         	6.574
MS.247         	26.09          	6.522
MS.248         	26.037         	6.057
MS.249         	25.987         	6.413
MS.250         	25.935         	6.439
MS.251         	25.882         	6.407
MS.252         	25.83          	6.357
MS.253         	25.78          	6.427
MS.254         	25.727         	6.284
MS.255         	25.677         	6.254
MS.256         	25.625         	6.177
MS.257         	25.575         	6.236
MS.258         	25.522         	6.208
MS.259         	25.472         	6.25
MS.260         	25.42          	6.125
MS.261         	25.37          	6.059
MS.262         	25.32          	5.922
MS.263         	25.267         	6.091
MS.264         	25.217         	6.075
MS.265         	25.167         	6.115
MS.266         	25.118         	6.089
MS.267         	25.067         	5.956
MS.268         	25.017         	6.044
MS.269         	24.967         	5.996
MS.270         	24.917         	5.899
MS.271         	24.868         	5.769
MS.272         	24.817         	5.732
MS.273         	24.767         	5.904
MS.274         	24.72          	5.839
MS.275         	24.67          	5.849
MS.276         	24.62          	5.758
MS.277         	24.57          	5.879
MS.278         	24.522         	5.819
MS.279         	24.472         	5.744
MS.280         	24.425         	5.732
MS.281         	24.375         	5.746
MS.282         	24.327         	5.73
MS.283         	24.278         	5.626
MS.284         	24.23          	5.559
MS.285         	24.18          	5.744
MS.286         	24.132         	5.601
MS.287         	24.085         	5.605
MS.288         	24.038         	5.569
MS.289         	23.987         	5.525
MS.290         	23.94          	5.489
MS.291         	23.892         	5.448
MS.292         	23.845         	5.483
MS.293         	23.797         	5.531
MS.294         	23.75          	5.418
MS.295         	23.702         	5.464
MS.296         	23.655         	5.472
MS.297         	23.608         	5.336
MS.298         	23.56          	5.4
MS.299         	23.512         	5.368
MS.300         	23.467         	5.374
MS.301         	23.42          	5.297
MS.302         	23.372         	5.311
MS.303         	23.325         	5.154
MS.304         	23.28          	5.239
MS.305         	23.233         	5.168
MS.306         	23.188         	5.158
MS.307         	23.14          	5.12
MS.308         	23.095         	5.174
MS.309         	23.047         	5.017
MS.310         	23.002         	5.066
MS.311         	22.955         	4.947
MS.312         	22.91          	5.116
MS.313         	22.865         	4.894
MS.314         	22.817         	4.933
MS.315         	22.772         	4.804
MS.316         	22.727         	4.635
MS.317         	22.682         	4.896
MS.318         	22.637         	4.653
MS.319         	22.592         	4.671
MS.320         	22.545         	4.667
MS.321         	22.5           	4.655
MS.322         	22.455         	4.441
MS.323         	22.413         	4.546
MS.324         	22.368         	4.677
MS.325         	22.323         	4.421
MS.326         	22.278         	4.455
MS.327         	22.233         	4.347
MS.328         	22.188         	4.286
MS.329         	22.145         	4.405
MS.330         	22.1           	4.492
MS.331         	22.055         	4.274
MS.332         	22.012         	4.292
MS.333         	21.967         	4.185
MS.334         	21.922         	4.123
MS.335         	21.88          	4.055
MS.336         	21.835         	4.111
MS.337         	21.792         	4.042
MS.338         	21.75          	4.085
MS.339         	21.705         	3.964
MS.340         	21.663         	3.926
MS.341         	21.62          	3.903
MS.342         	21.575         	4.042
MS.343         	21.532         	3.918
MS.344         	21.49          	3.851
MS.345         	21.448         	3.742
MS.346         	21.405         	3.817
MS.347         	21.36          	3.843
MS.348         	21.317         	3.777
MS.349         	21.275         	3.793
MS.350         	21.233         	3.738
MS.351         	21.19          	3.668
MS.352         	21.147         	3.69
MS.353         	21.105         	3.628
MS.354         	21.065         	3.563
MS.355         	21.022         	3.589
MS.356         	20.98          	3.619
MS.357         	20.938         	3.497
MS.358         	20.895         	3.577
MS.359         	20.855         	3.46
MS.360         	20.812         	3.446
MS.361         	20.77          	3.358
MS.362         	20.73          	3.366
MS.363         	20.688         	3.279
MS.364         	20.647         	3.414
MS.365         	20.605         	3.321
MS.366         	20.565         	3.271
MS.367         	20.522         	3.255
MS.368         	20.483         	3.188
MS.369         	20.442         	3.227
MS.370         	20.4           	3.166
MS.371         	20.36          	3.241
MS.372         	20.32          	3.118
MS.373         	20.278         	3.06
MS.374         	20.237         	3.013
MS.375         	20.198         	3.025
MS.376         	20.157         	2.927
MS.377         	20.118         	3.023
MS.378         	20.077         	2.888
MS.379         	20.038         	2.959
MS.380         	19.997         	2.973
MS.381         	19.958         	2.852
MS.382         	19.917         	2.814
MS.383         	19.877         	2.892
MS.384         	19.837         	2.812
MS.385         	19.797         	2.788
MS.386         	19.757         	2.79
MS.387         	19.717         	2.763
MS.388         	19.68          	2.747
MS.389         	19.64          	2.693
MS.390         	19.6           	2.612
MS.391         	19.562         	2.751
MS.392         	19.522         	2.689
MS.393         	19.483         	2.62
MS.394         	19.445         	2.703
MS.395         	19.405         	2.628
MS.396         	19.368         	2.494
MS.397         	19.327         	2.494
MS.398         	19.29          	2.55
MS.399         	19.25          	2.459
MS.400         	19.212         	2.467
MS.401         	19.175         	2.459
MS.402         	19.135         	2.371
MS.403         	19.097         	2.308
MS.404         	19.06          	2.393
MS.405         	19.022         	2.391
MS.406         	18.983         	2.334
MS.407         	18.945         	2.294
MS.408         	18.907         	2.33
MS.409         	18.87          	2.266
MS.410         	18.833         	2.262
MS.411         	18.795         	2.326
MS.412         	18.757         	2.175
MS.413         	18.72          	2.079
MS.414         	18.682         	2.147
MS.415         	18.645         	2.046
MS.416         	18.608         	2.038
MS.417         	18.57          	1.928
MS.418         	18.532         	1.966
MS.419         	18.497         	1.952
MS.420         	18.46          	1.98
MS.421         	18.422         	2.06
MS.422         	18.385         	1.97
MS.423         	18.35          	1.907
MS.424         	18.312         	1.928
MS.425         	18.275         	1.962
MS.426         	18.24          	1.956
MS.427         	18.202         	1.797
MS.428         	18.167         	1.845
MS.429         	18.13          	1.736
MS.430         	18.095         	1.774
MS.431         	18.057         	1.742
MS.432         	18.022         	1.714
MS.433         	17.985         	1.609
MS.434         	17.95          	1.656
MS.435         	17.913         	1.613
MS.436         	17.878         	1.65
MS.437         	17.842         	1.696
MS.438         	17.807         	1.692
MS.439         	17.77          	1.615
MS.440         	17.735         	1.621
MS.441         	17.7           	1.501
MS.442         	17.665         	1.585
MS.443         	17.63          	1.478
MS.444         	17.595         	1.533
MS.445         	17.56          	1.501
MS.446         	17.525         	1.644
MS.447         	17.49          	1.519
MS.448         	17.455         	1.482
MS.449         	17.42          	1.492
MS.450         	17.385         	1.519
MS.451         	17.35          	1.42
MS.452         	17.315         	1.408
MS.453         	17.28          	1.474
MS.454         	17.245         	1.424
MS.455         	17.212         	1.428
MS.456         	17.177         	1.378
MS.457         	17.142         	1.333
MS.458         	17.108         	1.285
MS.459         	17.075         	1.331
MS.460         	17.04          	1.303
MS.461         	17.005         	1.315
MS.462         	16.972         	1.219
MS.463         	16.938         	1.331
MS.464         	16.905         	1.202
MS.465         	16.87          	1.229
MS.466         	16.837         	1.227
MS.467         	16.802         	1.168
MS.468         	16.77          	1.146
MS.469         	16.735         	1.162
MS.470         	16.702         	1.118
MS.471         	16.67          	1.148
MS.472         	16.635         	1.138
MS.473         	16.602         	1.072
MS.474         	16.57          	1.023
MS.475         	16.538         	1.035
MS.476         	16.503         	1.059
MS.477         	16.47          	0.981
MS.478         	16.438         	0.991
MS.479         	16.405         	0.995
MS.480         	16.372         	0.935
MS.481         	16.34          	0.965
MS.482         	16.307         	0.973
MS.483         	16.275         	0.977
MS.484         	16.243         	0.894
MS.485         	16.21          	0.888
MS.486         	16.177         	0.981
MS.487         	16.145         	0.918
MS.488         	16.112         	0.888
MS.489         	16.08          	0.868
MS.490         	16.047         	0.834
MS.491         	16.015         	0.927
MS.492         	15.983         	0.816
MS.493         	15.952         	0.804
MS.494         	15.92          	0.838
MS.495         	15.887         	0.814
MS.496         	15.858         	0.858
MS.497         	15.825         	0.781
MS.498         	15.792         	0.771
MS.499         	15.762         	0.755
MS.500         	15.73          	0.812
