File:              	C:\Qtrac\Data\Daniel M Sørensen\MScan multicentre study\Data from centres\Oslo\IronKey\Oslo_NC_first examination\SZC00507B.QZD
Name:              	NO.OSL.NC.7.1
Protocol:          	MSCAN-R2
Date:              	7/5/20
Start time:        	15:54:19
Age:               	30
Sex:               	F
Temperature:       	32.4
S/R sites:         	Ulnar Wr-ADM
NC/disease:        	NC7
Operator:          	SZ
Comments:          	Test1
M-SCAN DATA (11.1-4.1m)
Scanpts: 26, 34, 680, 699
Stim. (mA)     	Amp. (mV)
MS.1           	19.5           	11.074
MS.2           	19.5           	11.054
MS.3           	19.5           	11.056
MS.4           	19.5           	11.046
MS.5           	19.5           	11.056
MS.6           	19.5           	11.058
MS.7           	19.5           	11.068
MS.8           	19.5           	11.114
MS.9           	19.5           	11.148
MS.10          	19.5           	11.154
MS.11          	19.5           	11.162
MS.12          	19.5           	11.16
MS.13          	19.5           	11.177
MS.14          	19.5           	11.162
MS.15          	19.5           	11.173
MS.16          	19.5           	11.173
MS.17          	19.5           	11.173
MS.18          	19.5           	11.199
MS.19          	19.5           	11.195
MS.20          	19.5           	11.187
MS.21          	19.5           	11.195
MS.22          	19.5           	11.183
MS.23          	19.5           	11.187
MS.24          	19.422         	11.167
MS.25          	19.382         	11.175
MS.26          	19.345         	11.181
MS.27          	19.305         	11.175
MS.28          	19.267         	11.181
MS.29          	19.23          	11.158
MS.30          	19.19          	11.16
MS.31          	19.153         	11.185
MS.32          	19.115         	11.189
MS.33          	19.075         	11.191
MS.34          	19.038         	11.191
MS.35          	19             	11.185
MS.36          	18.962         	11.187
MS.37          	18.922         	11.173
MS.38          	18.885         	11.173
MS.39          	18.847         	11.181
MS.40          	18.81          	11.185
MS.41          	18.772         	11.193
MS.42          	18.735         	11.185
MS.43          	18.698         	11.171
MS.44          	18.66          	11.179
MS.45          	18.622         	11.189
MS.46          	18.585         	11.175
MS.47          	18.55          	11.191
MS.48          	18.512         	11.195
MS.49          	18.475         	11.197
MS.50          	18.438         	11.197
MS.51          	18.4           	11.191
MS.52          	18.365         	11.185
MS.53          	18.327         	11.183
MS.54          	18.29          	11.187
MS.55          	18.255         	11.183
MS.56          	18.217         	11.191
MS.57          	18.182         	11.181
MS.58          	18.145         	11.181
MS.59          	18.11          	11.211
MS.60          	18.073         	11.175
MS.61          	18.038         	11.199
MS.62          	18             	11.179
MS.63          	17.965         	11.187
MS.64          	17.93          	11.195
MS.65          	17.892         	11.185
MS.66          	17.858         	11.179
MS.67          	17.823         	11.177
MS.68          	17.785         	11.181
MS.69          	17.75          	11.164
MS.70          	17.715         	11.158
MS.71          	17.68          	11.154
MS.72          	17.645         	11.132
MS.73          	17.61          	11.16
MS.74          	17.575         	11.152
MS.75          	17.538         	11.146
MS.76          	17.503         	11.136
MS.77          	17.467         	11.122
MS.78          	17.435         	11.134
MS.79          	17.4           	11.102
MS.80          	17.365         	11.11
MS.81          	17.33          	11.09
MS.82          	17.295         	11.08
MS.83          	17.26          	11.122
MS.84          	17.225         	11.08
MS.85          	17.192         	11.106
MS.86          	17.157         	11.072
MS.87          	17.122         	11.076
MS.88          	17.087         	11.06
MS.89          	17.055         	11.078
MS.90          	17.02          	11.056
MS.91          	16.987         	11.034
MS.92          	16.952         	11.06
MS.93          	16.917         	11.064
MS.94          	16.885         	11.028
MS.95          	16.85          	11.034
MS.96          	16.817         	11.05
MS.97          	16.782         	11.032
MS.98          	16.75          	11.023
MS.99          	16.717         	11.023
MS.100         	16.682         	11.021
MS.101         	16.65          	11.046
MS.102         	16.618         	11.023
MS.103         	16.583         	11.046
MS.104         	16.55          	10.991
MS.105         	16.517         	11.013
MS.106         	16.485         	10.993
MS.107         	16.452         	10.987
MS.108         	16.417         	11.001
MS.109         	16.385         	10.977
MS.110         	16.352         	10.961
MS.111         	16.32          	10.981
MS.112         	16.288         	10.985
MS.113         	16.255         	10.969
MS.114         	16.222         	10.985
MS.115         	16.19          	10.985
MS.116         	16.157         	10.901
MS.117         	16.125         	10.997
MS.118         	16.092         	10.941
MS.119         	16.062         	10.963
MS.120         	16.03          	10.945
MS.121         	15.997         	10.963
MS.122         	15.965         	10.923
MS.123         	15.932         	10.963
MS.124         	15.902         	10.878
MS.125         	15.87          	10.872
MS.126         	15.837         	10.941
MS.127         	15.807         	10.87
MS.128         	15.775         	10.854
MS.129         	15.742         	10.86
MS.130         	15.712         	10.834
MS.131         	15.68          	10.891
MS.132         	15.65          	10.85
MS.133         	15.617         	10.762
MS.134         	15.587         	10.814
MS.135         	15.555         	10.844
MS.136         	15.525         	10.846
MS.137         	15.492         	10.822
MS.138         	15.462         	10.854
MS.139         	15.432         	10.731
MS.140         	15.4           	10.778
MS.141         	15.37          	10.772
MS.142         	15.34          	10.77
MS.143         	15.307         	10.806
MS.144         	15.277         	10.76
MS.145         	15.247         	10.727
MS.146         	15.217         	10.758
MS.147         	15.188         	10.756
MS.148         	15.155         	10.681
MS.149         	15.125         	10.703
MS.150         	15.095         	10.687
MS.151         	15.065         	10.725
MS.152         	15.035         	10.677
MS.153         	15.005         	10.693
MS.154         	14.975         	10.572
MS.155         	14.945         	10.669
MS.156         	14.915         	10.659
MS.157         	14.885         	10.558
MS.158         	14.855         	10.59
MS.159         	14.827         	10.609
MS.160         	14.797         	10.52
MS.161         	14.767         	10.381
MS.162         	14.737         	10.458
MS.163         	14.707         	10.453
MS.164         	14.68          	10.435
MS.165         	14.65          	10.445
MS.166         	14.62          	10.381
MS.167         	14.59          	10.347
MS.168         	14.562         	10.355
MS.169         	14.532         	10.234
MS.170         	14.505         	10.165
MS.171         	14.475         	10.176
MS.172         	14.445         	9.926
MS.173         	14.417         	10.147
MS.174         	14.387         	9.956
MS.175         	14.36          	10.129
MS.176         	14.33          	10.035
MS.177         	14.302         	9.825
MS.178         	14.273         	9.928
MS.179         	14.245         	9.904
MS.180         	14.217         	9.946
MS.181         	14.188         	9.924
MS.182         	14.16          	9.789
MS.183         	14.132         	9.708
MS.184         	14.102         	9.668
MS.185         	14.075         	9.636
MS.186         	14.047         	9.781
MS.187         	14.02          	9.789
MS.188         	13.99          	9.62
MS.189         	13.962         	9.581
MS.190         	13.935         	9.43
MS.191         	13.907         	9.692
MS.192         	13.88          	9.525
MS.193         	13.852         	9.618
MS.194         	13.825         	9.471
MS.195         	13.797         	9.471
MS.196         	13.77          	9.473
MS.197         	13.742         	9.309
MS.198         	13.715         	9.422
MS.199         	13.688         	9.43
MS.200         	13.66          	9.408
MS.201         	13.632         	9.324
MS.202         	13.605         	9.315
MS.203         	13.577         	9.231
MS.204         	13.55          	9.366
MS.205         	13.523         	9.249
MS.206         	13.495         	9.132
MS.207         	13.47          	9.078
MS.208         	13.443         	9.013
MS.209         	13.415         	9.126
MS.210         	13.387         	9.036
MS.211         	13.362         	9.044
MS.212         	13.335         	9.09
MS.213         	13.307         	8.737
MS.214         	13.282         	8.941
MS.215         	13.255         	8.786
MS.216         	13.23          	8.701
MS.217         	13.202         	8.806
MS.218         	13.175         	8.731
MS.219         	13.15          	8.804
MS.220         	13.122         	8.496
MS.221         	13.097         	8.661
MS.222         	13.07          	8.558
MS.223         	13.045         	8.337
MS.224         	13.02          	8.572
MS.225         	12.992         	8.367
MS.226         	12.967         	8.417
MS.227         	12.94          	8.349
MS.228         	12.915         	8.198
MS.229         	12.89          	8.202
MS.230         	12.862         	8.294
MS.231         	12.837         	8.073
MS.232         	12.812         	8.053
MS.233         	12.787         	8.123
MS.234         	12.76          	7.94
MS.235         	12.735         	8.006
MS.236         	12.71          	7.896
MS.237         	12.685         	7.958
MS.238         	12.66          	7.851
MS.239         	12.635         	7.769
MS.240         	12.61          	7.795
MS.241         	12.585         	7.781
MS.242         	12.557         	7.833
MS.243         	12.532         	7.583
MS.244         	12.507         	7.569
MS.245         	12.483         	7.708
MS.246         	12.457         	7.624
MS.247         	12.432         	7.533
MS.248         	12.41          	7.416
MS.249         	12.385         	7.597
MS.250         	12.36          	7.567
MS.251         	12.335         	7.402
MS.252         	12.31          	7.328
MS.253         	12.285         	7.217
MS.254         	12.26          	7.046
MS.255         	12.238         	7.277
MS.256         	12.212         	7.13
MS.257         	12.188         	7.164
MS.258         	12.162         	7.142
MS.259         	12.14          	6.967
MS.260         	12.115         	6.975
MS.261         	12.09          	6.911
MS.262         	12.065         	6.957
MS.263         	12.042         	6.788
MS.264         	12.017         	6.774
MS.265         	11.995         	6.794
MS.266         	11.97          	6.627
MS.267         	11.945         	6.608
MS.268         	11.922         	6.534
MS.269         	11.898         	6.502
MS.270         	11.875         	6.445
MS.271         	11.85          	6.518
MS.272         	11.827         	6.496
MS.273         	11.802         	6.389
MS.274         	11.78          	6.218
MS.275         	11.757         	6.165
MS.276         	11.733         	6.363
MS.277         	11.71          	6.216
MS.278         	11.685         	6.286
MS.279         	11.662         	6.185
MS.280         	11.64          	6.147
MS.281         	11.617         	6.181
MS.282         	11.592         	6.198
MS.283         	11.57          	5.966
MS.284         	11.547         	6.063
MS.285         	11.525         	5.928
MS.286         	11.5           	5.938
MS.287         	11.477         	5.948
MS.288         	11.455         	5.94
MS.289         	11.432         	5.787
MS.290         	11.41          	5.648
MS.291         	11.387         	6.065
MS.292         	11.363         	5.811
MS.293         	11.34          	5.805
MS.294         	11.318         	5.855
MS.295         	11.295         	5.873
MS.296         	11.273         	5.767
MS.297         	11.25          	5.698
MS.298         	11.227         	5.609
MS.299         	11.205         	5.599
MS.300         	11.182         	5.652
MS.301         	11.16          	5.765
MS.302         	11.137         	5.785
MS.303         	11.117         	5.634
MS.304         	11.095         	5.698
MS.305         	11.073         	5.601
MS.306         	11.05          	5.617
MS.307         	11.028         	5.595
MS.308         	11.005         	5.622
MS.309         	10.983         	5.636
MS.310         	10.962         	5.539
MS.311         	10.94          	5.545
MS.312         	10.917         	5.593
MS.313         	10.895         	5.561
MS.314         	10.875         	5.545
MS.315         	10.852         	5.535
MS.316         	10.83          	5.563
MS.317         	10.81          	5.607
MS.318         	10.787         	5.539
MS.319         	10.765         	5.485
MS.320         	10.745         	5.515
MS.321         	10.722         	5.477
MS.322         	10.702         	5.523
MS.323         	10.68          	5.535
MS.324         	10.66          	5.599
MS.325         	10.637         	5.537
MS.326         	10.617         	5.561
MS.327         	10.595         	5.535
MS.328         	10.575         	5.531
MS.329         	10.552         	5.595
MS.330         	10.532         	5.583
MS.331         	10.51          	5.583
MS.332         	10.49          	5.565
MS.333         	10.47          	5.503
MS.334         	10.448         	5.503
MS.335         	10.427         	5.432
MS.336         	10.407         	5.444
MS.337         	10.385         	5.503
MS.338         	10.365         	5.434
MS.339         	10.345         	5.378
MS.340         	10.323         	5.41
MS.341         	10.302         	5.054
MS.342         	10.282         	5.287
MS.343         	10.262         	5.406
MS.344         	10.24          	5.193
MS.345         	10.22          	5.144
MS.346         	10.2           	5.388
MS.347         	10.18          	5.102
MS.348         	10.16          	5.221
MS.349         	10.14          	5.114
MS.350         	10.12          	5.084
MS.351         	10.097         	5.253
MS.352         	10.077         	5.082
MS.353         	10.057         	5.094
MS.354         	10.037         	5.124
MS.355         	10.017         	4.939
MS.356         	9.997          	4.788
MS.357         	9.977          	5.114
MS.358         	9.957          	5.06
MS.359         	9.938          	4.816
MS.360         	9.917          	4.812
MS.361         	9.9            	4.941
MS.362         	9.88           	4.727
MS.363         	9.86           	4.55
MS.364         	9.84           	4.536
MS.365         	9.82           	4.512
MS.366         	9.8            	4.83
MS.367         	9.78           	4.8
MS.368         	9.76           	4.588
MS.369         	9.742          	4.429
MS.370         	9.722          	4.671
MS.371         	9.702          	4.411
MS.372         	9.682          	4.498
MS.373         	9.665          	4.778
MS.374         	9.645          	4.202
MS.375         	9.625          	4.643
MS.376         	9.605          	4.298
MS.377         	9.587          	4.006
MS.378         	9.568          	4.252
MS.379         	9.55           	4.177
MS.380         	9.53           	4.308
MS.381         	9.51           	4.169
MS.382         	9.492          	4.109
MS.383         	9.472          	4.252
MS.384         	9.452          	3.905
MS.385         	9.435          	4.308
MS.386         	9.415          	4.204
MS.387         	9.398          	4.145
MS.388         	9.377          	3.938
MS.389         	9.36           	4.081
MS.390         	9.34           	4.119
MS.391         	9.323          	3.94
MS.392         	9.302          	4.195
MS.393         	9.285          	3.92
MS.394         	9.267          	4.075
MS.395         	9.247          	3.992
MS.396         	9.23           	3.611
MS.397         	9.21           	3.787
MS.398         	9.193          	3.855
MS.399         	9.175          	3.914
MS.400         	9.155          	3.497
MS.401         	9.137          	3.503
MS.402         	9.12           	3.323
MS.403         	9.1            	3.243
MS.404         	9.082          	3.505
MS.405         	9.065          	3.63
MS.406         	9.047          	3.239
MS.407         	9.028          	3.317
MS.408         	9.01           	3.406
MS.409         	8.992          	3.388
MS.410         	8.975          	3.021
MS.411         	8.957          	2.973
MS.412         	8.94           	2.838
MS.413         	8.92           	3.257
MS.414         	8.903          	3.102
MS.415         	8.885          	2.902
MS.416         	8.867          	2.961
MS.417         	8.85           	2.622
MS.418         	8.832          	2.429
MS.419         	8.815          	2.683
MS.420         	8.797          	3.06
MS.421         	8.78           	2.78
MS.422         	8.762          	2.62
MS.423         	8.745          	2.737
MS.424         	8.727          	2.63
MS.425         	8.71           	2.236
MS.426         	8.693          	2.292
MS.427         	8.675          	2.447
MS.428         	8.658          	2.534
MS.429         	8.64           	2.296
MS.430         	8.622          	2.206
MS.431         	8.605          	2.181
MS.432         	8.587          	2.324
MS.433         	8.57           	2.208
MS.434         	8.555          	2.324
MS.435         	8.537          	1.998
MS.436         	8.52           	1.96
MS.437         	8.502          	1.968
MS.438         	8.485          	1.841
MS.439         	8.47           	1.688
MS.440         	8.452          	1.708
MS.441         	8.435          	1.71
MS.442         	8.417          	1.74
MS.443         	8.403          	1.561
MS.444         	8.385          	1.752
MS.445         	8.367          	1.875
MS.446         	8.35           	1.482
MS.447         	8.335          	1.577
MS.448         	8.318          	1.545
MS.449         	8.302          	1.394
MS.450         	8.285          	1.484
MS.451         	8.267          	1.247
MS.452         	8.252          	1.557
MS.453         	8.235          	1.627
MS.454         	8.217          	1.37
MS.455         	8.202          	1.275
MS.456         	8.185          	1.325
MS.457         	8.17           	1.17
MS.458         	8.153          	1.255
MS.459         	8.137          	1.281
MS.460         	8.12           	1.082
MS.461         	8.105          	1.136
MS.462         	8.087          	1.158
MS.463         	8.073          	1.325
MS.464         	8.055          	1.031
MS.465         	8.04           	1.082
MS.466         	8.025          	1.021
MS.467         	8.007          	1.059
MS.468         	7.992          	1.049
MS.469         	7.975          	1.037
MS.470         	7.96           	0.987
MS.471         	7.945          	0.933
MS.472         	7.927          	0.969
MS.473         	7.912          	1.023
MS.474         	7.898          	1.001
MS.475         	7.88           	0.935
MS.476         	7.865          	0.882
MS.477         	7.85           	0.929
MS.478         	7.832          	0.806
MS.479         	7.817          	0.79
MS.480         	7.802          	0.84
MS.481         	7.787          	0.83
MS.482         	7.77           	0.727
MS.483         	7.755          	1.102
MS.484         	7.74           	0.882
MS.485         	7.725          	0.802
MS.486         	7.71           	0.771
MS.487         	7.695          	0.711
MS.488         	7.677          	0.667
MS.489         	7.662          	0.733
MS.490         	7.648          	0.606
MS.491         	7.632          	0.675
MS.492         	7.617          	0.675
MS.493         	7.602          	0.636
MS.494         	7.587          	0.701
MS.495         	7.572          	0.634
