File:              	C:\Qtrac\Data\Daniel M Sørensen\MScan multicentre study\Data from centres\Oslo\Processed data\SZC00611B (2).QZD
Name:              	NO.OSL.NC.16.2
Protocol:          	MSCAN-R2
Date:              	11/6/20
Start time:        	15:32:51
Age:               	64
Sex:               	M
Temperature:       	34.3
S/R sites:         	ADM
NC/disease:        	NC16
Operator:          	SZ
Comments:          	Test2
M-SCAN DATA (9.3-2.7m)
Scanpts: 32, 64, 686, 708
Stim. (mA)     	Amp. (mV)
MS.1           	21             	10.105
MS.2           	21             	10.117
MS.3           	21             	10.111
MS.4           	21             	10.103
MS.5           	21             	10.109
MS.6           	21             	10.121
MS.7           	21             	10.155
MS.8           	21             	10.143
MS.9           	21             	10.159
MS.10          	21             	10.169
MS.11          	21             	10.192
MS.12          	21             	10.2
MS.13          	21             	10.141
MS.14          	21             	10.206
MS.15          	21             	10.165
MS.16          	21             	10.202
MS.17          	21             	10.19
MS.18          	21             	10.182
MS.19          	21             	10.212
MS.20          	21             	10.198
MS.21          	21             	10.198
MS.22          	21             	10.149
MS.23          	21             	10.186
MS.24          	20.915         	10.19
MS.25          	20.875         	10.204
MS.26          	20.833         	10.204
MS.27          	20.79          	10.212
MS.28          	20.75          	10.214
MS.29          	20.708         	10.222
MS.30          	20.667         	10.212
MS.31          	20.625         	10.238
MS.32          	20.585         	10.218
MS.33          	20.542         	10.212
MS.34          	20.502         	10.214
MS.35          	20.46          	10.202
MS.36          	20.42          	10.18
MS.37          	20.38          	10.224
MS.38          	20.337         	10.157
MS.39          	20.297         	10.236
MS.40          	20.257         	10.208
MS.41          	20.217         	10.196
MS.42          	20.177         	10.188
MS.43          	20.135         	10.192
MS.44          	20.095         	10.198
MS.45          	20.055         	10.212
MS.46          	20.015         	10.133
MS.47          	19.975         	10.145
MS.48          	19.935         	10.176
MS.49          	19.895         	10.184
MS.50          	19.855         	10.212
MS.51          	19.817         	10.204
MS.52          	19.778         	10.178
MS.53          	19.737         	10.194
MS.54          	19.698         	10.21
MS.55          	19.657         	10.212
MS.56          	19.62          	10.232
MS.57          	19.58          	10.198
MS.58          	19.54          	10.23
MS.59          	19.502         	10.202
MS.60          	19.462         	10.186
MS.61          	19.425         	10.22
MS.62          	19.385         	10.218
MS.63          	19.347         	10.192
MS.64          	19.307         	10.238
MS.65          	19.27          	10.222
MS.66          	19.23          	10.214
MS.67          	19.192         	10.202
MS.68          	19.155         	10.246
MS.69          	19.115         	10.22
MS.70          	19.077         	10.22
MS.71          	19.04          	10.224
MS.72          	19.002         	10.196
MS.73          	18.962         	10.159
MS.74          	18.925         	10.159
MS.75          	18.887         	10.174
MS.76          	18.85          	10.182
MS.77          	18.812         	10.174
MS.78          	18.775         	10.18
MS.79          	18.737         	10.157
MS.80          	18.7           	10.157
MS.81          	18.663         	10.133
MS.82          	18.625         	10.097
MS.83          	18.587         	10.075
MS.84          	18.55          	10.071
MS.85          	18.515         	10.095
MS.86          	18.477         	10.067
MS.87          	18.44          	10.111
MS.88          	18.403         	10.075
MS.89          	18.368         	10.103
MS.90          	18.33          	10.067
MS.91          	18.292         	10.079
MS.92          	18.257         	10.105
MS.93          	18.22          	10.087
MS.94          	18.182         	10.075
MS.95          	18.147         	10.083
MS.96          	18.11          	10.083
MS.97          	18.075         	10.085
MS.98          	18.038         	10.097
MS.99          	18.003         	10.055
MS.100         	17.967         	10.026
MS.101         	17.93          	10.099
MS.102         	17.895         	10.029
MS.103         	17.86          	10.024
MS.104         	17.823         	10.063
MS.105         	17.788         	10.051
MS.106         	17.753         	10.091
MS.107         	17.717         	10.095
MS.108         	17.682         	10.123
MS.109         	17.645         	10.047
MS.110         	17.61          	10.093
MS.111         	17.575         	10.085
MS.112         	17.54          	10.047
MS.113         	17.505         	10.059
MS.114         	17.47          	10.081
MS.115         	17.435         	10.127
MS.116         	17.4           	10.091
MS.117         	17.365         	10.01
MS.118         	17.333         	10.109
MS.119         	17.297         	10.115
MS.120         	17.262         	10.051
MS.121         	17.227         	10.093
MS.122         	17.192         	10.097
MS.123         	17.16          	10.077
MS.124         	17.125         	10.081
MS.125         	17.09          	10.083
MS.126         	17.057         	10.057
MS.127         	17.022         	10.087
MS.128         	16.987         	10.069
MS.129         	16.955         	10.107
MS.130         	16.92          	10.097
MS.131         	16.887         	10.087
MS.132         	16.852         	10.091
MS.133         	16.82          	10.103
MS.134         	16.785         	10.097
MS.135         	16.753         	10.101
MS.136         	16.717         	10.119
MS.137         	16.685         	10.127
MS.138         	16.653         	10.101
MS.139         	16.618         	10.089
MS.140         	16.585         	10.075
MS.141         	16.552         	10.099
MS.142         	16.52          	10.063
MS.143         	16.485         	10.087
MS.144         	16.452         	10.109
MS.145         	16.42          	10.091
MS.146         	16.387         	10.101
MS.147         	16.355         	10.063
MS.148         	16.323         	10.081
MS.149         	16.29          	10.111
MS.150         	16.257         	10.093
MS.151         	16.225         	10.129
MS.152         	16.192         	10.145
MS.153         	16.16          	10.149
MS.154         	16.128         	10.109
MS.155         	16.095         	10.139
MS.156         	16.062         	10.101
MS.157         	16.03          	10.135
MS.158         	16             	10.139
MS.159         	15.967         	10.137
MS.160         	15.935         	10.107
MS.161         	15.902         	10.099
MS.162         	15.872         	10.085
MS.163         	15.84          	10.081
MS.164         	15.807         	10.109
MS.165         	15.777         	10.099
MS.166         	15.745         	10.135
MS.167         	15.712         	10.061
MS.168         	15.682         	10.119
MS.169         	15.65          	10.069
MS.170         	15.62          	10.075
MS.171         	15.587         	10.083
MS.172         	15.557         	10.097
MS.173         	15.525         	10.065
MS.174         	15.495         	10.139
MS.175         	15.465         	10.049
MS.176         	15.432         	10.043
MS.177         	15.402         	10.089
MS.178         	15.372         	10.059
MS.179         	15.34          	10.037
MS.180         	15.31          	10.067
MS.181         	15.28          	10.071
MS.182         	15.25          	10.035
MS.183         	15.217         	10.029
MS.184         	15.188         	10.016
MS.185         	15.157         	10.073
MS.186         	15.127         	10.02
MS.187         	15.097         	10.055
MS.188         	15.068         	10.073
MS.189         	15.037         	10.008
MS.190         	15.007         	10.02
MS.191         	14.977         	10.049
MS.192         	14.947         	10.045
MS.193         	14.917         	10.047
MS.194         	14.887         	9.984
MS.195         	14.858         	10.029
MS.196         	14.827         	10.043
MS.197         	14.797         	10.041
MS.198         	14.77          	10.117
MS.199         	14.74          	10.041
MS.200         	14.71          	10.081
MS.201         	14.68          	10.103
MS.202         	14.65          	10.121
MS.203         	14.622         	10.055
MS.204         	14.592         	10.037
MS.205         	14.562         	10.014
MS.206         	14.535         	10.035
MS.207         	14.505         	10.059
MS.208         	14.477         	10.071
MS.209         	14.447         	10.081
MS.210         	14.417         	10.099
MS.211         	14.39          	10.087
MS.212         	14.36          	10.071
MS.213         	14.332         	10.053
MS.214         	14.302         	10.085
MS.215         	14.275         	10.115
MS.216         	14.247         	10.071
MS.217         	14.217         	10.037
MS.218         	14.19          	10.035
MS.219         	14.162         	10.073
MS.220         	14.132         	9.894
MS.221         	14.105         	10.063
MS.222         	14.077         	9.885
MS.223         	14.047         	9.91
MS.224         	14.02          	9.849
MS.225         	13.992         	10.002
MS.226         	13.965         	10.002
MS.227         	13.938         	9.847
MS.228         	13.91          	9.998
MS.229         	13.88          	9.986
MS.230         	13.852         	9.821
MS.231         	13.825         	9.805
MS.232         	13.797         	9.964
MS.233         	13.77          	9.783
MS.234         	13.742         	9.92
MS.235         	13.715         	9.813
MS.236         	13.688         	9.763
MS.237         	13.66          	9.781
MS.238         	13.632         	9.777
MS.239         	13.605         	9.765
MS.240         	13.58          	9.704
MS.241         	13.552         	9.738
MS.242         	13.525         	9.755
MS.243         	13.497         	9.757
MS.244         	13.47          	9.716
MS.245         	13.445         	9.736
MS.246         	13.417         	9.704
MS.247         	13.39          	9.682
MS.248         	13.362         	9.64
MS.249         	13.337         	9.722
MS.250         	13.31          	9.392
MS.251         	13.282         	9.497
MS.252         	13.257         	9.392
MS.253         	13.23          	9.356
MS.254         	13.205         	9.45
MS.255         	13.177         	9.36
MS.256         	13.153         	9.388
MS.257         	13.125         	9.416
MS.258         	13.1           	9.422
MS.259         	13.072         	9.408
MS.260         	13.047         	9.376
MS.261         	13.02          	9.45
MS.262         	12.995         	9.414
MS.263         	12.967         	9.446
MS.264         	12.943         	9.436
MS.265         	12.917         	9.553
MS.266         	12.89          	9.456
MS.267         	12.865         	9.471
MS.268         	12.84          	9.501
MS.269         	12.812         	9.458
MS.270         	12.787         	9.386
MS.271         	12.762         	9.392
MS.272         	12.738         	9.463
MS.273         	12.712         	9.456
MS.274         	12.685         	9.497
MS.275         	12.66          	9.364
MS.276         	12.635         	9.454
MS.277         	12.61          	9.426
MS.278         	12.585         	9.43
MS.279         	12.56          	9.416
MS.280         	12.535         	9.485
MS.281         	12.51          	9.467
MS.282         	12.485         	9.376
MS.283         	12.46          	9.456
MS.284         	12.435         	9.362
MS.285         	12.41          	9.305
MS.286         	12.385         	9.328
MS.287         	12.36          	9.461
MS.288         	12.335         	9.342
MS.289         	12.312         	9.318
MS.290         	12.287         	9.372
MS.291         	12.262         	9.305
MS.292         	12.238         	9.334
MS.293         	12.212         	9.338
MS.294         	12.19          	9.37
MS.295         	12.165         	9.273
MS.296         	12.14          	9.297
MS.297         	12.115         	9.318
MS.298         	12.092         	9.249
MS.299         	12.068         	9.303
MS.300         	12.042         	9.346
MS.301         	12.02          	9.269
MS.302         	11.995         	9.257
MS.303         	11.972         	9.281
MS.304         	11.947         	9.313
MS.305         	11.922         	9.277
MS.306         	11.9           	9.197
MS.307         	11.875         	9.265
MS.308         	11.852         	9.148
MS.309         	11.827         	9.189
MS.310         	11.805         	9.187
MS.311         	11.782         	9.283
MS.312         	11.757         	9.227
MS.313         	11.735         	9.15
MS.314         	11.71          	9.007
MS.315         	11.688         	9.257
MS.316         	11.665         	9.283
MS.317         	11.64          	9.221
MS.318         	11.617         	9.04
MS.319         	11.595         	9.074
MS.320         	11.57          	9.203
MS.321         	11.547         	9.044
MS.322         	11.525         	9.068
MS.323         	11.502         	8.935
MS.324         	11.48          	9.144
MS.325         	11.455         	8.989
MS.326         	11.432         	9.181
MS.327         	11.41          	9.183
MS.328         	11.387         	8.905
MS.329         	11.365         	8.764
MS.330         	11.342         	8.81
MS.331         	11.32          	8.794
MS.332         	11.297         	8.897
MS.333         	11.275         	8.768
MS.334         	11.252         	8.689
MS.335         	11.23          	8.75
MS.336         	11.207         	8.572
MS.337         	11.185         	8.544
MS.338         	11.162         	8.459
MS.339         	11.14          	8.617
MS.340         	11.117         	8.363
MS.341         	11.095         	8.425
MS.342         	11.073         	8.468
MS.343         	11.05          	8.28
MS.344         	11.03          	8.379
MS.345         	11.007         	8.316
MS.346         	10.985         	8.339
MS.347         	10.962         	8.091
MS.348         	10.94          	8.262
MS.349         	10.92          	8.367
MS.350         	10.898         	8.282
MS.351         	10.875         	8.169
MS.352         	10.855         	8.117
MS.353         	10.832         	8.113
MS.354         	10.81          	8.043
MS.355         	10.79          	8.137
MS.356         	10.767         	8.026
MS.357         	10.745         	7.982
MS.358         	10.725         	7.994
MS.359         	10.702         	7.863
MS.360         	10.682         	7.791
MS.361         	10.66          	7.978
MS.362         	10.64          	7.692
MS.363         	10.617         	7.732
MS.364         	10.597         	7.509
MS.365         	10.575         	7.761
MS.366         	10.555         	7.551
MS.367         	10.532         	7.507
MS.368         	10.512         	7.499
MS.369         	10.49          	7.636
MS.370         	10.47          	7.4
MS.371         	10.45          	7.466
MS.372         	10.427         	7.448
MS.373         	10.407         	7.231
MS.374         	10.387         	7.287
MS.375         	10.365         	7.597
MS.376         	10.345         	7.261
MS.377         	10.325         	7.529
MS.378         	10.305         	7.217
MS.379         	10.282         	7.176
MS.380         	10.262         	7.237
MS.381         	10.242         	6.884
MS.382         	10.222         	7.176
MS.383         	10.202         	7.182
MS.384         	10.18          	6.969
MS.385         	10.16          	7.13
MS.386         	10.14          	7.027
MS.387         	10.12          	6.975
MS.388         	10.1           	6.711
MS.389         	10.08          	6.679
MS.390         	10.06          	6.758
MS.391         	10.04          	6.681
MS.392         	10.02          	6.673
MS.393         	10             	6.663
MS.394         	9.98           	6.544
MS.395         	9.96           	6.717
MS.396         	9.94           	6.566
MS.397         	9.92           	6.304
MS.398         	9.9            	6.623
MS.399         	9.88           	6.006
MS.400         	9.86           	6.554
MS.401         	9.84           	6.496
MS.402         	9.82           	6.397
MS.403         	9.802          	6.439
MS.404         	9.782          	6.312
MS.405         	9.762          	6.298
MS.406         	9.742          	6.113
MS.407         	9.722          	6.012
MS.408         	9.705          	6.339
MS.409         	9.685          	6.276
MS.410         	9.665          	6.214
MS.411         	9.645          	6.244
MS.412         	9.627          	5.968
MS.413         	9.608          	6.006
MS.414         	9.587          	6.147
MS.415         	9.57           	5.916
MS.416         	9.55           	5.642
MS.417         	9.53           	5.773
MS.418         	9.512          	5.197
MS.419         	9.492          	5.515
MS.420         	9.472          	5.803
MS.421         	9.455          	5.813
MS.422         	9.435          	5.477
MS.423         	9.417          	5.533
MS.424         	9.398          	5.664
MS.425         	9.38           	5.43
MS.426         	9.36           	5.235
MS.427         	9.342          	5.033
MS.428         	9.323          	4.947
MS.429         	9.305          	4.961
MS.430         	9.285          	5.043
MS.431         	9.267          	4.989
MS.432         	9.25           	4.858
MS.433         	9.23           	4.88
MS.434         	9.212          	4.848
MS.435         	9.193          	4.608
MS.436         	9.175          	4.649
MS.437         	9.158          	4.822
MS.438         	9.137          	5.041
MS.439         	9.12           	4.699
MS.440         	9.102          	4.689
MS.441         	9.085          	4.729
MS.442         	9.065          	4.32
MS.443         	9.047          	4.586
MS.444         	9.03           	4.508
MS.445         	9.012          	4.359
MS.446         	8.992          	4.266
MS.447         	8.975          	4.407
MS.448         	8.957          	4.435
MS.449         	8.94           	4.266
MS.450         	8.922          	4.502
MS.451         	8.905          	4.147
MS.452         	8.887          	4.046
MS.453         	8.867          	4.135
MS.454         	8.85           	3.881
MS.455         	8.832          	4.155
MS.456         	8.815          	3.867
MS.457         	8.797          	3.831
MS.458         	8.78           	3.849
MS.459         	8.762          	3.827
MS.460         	8.745          	4.061
MS.461         	8.727          	3.704
MS.462         	8.71           	3.768
MS.463         	8.693          	3.797
MS.464         	8.675          	3.843
MS.465         	8.658          	3.652
MS.466         	8.64           	3.529
MS.467         	8.622          	3.412
MS.468         	8.608          	3.527
MS.469         	8.59           	3.559
MS.470         	8.573          	3.611
MS.471         	8.555          	3.533
MS.472         	8.537          	3.613
MS.473         	8.52           	3.448
MS.474         	8.505          	3.587
MS.475         	8.488          	3.384
MS.476         	8.47           	3.406
MS.477         	8.452          	3.333
MS.478         	8.435          	3.382
MS.479         	8.42           	3.394
MS.480         	8.403          	3.263
MS.481         	8.385          	3.16
MS.482         	8.37           	3.257
MS.483         	8.352          	3.257
MS.484         	8.335          	3.321
MS.485         	8.32           	3.295
MS.486         	8.302          	3.237
MS.487         	8.285          	3.265
MS.488         	8.27           	3.158
MS.489         	8.252          	2.971
MS.490         	8.235          	3.239
MS.491         	8.22           	3.205
MS.492         	8.202          	2.987
MS.493         	8.188          	3.215
MS.494         	8.17           	2.902
