File:              	C:\Qtrac\Data\Daniel M Sørensen\MScan multicentre study\Data from centres\Oslo\Processed data\SZC00609A.QZD
Name:              	NO.OSL.NC.15.2
Protocol:          	MSCAN-R2
Date:              	9/6/20
Start time:        	16:49:21
Age:               	41
Sex:               	M
Temperature:       	33.5
S/R sites:         	APB
NC/disease:        	NC15
Operator:          	SZ
Comments:          	Test2
M-SCAN DATA (7.7-3.8m)
Scanpts: 5, 24, 353, 409
Stim. (mA)     	Amp. (mV)
MS.1           	23.5           	11.569
MS.2           	23.5           	11.573
MS.3           	23.5           	11.573
MS.4           	23.5           	11.531
MS.5           	23.5           	11.529
MS.6           	23.5           	11.523
MS.7           	23.5           	11.545
MS.8           	23.5           	11.553
MS.9           	23.5           	11.555
MS.10          	23.5           	11.559
MS.11          	23.5           	11.573
MS.12          	23.5           	11.559
MS.13          	23.5           	11.561
MS.14          	23.5           	11.489
MS.15          	23.5           	11.555
MS.16          	23.5           	11.559
MS.17          	23.5           	11.539
MS.18          	23.5           	11.545
MS.19          	23.5           	11.543
MS.20          	23.5           	11.541
MS.21          	23.5           	11.559
MS.22          	23.5           	11.559
MS.23          	23.5           	11.577
MS.24          	23.405         	11.559
MS.25          	23.36          	11.531
MS.26          	23.312         	11.531
MS.27          	23.265         	11.545
MS.28          	23.22          	11.547
MS.29          	23.172         	11.545
MS.30          	23.127         	11.543
MS.31          	23.08          	11.533
MS.32          	23.035         	11.525
MS.33          	22.987         	11.531
MS.34          	22.942         	11.471
MS.35          	22.897         	11.446
MS.36          	22.85          	11.491
MS.37          	22.805         	11.521
MS.38          	22.76          	11.434
MS.39          	22.715         	11.485
MS.40          	22.67          	11.479
MS.41          	22.622         	11.366
MS.42          	22.577         	11.412
MS.43          	22.532         	11.457
MS.44          	22.487         	11.517
MS.45          	22.442         	11.414
MS.46          	22.397         	11.489
MS.47          	22.355         	11.312
MS.48          	22.31          	11.348
MS.49          	22.265         	11.34
MS.50          	22.22          	11.334
MS.51          	22.175         	11.35
MS.52          	22.132         	11.326
MS.53          	22.087         	11.332
MS.54          	22.042         	11.398
MS.55          	22             	11.344
MS.56          	21.955         	11.328
MS.57          	21.91          	11.336
MS.58          	21.868         	11.346
MS.59          	21.823         	11.336
MS.60          	21.78          	11.336
MS.61          	21.737         	11.334
MS.62          	21.692         	11.322
MS.63          	21.65          	11.322
MS.64          	21.608         	11.324
MS.65          	21.562         	11.299
MS.66          	21.52          	11.332
MS.67          	21.477         	11.324
MS.68          	21.435         	11.33
MS.69          	21.392         	11.303
MS.70          	21.35          	11.31
MS.71          	21.305         	11.269
MS.72          	21.262         	11.285
MS.73          	21.22          	11.267
MS.74          	21.177         	11.259
MS.75          	21.137         	11.283
MS.76          	21.095         	11.263
MS.77          	21.052         	11.221
MS.78          	21.01          	11.213
MS.79          	20.967         	11.195
MS.80          	20.925         	11.203
MS.81          	20.885         	11.197
MS.82          	20.842         	11.177
MS.83          	20.8           	11.191
MS.84          	20.76          	11.152
MS.85          	20.717         	11.189
MS.86          	20.677         	11.1
MS.87          	20.635         	11.072
MS.88          	20.595         	11.16
MS.89          	20.552         	11.074
MS.90          	20.512         	11.078
MS.91          	20.47          	11.048
MS.92          	20.43          	11.064
MS.93          	20.39          	11.019
MS.94          	20.347         	11.013
MS.95          	20.307         	11.03
MS.96          	20.267         	10.909
MS.97          	20.227         	11.007
MS.98          	20.185         	11.005
MS.99          	20.145         	10.925
MS.100         	20.105         	10.919
MS.101         	20.065         	10.917
MS.102         	20.025         	10.812
MS.103         	19.985         	10.953
MS.104         	19.945         	10.967
MS.105         	19.905         	10.766
MS.106         	19.865         	10.677
MS.107         	19.825         	10.862
MS.108         	19.788         	10.615
MS.109         	19.747         	10.623
MS.110         	19.708         	10.464
MS.111         	19.667         	10.607
MS.112         	19.63          	10.544
MS.113         	19.59          	10.502
MS.114         	19.55          	10.391
MS.115         	19.512         	10.409
MS.116         	19.472         	10.329
MS.117         	19.432         	10.403
MS.118         	19.395         	10.365
MS.119         	19.355         	10.327
MS.120         	19.317         	10.28
MS.121         	19.278         	10.127
MS.122         	19.24          	10.282
MS.123         	19.202         	10.292
MS.124         	19.163         	9.996
MS.125         	19.125         	10.149
MS.126         	19.087         	10.24
MS.127         	19.047         	10.065
MS.128         	19.01          	9.892
MS.129         	18.972         	9.95
MS.130         	18.935         	9.974
MS.131         	18.897         	9.962
MS.132         	18.86          	10.022
MS.133         	18.823         	9.636
MS.134         	18.785         	9.773
MS.135         	18.747         	9.962
MS.136         	18.71          	9.95
MS.137         	18.672         	9.507
MS.138         	18.635         	9.775
MS.139         	18.597         	9.863
MS.140         	18.56          	9.539
MS.141         	18.522         	9.863
MS.142         	18.485         	9.481
MS.143         	18.448         	9.463
MS.144         	18.413         	9.483
MS.145         	18.375         	9.436
MS.146         	18.337         	9.38
MS.147         	18.302         	9.505
MS.148         	18.265         	9.289
MS.149         	18.227         	9.245
MS.150         	18.192         	9.301
MS.151         	18.155         	9.235
MS.152         	18.12          	9.346
MS.153         	18.083         	9.185
MS.154         	18.047         	9.181
MS.155         	18.01          	9.128
MS.156         	17.975         	8.989
MS.157         	17.94          	9.072
MS.158         	17.903         	8.983
MS.159         	17.868         	9.128
MS.160         	17.833         	8.981
MS.161         	17.797         	8.776
MS.162         	17.76          	8.741
MS.163         	17.725         	8.905
MS.164         	17.69          	8.893
MS.165         	17.655         	8.695
MS.166         	17.62          	8.731
MS.167         	17.585         	8.754
MS.168         	17.55          	8.679
MS.169         	17.515         	8.699
MS.170         	17.48          	8.687
MS.171         	17.445         	8.637
MS.172         	17.41          	8.596
MS.173         	17.375         	8.562
MS.174         	17.34          	8.081
MS.175         	17.305         	8.413
MS.176         	17.27          	8.103
MS.177         	17.235         	8.016
MS.178         	17.202         	8.341
MS.179         	17.167         	8.091
MS.180         	17.132         	8.039
MS.181         	17.097         	7.694
MS.182         	17.065         	7.75
MS.183         	17.03          	7.521
MS.184         	16.997         	7.777
MS.185         	16.962         	7.648
MS.186         	16.927         	7.203
MS.187         	16.895         	7.068
MS.188         	16.86          	7.094
MS.189         	16.827         	6.602
MS.190         	16.792         	7.162
MS.191         	16.76          	7.114
MS.192         	16.727         	7.025
MS.193         	16.692         	6.582
MS.194         	16.66          	6.306
MS.195         	16.628         	6.621
MS.196         	16.592         	5.811
MS.197         	16.56          	6.008
MS.198         	16.528         	5.503
MS.199         	16.495         	5.599
MS.200         	16.46          	5.501
MS.201         	16.427         	4.639
MS.202         	16.395         	4.832
MS.203         	16.362         	4.784
MS.204         	16.33          	5.1
MS.205         	16.297         	4.322
MS.206         	16.265         	4.492
MS.207         	16.233         	4.699
MS.208         	16.2           	3.621
MS.209         	16.167         	3.321
MS.210         	16.135         	3.581
MS.211         	16.102         	3.632
MS.212         	16.07          	3.422
MS.213         	16.038         	3.275
MS.214         	16.007         	3.245
MS.215         	15.975         	3.182
MS.216         	15.943         	3.196
MS.217         	15.91          	3.144
MS.218         	15.88          	2.945
MS.219         	15.847         	3.06
MS.220         	15.815         	2.999
MS.221         	15.785         	2.961
MS.222         	15.752         	2.941
MS.223         	15.72          	2.91
MS.224         	15.69          	2.949
MS.225         	15.657         	2.921
MS.226         	15.627         	2.405
MS.227         	15.595         	2.866
MS.228         	15.565         	2.715
MS.229         	15.532         	2.425
MS.230         	15.502         	2.538
MS.231         	15.472         	2.296
MS.232         	15.44          	2.723
MS.233         	15.41          	2.189
MS.234         	15.38          	2.222
MS.235         	15.347         	2.296
MS.236         	15.318         	2.193
MS.237         	15.287         	2.048
MS.238         	15.257         	2.222
MS.239         	15.225         	2.046
MS.240         	15.195         	2.129
MS.241         	15.165         	1.881
MS.242         	15.135         	2.091
MS.243         	15.105         	1.575
MS.244         	15.075         	1.924
MS.245         	15.045         	1.712
MS.246         	15.015         	1.456
MS.247         	14.985         	1.64
MS.248         	14.955         	1.46
MS.249         	14.925         	1.644
MS.250         	14.895         	1.468
MS.251         	14.865         	1.354
MS.252         	14.835         	1.625
MS.253         	14.805         	1.275
MS.254         	14.775         	1.674
MS.255         	14.747         	1.356
MS.256         	14.717         	1.235
MS.257         	14.688         	1.299
MS.258         	14.657         	1.225
MS.259         	14.63          	0.953
MS.260         	14.6           	1.182
MS.261         	14.57          	1.178
MS.262         	14.542         	1.118
MS.263         	14.512         	1.023
MS.264         	14.483         	0.973
MS.265         	14.455         	1.021
MS.266         	14.425         	1.1
MS.267         	14.398         	0.896
MS.268         	14.367         	0.759
MS.269         	14.34          	0.753
MS.270         	14.31          	0.989
MS.271         	14.282         	0.634
MS.272         	14.252         	0.659
MS.273         	14.225         	0.665
MS.274         	14.197         	0.727
MS.275         	14.167         	0.626
MS.276         	14.14          	0.693
MS.277         	14.112         	0.91
MS.278         	14.082         	0.727
MS.279         	14.055         	0.689
MS.280         	14.028         	0.62
MS.281         	14             	0.634
MS.282         	13.97          	0.691
MS.283         	13.943         	0.806
MS.284         	13.915         	0.584
MS.285         	13.887         	0.57
MS.286         	13.86          	0.56
MS.287         	13.832         	0.449
MS.288         	13.805         	0.485
MS.289         	13.778         	0.497
MS.290         	13.75          	0.552
MS.291         	13.722         	0.463
MS.292         	13.695         	0.475
MS.293         	13.667         	0.457
MS.294         	13.64          	0.489
MS.295         	13.612         	0.302
MS.296         	13.585         	0.433
MS.297         	13.557         	0.3
MS.298         	13.53          	0.359
MS.299         	13.505         	0.302
MS.300         	13.477         	0.431
MS.301         	13.45          	0.32
MS.302         	13.422         	0.348
MS.303         	13.398         	0.294
MS.304         	13.37          	0.203
MS.305         	13.342         	0.23
MS.306         	13.318         	0.214
MS.307         	13.29          	0.224
MS.308         	13.262         	0.214
MS.309         	13.237         	0.167
MS.310         	13.21          	0.236
MS.311         	13.185         	0.238
MS.312         	13.157         	0.169
MS.313         	13.132         	0.159
MS.314         	13.105         	0.22
MS.315         	13.08          	0.155
MS.316         	13.052         	0.23
MS.317         	13.028         	0.234
MS.318         	13             	0.155
MS.319         	12.975         	0.153
MS.320         	12.947         	0.161
MS.321         	12.922         	0.163
MS.322         	12.898         	0.175
MS.323         	12.87          	0.151
MS.324         	12.845         	0.151
MS.325         	12.82          	0.143
MS.326         	12.795         	0.147
MS.327         	12.767         	0.155
MS.328         	12.742         	0.139
MS.329         	12.717         	0.169
MS.330         	12.693         	0.149
MS.331         	12.667         	0.151
MS.332         	12.642         	0.153
MS.333         	12.617         	0.141
MS.334         	12.59          	0.147
MS.335         	12.565         	0.137
MS.336         	12.54          	0.147
MS.337         	12.515         	0.125
MS.338         	12.49          	0.127
MS.339         	12.465         	0.123
MS.340         	12.44          	0.117
MS.341         	12.415         	0.111
MS.342         	12.392         	0.117
MS.343         	12.367         	0.115
MS.344         	12.342         	0.115
MS.345         	12.318         	0.117
MS.346         	12.292         	0.121
MS.347         	12.267         	0.127
MS.348         	12.242         	0.117
MS.349         	12.22          	0.119
MS.350         	12.195         	0.119
MS.351         	12.17          	0.117
MS.352         	12.145         	0.119
MS.353         	12.122         	0.119
MS.354         	12.097         	0.121
MS.355         	12.072         	0.113
MS.356         	12.05          	0.127
MS.357         	12.025         	0.117
MS.358         	12             	0.119
MS.359         	11.977         	0.123
MS.360         	11.952         	0.123
MS.361         	11.93          	0.125
MS.362         	11.905         	0.119
MS.363         	11.882         	0.119
MS.364         	11.858         	0.123
MS.365         	11.835         	0.121
MS.366         	11.81          	0.121
MS.367         	11.787         	0.117
MS.368         	11.762         	0.117
MS.369         	11.74          	0.125
MS.370         	11.717         	0.117
MS.371         	11.693         	0.117
MS.372         	11.67          	0.119
MS.373         	11.648         	0.117
MS.374         	11.622         	0.115
MS.375         	11.6           	0.121
MS.376         	11.577         	0.119
MS.377         	11.552         	0.123
MS.378         	11.53          	0.123
MS.379         	11.507         	0.119
MS.380         	11.485         	0.123
MS.381         	11.462         	0.121
MS.382         	11.438         	0.119
MS.383         	11.415         	0.123
MS.384         	11.392         	0.123
MS.385         	11.37          	0.123
MS.386         	11.347         	0.117
MS.387         	11.325         	0.123
MS.388         	11.302         	0.113
MS.389         	11.28          	0.117
MS.390         	11.257         	0.115
MS.391         	11.235         	0.117
MS.392         	11.212         	0.121
MS.393         	11.19          	0.121
MS.394         	11.167         	0.117
MS.395         	11.145         	0.119
MS.396         	11.122         	0.119
MS.397         	11.1           	0.115
MS.398         	11.077         	0.121
MS.399         	11.055         	0.117
MS.400         	11.035         	0.121
MS.401         	11.012         	0.117
MS.402         	10.99          	0.097
MS.403         	10.967         	0.117
MS.404         	10.945         	0.115
MS.405         	10.925         	0.123
MS.406         	10.903         	0.123
MS.407         	10.88          	0.115
MS.408         	10.86          	0.119
MS.409         	10.837         	0.113
MS.410         	10.815         	0.121
MS.411         	10.795         	0.119
MS.412         	10.773         	0.097
MS.413         	10.75          	0.099
MS.414         	10.73          	0.101
MS.415         	10.707         	0.121
MS.416         	10.688         	0.105
MS.417         	10.665         	0.099
MS.418         	10.645         	0.101
MS.419         	10.622         	0.099
MS.420         	10.602         	0.097
MS.421         	10.58          	0.097
MS.422         	10.56          	0.099
MS.423         	10.537         	0.103
MS.424         	10.517         	0.101
MS.425         	10.495         	0.099
MS.426         	10.475         	0.097
MS.427         	10.455         	0.099
MS.428         	10.432         	0.099
MS.429         	10.412         	0.099
MS.430         	10.392         	0.099
MS.431         	10.37          	0.101
MS.432         	10.35          	0.097
MS.433         	10.33          	0.103
MS.434         	10.31          	0.101
MS.435         	10.287         	0.099
MS.436         	10.267         	0.097
DERIVED EXCITABILITY VARIABLES
Program = QTracP 3/4/2020
Threshold method = 6 (optimised for CAP, using data for present condition only)
SR method = 1 (using actual data values)
6.                 	0.000               	Peak response\(mV)
9.                 	33.5                	Temperature ( C)
17.                	41                  	Age (years)
18.                	1                   	Sex (M=1, F=2)

EXTRA VARIABLES

MScPeak(mV) = 11.45
MScS5(mA) = 13.89
MScS50(mA) = 16.54
MScS95(mA) = 19.99
MScNSteps = 5
MScSteps(%) = 16.5
MScStepMax(%) = 6
MScD50 = 28
MScSlope = 9.26
MSFPeakAmp(mV) = 11.4
MSFNUnits = 145
MSFMeanUnitAmp(uV) = 78.8
MSFHuntTime(m) = 2.63
MSFError(%) = 4.29
MSFNLarge = 48.67
MSFMedianAmp(%) = 0.667
MSFMedianAmp(mV) = 0.0762
MSFHalfAmpAmp(%) = 0.837
MSFHalfAmpAmp(mV) = 0.0957
MSFLargestAmp(%) = 1.8
MSFLargestAmp(mV) = 0.206
MSFMeanRS(%) = 2
MSFOpts = 10106121
MScDuration(min) = 3.9
MSFTraces = 405
MSFSizeLimit(uV) = 28.6
MSFLimitType = 1
MSFSmallestAmp(uV) = 28.9

EXTRA WAVEFORMS


!MScan Model
!145
	1	12.76	0.29	2
	2	13.15	0.51	2
	3	13.32	0.5	2
	4	13.46	0.43	2
	5	13.51	0.32	2
	6	13.58	0.35	2
	7	13.66	0.38	2
	8	13.74	0.34	2
	9	13.81	0.48	2
	10	13.91	0.62	2
	11	14.17	1.09	2
	12	14.28	0.85	2
	13	14.41	0.76	2
	14	14.46	0.65	2
	15	14.52	0.83	2
	16	14.58	0.68	2
	17	14.64	0.42	2
	18	14.7	0.74	2
	19	14.78	0.7	2
	20	14.87	0.99	2
	21	14.95	1.23	2
	22	15.01	0.68	2
	23	15.04	0.62	2
	24	15.12	0.72	2
	25	15.16	0.73	2
	26	15.22	1	2
	27	15.28	0.8	2
	28	15.34	0.76	2
	29	15.4	1.13	2
	30	15.45	0.8	2
	31	15.5	0.76	2
	32	15.55	0.6	2
	33	15.6	0.76	2
	34	15.66	0.78	2
	35	15.71	0.48	2
	36	15.77	0.58	2
	37	15.94	0.88	2
	38	15.98	0.45	2
	39	16.01	1.52	2
	40	16.05	1.01	2
	41	16.08	1.08	2
	42	16.11	0.64	2
	43	16.13	0.92	2
	44	16.18	0.93	2
	45	16.21	1.1	2
	46	16.23	1.03	2
	47	16.25	0.86	2
	48	16.27	0.87	2
	49	16.29	0.92	2
	50	16.31	0.67	2
	51	16.33	0.67	2
	52	16.35	1.02	2
	53	16.37	0.99	2
	54	16.39	0.98	2
	55	16.41	0.93	2
	56	16.43	0.93	2
	57	16.45	0.93	2
	58	16.47	0.88	1.9
	59	16.49	0.85	2
	60	16.51	0.89	2
	61	16.53	1.78	2
	62	16.53	0.9	2
	63	16.55	0.88	2
	64	16.57	0.96	2
	65	16.59	1.06	2
	66	16.62	1.03	2
	67	16.64	0.99	2
	68	16.66	0.94	2
	69	16.69	0.86	2
	70	16.71	0.84	2
	71	16.74	1.01	2
	72	16.78	1.41	2
	73	16.82	1.8	2
	74	16.86	1.12	2
