File:              	C:\Qtrac\Data\Daniel M Sørensen\MScan multicentre study\Data from centres\Oslo\Processed data\SZC00518C.QZD
Name:              	NO.OSL.NC.7.2
Protocol:          	MSCAN-R2
Date:              	18/5/20
Start time:        	16:31:26
Age:               	30
Sex:               	F
Temperature:       	34.4
S/R sites:         	ADM
NC/disease:        	NC7
Operator:          	SZ
Comments:          	Test2
M-SCAN DATA (9.5-1.2m)
Scanpts: 194, 206, 854, 876
Stim. (mA)     	Amp. (mV)
MS.1           	20             	11.658
MS.2           	20             	11.61
MS.3           	20             	11.634
MS.4           	20             	11.65
MS.5           	20             	11.646
MS.6           	20             	11.662
MS.7           	20             	11.676
MS.8           	20             	11.674
MS.9           	20             	11.684
MS.10          	20             	11.684
MS.11          	20             	11.66
MS.12          	20             	11.737
MS.13          	20             	11.704
MS.14          	20             	11.688
MS.15          	20             	11.706
MS.16          	20             	11.716
MS.17          	20             	11.678
MS.18          	20             	11.71
MS.19          	20             	11.692
MS.20          	20             	11.694
MS.21          	20             	11.72
MS.22          	20             	11.749
MS.23          	20             	11.692
MS.24          	19.92          	11.69
MS.25          	19.88          	11.676
MS.26          	19.84          	11.704
MS.27          	19.8           	11.698
MS.28          	19.762         	11.716
MS.29          	19.722         	11.692
MS.30          	19.682         	11.71
MS.31          	19.642         	11.706
MS.32          	19.605         	11.692
MS.33          	19.565         	11.708
MS.34          	19.525         	11.696
MS.35          	19.487         	11.763
MS.36          	19.448         	11.749
MS.37          	19.41          	11.714
MS.38          	19.37          	11.726
MS.39          	19.333         	11.73
MS.40          	19.292         	11.741
MS.41          	19.255         	11.724
MS.42          	19.215         	11.72
MS.43          	19.177         	11.728
MS.44          	19.14          	11.722
MS.45          	19.1           	11.732
MS.46          	19.062         	11.732
MS.47          	19.025         	11.722
MS.48          	18.987         	11.732
MS.49          	18.948         	11.739
MS.50          	18.91          	11.779
MS.51          	18.872         	11.755
MS.52          	18.835         	11.757
MS.53          	18.797         	11.716
MS.54          	18.76          	11.712
MS.55          	18.722         	11.745
MS.56          	18.685         	11.716
MS.57          	18.647         	11.761
MS.58          	18.61          	11.72
MS.59          	18.573         	11.716
MS.60          	18.535         	11.726
MS.61          	18.5           	11.728
MS.62          	18.462         	11.718
MS.63          	18.425         	11.714
MS.64          	18.387         	11.734
MS.65          	18.352         	11.73
MS.66          	18.315         	11.714
MS.67          	18.278         	11.73
MS.68          	18.243         	11.777
MS.69          	18.205         	11.747
MS.70          	18.17          	11.767
MS.71          	18.132         	11.763
MS.72          	18.097         	11.741
MS.73          	18.06          	11.712
MS.74          	18.025         	11.775
MS.75          	17.987         	11.734
MS.76          	17.952         	11.759
MS.77          	17.917         	11.759
MS.78          	17.88          	11.789
MS.79          	17.845         	11.734
MS.80          	17.81          	11.72
MS.81          	17.775         	11.734
MS.82          	17.737         	11.761
MS.83          	17.702         	11.73
MS.84          	17.667         	11.759
MS.85          	17.632         	11.775
MS.86          	17.597         	11.726
MS.87          	17.562         	11.743
MS.88          	17.528         	11.771
MS.89          	17.493         	11.767
MS.90          	17.458         	11.785
MS.91          	17.422         	11.72
MS.92          	17.387         	11.797
MS.93          	17.352         	11.743
MS.94          	17.317         	11.73
MS.95          	17.282         	11.791
MS.96          	17.247         	11.753
MS.97          	17.215         	11.759
MS.98          	17.18          	11.771
MS.99          	17.145         	11.737
MS.100         	17.11          	11.737
MS.101         	17.077         	11.722
MS.102         	17.042         	11.728
MS.103         	17.01          	11.71
MS.104         	16.975         	11.755
MS.105         	16.94          	11.716
MS.106         	16.907         	11.749
MS.107         	16.872         	11.777
MS.108         	16.84          	11.779
MS.109         	16.805         	11.775
MS.110         	16.772         	11.781
MS.111         	16.74          	11.793
MS.112         	16.705         	11.757
MS.113         	16.672         	11.741
MS.114         	16.637         	11.747
MS.115         	16.605         	11.759
MS.116         	16.573         	11.773
MS.117         	16.54          	11.775
MS.118         	16.505         	11.813
MS.119         	16.472         	11.781
MS.120         	16.44          	11.769
MS.121         	16.407         	11.787
MS.122         	16.375         	11.745
MS.123         	16.342         	11.71
MS.124         	16.31          	11.726
MS.125         	16.278         	11.767
MS.126         	16.245         	11.72
MS.127         	16.212         	11.73
MS.128         	16.18          	11.743
MS.129         	16.147         	11.72
MS.130         	16.115         	11.737
MS.131         	16.083         	11.72
MS.132         	16.05          	11.712
MS.133         	16.017         	11.732
MS.134         	15.985         	11.716
MS.135         	15.955         	11.743
MS.136         	15.922         	11.71
MS.137         	15.89          	11.714
MS.138         	15.86          	11.732
MS.139         	15.827         	11.73
MS.140         	15.795         	11.714
MS.141         	15.765         	11.716
MS.142         	15.733         	11.716
MS.143         	15.7           	11.694
MS.144         	15.67          	11.698
MS.145         	15.637         	11.724
MS.146         	15.608         	11.69
MS.147         	15.575         	11.706
MS.148         	15.545         	11.682
MS.149         	15.515         	11.662
MS.150         	15.483         	11.67
MS.151         	15.452         	11.704
MS.152         	15.42          	11.718
MS.153         	15.39          	11.708
MS.154         	15.36          	11.694
MS.155         	15.327         	11.716
MS.156         	15.297         	11.702
MS.157         	15.267         	11.72
MS.158         	15.237         	11.712
MS.159         	15.207         	11.706
MS.160         	15.175         	11.734
MS.161         	15.145         	11.692
MS.162         	15.115         	11.692
MS.163         	15.085         	11.732
MS.164         	15.055         	11.724
MS.165         	15.025         	11.704
MS.166         	14.995         	11.745
MS.167         	14.965         	11.759
MS.168         	14.935         	11.753
MS.169         	14.905         	11.712
MS.170         	14.875         	11.749
MS.171         	14.845         	11.753
MS.172         	14.818         	11.714
MS.173         	14.787         	11.71
MS.174         	14.757         	11.765
MS.175         	14.727         	11.749
MS.176         	14.697         	11.728
MS.177         	14.67          	11.714
MS.178         	14.64          	11.692
MS.179         	14.61          	11.704
MS.180         	14.58          	11.728
MS.181         	14.552         	11.71
MS.182         	14.523         	11.741
MS.183         	14.495         	11.72
MS.184         	14.465         	11.718
MS.185         	14.435         	11.67
MS.186         	14.407         	11.696
MS.187         	14.377         	11.706
MS.188         	14.35          	11.67
MS.189         	14.32          	11.676
MS.190         	14.292         	11.686
MS.191         	14.265         	11.716
MS.192         	14.235         	11.686
MS.193         	14.207         	11.666
MS.194         	14.177         	11.706
MS.195         	14.15          	11.69
MS.196         	14.122         	11.702
MS.197         	14.092         	11.686
MS.198         	14.065         	11.704
MS.199         	14.037         	11.71
MS.200         	14.01          	11.68
MS.201         	13.983         	11.682
MS.202         	13.952         	11.69
MS.203         	13.925         	11.7
MS.204         	13.898         	11.672
MS.205         	13.87          	11.698
MS.206         	13.842         	11.72
MS.207         	13.815         	11.664
MS.208         	13.787         	11.71
MS.209         	13.76          	11.708
MS.210         	13.733         	11.692
MS.211         	13.705         	11.698
MS.212         	13.677         	11.63
MS.213         	13.65          	11.672
MS.214         	13.622         	11.65
MS.215         	13.595         	11.616
MS.216         	13.568         	11.648
MS.217         	13.54          	11.678
MS.218         	13.515         	11.67
MS.219         	13.487         	11.7
MS.220         	13.46          	11.718
MS.221         	13.432         	11.71
MS.222         	13.407         	11.694
MS.223         	13.38          	11.69
MS.224         	13.352         	11.656
MS.225         	13.325         	11.73
MS.226         	13.3           	11.694
MS.227         	13.273         	11.706
MS.228         	13.247         	11.708
MS.229         	13.22          	11.702
MS.230         	13.193         	11.734
MS.231         	13.167         	11.662
MS.232         	13.14          	11.68
MS.233         	13.115         	11.688
MS.234         	13.087         	11.686
MS.235         	13.062         	11.674
MS.236         	13.035         	11.646
MS.237         	13.01          	11.696
MS.238         	12.985         	11.694
MS.239         	12.957         	11.722
MS.240         	12.932         	11.69
MS.241         	12.907         	11.734
MS.242         	12.88          	11.688
MS.243         	12.855         	11.672
MS.244         	12.83          	11.666
MS.245         	12.802         	11.684
MS.246         	12.778         	11.688
MS.247         	12.752         	11.622
MS.248         	12.727         	11.642
MS.249         	12.702         	11.672
MS.250         	12.675         	11.654
MS.251         	12.65          	11.698
MS.252         	12.625         	11.668
MS.253         	12.6           	11.696
MS.254         	12.575         	11.728
MS.255         	12.55          	11.688
MS.256         	12.525         	11.672
MS.257         	12.5           	11.686
MS.258         	12.475         	11.676
MS.259         	12.45          	11.698
MS.260         	12.425         	11.634
MS.261         	12.4           	11.676
MS.262         	12.375         	11.636
MS.263         	12.35          	11.654
MS.264         	12.325         	11.648
MS.265         	12.302         	11.636
MS.266         	12.278         	11.614
MS.267         	12.252         	11.648
MS.268         	12.227         	11.686
MS.269         	12.202         	11.61
MS.270         	12.18          	11.648
MS.271         	12.155         	11.567
MS.272         	12.13          	11.581
MS.273         	12.108         	11.628
MS.274         	12.082         	11.622
MS.275         	12.057         	11.61
MS.276         	12.035         	11.519
MS.277         	12.01          	11.559
MS.278         	11.985         	11.573
MS.279         	11.962         	11.606
MS.280         	11.938         	11.557
MS.281         	11.915         	11.539
MS.282         	11.89          	11.598
MS.283         	11.867         	11.539
MS.284         	11.842         	11.545
MS.285         	11.82          	11.541
MS.286         	11.795         	11.402
MS.287         	11.773         	11.428
MS.288         	11.747         	11.471
MS.289         	11.725         	11.461
MS.290         	11.702         	11.448
MS.291         	11.677         	11.455
MS.292         	11.655         	11.499
MS.293         	11.632         	11.446
MS.294         	11.608         	11.38
MS.295         	11.585         	11.424
MS.296         	11.562         	11.485
MS.297         	11.54          	11.418
MS.298         	11.515         	11.372
MS.299         	11.492         	11.376
MS.300         	11.47          	11.332
MS.301         	11.447         	11.255
MS.302         	11.425         	11.38
MS.303         	11.403         	11.342
MS.304         	11.377         	11.269
MS.305         	11.355         	11.348
MS.306         	11.332         	11.398
MS.307         	11.31          	11.336
MS.308         	11.287         	11.301
MS.309         	11.265         	11.378
MS.310         	11.242         	11.247
MS.311         	11.22          	11.277
MS.312         	11.197         	11.217
MS.313         	11.175         	11.303
MS.314         	11.153         	11.13
MS.315         	11.13          	11.175
MS.316         	11.108         	11.144
MS.317         	11.087         	11.124
MS.318         	11.065         	11.187
MS.319         	11.042         	11.158
MS.320         	11.02          	11.086
MS.321         	10.997         	11.04
MS.322         	10.975         	10.979
MS.323         	10.955         	10.937
MS.324         	10.932         	11.011
MS.325         	10.91          	10.907
MS.326         	10.887         	10.933
MS.327         	10.867         	10.786
MS.328         	10.845         	10.846
MS.329         	10.823         	10.588
MS.330         	10.802         	10.764
MS.331         	10.78          	10.637
MS.332         	10.76          	10.782
MS.333         	10.738         	10.611
MS.334         	10.715         	10.719
MS.335         	10.695         	10.615
MS.336         	10.672         	10.54
MS.337         	10.653         	10.447
MS.338         	10.63          	10.584
MS.339         	10.61          	10.528
MS.340         	10.587         	10.474
MS.341         	10.568         	10.526
MS.342         	10.545         	10.443
MS.343         	10.525         	10.55
MS.344         	10.502         	10.484
MS.345         	10.483         	10.53
MS.346         	10.462         	10.268
MS.347         	10.44          	10.397
MS.348         	10.42          	10.349
MS.349         	10.4           	10.333
MS.350         	10.377         	10.403
MS.351         	10.358         	10.373
MS.352         	10.337         	10.216
MS.353         	10.318         	10.343
MS.354         	10.295         	10.337
MS.355         	10.275         	10.018
MS.356         	10.255         	10.2
MS.357         	10.235         	10.101
MS.358         	10.212         	10.135
MS.359         	10.193         	10.065
MS.360         	10.172         	9.871
MS.361         	10.153         	9.785
MS.362         	10.132         	9.94
MS.363         	10.113         	9.827
MS.364         	10.092         	9.767
MS.365         	10.073         	9.867
MS.366         	10.052         	9.747
MS.367         	10.032         	9.718
MS.368         	10.012         	9.734
MS.369         	9.992          	9.587
MS.370         	9.972          	9.692
MS.371         	9.952          	9.747
MS.372         	9.932          	9.507
MS.373         	9.912          	9.622
MS.374         	9.892          	9.571
MS.375         	9.872          	9.328
MS.376         	9.852          	9.456
MS.377         	9.832          	9.424
MS.378         	9.812          	9.39
MS.379         	9.792          	9.328
MS.380         	9.775          	9.352
MS.381         	9.755          	9.382
MS.382         	9.735          	9.162
MS.383         	9.715          	9.332
MS.384         	9.695          	9.183
MS.385         	9.677          	9.197
MS.386         	9.657          	9.221
MS.387         	9.637          	9.146
MS.388         	9.62           	9.271
MS.389         	9.6            	9.021
MS.390         	9.58           	9.112
MS.391         	9.562          	8.909
MS.392         	9.542          	8.899
MS.393         	9.523          	8.939
MS.394         	9.505          	9.06
MS.395         	9.485          	8.965
MS.396         	9.465          	8.814
MS.397         	9.448          	8.733
MS.398         	9.427          	8.764
MS.399         	9.41           	8.562
MS.400         	9.39           	8.6
MS.401         	9.372          	8.403
MS.402         	9.352          	8.56
MS.403         	9.335          	8.417
MS.404         	9.315          	8.304
MS.405         	9.297          	8.238
MS.406         	9.28           	8.139
MS.407         	9.26           	8.329
MS.408         	9.242          	8.141
MS.409         	9.222          	7.96
MS.410         	9.205          	7.891
MS.411         	9.188          	8.006
MS.412         	9.167          	8.024
MS.413         	9.15           	7.962
MS.414         	9.132          	7.914
MS.415         	9.113          	7.581
MS.416         	9.095          	7.614
MS.417         	9.077          	7.561
MS.418         	9.057          	7.561
MS.419         	9.04           	7.583
MS.420         	9.023          	7.499
MS.421         	9.005          	7.408
MS.422         	8.988          	7.475
MS.423         	8.967          	7.406
MS.424         	8.95           	7.257
MS.425         	8.932          	7.265
MS.426         	8.915          	7.313
MS.427         	8.898          	7.203
MS.428         	8.88           	6.903
MS.429         	8.863          	6.854
MS.430         	8.845          	6.737
MS.431         	8.825          	6.844
MS.432         	8.807          	6.886
MS.433         	8.79           	6.606
MS.434         	8.773          	6.741
MS.435         	8.755          	6.691
MS.436         	8.738          	6.733
MS.437         	8.72           	6.568
MS.438         	8.702          	6.556
MS.439         	8.685          	6.492
MS.440         	8.67           	6.351
MS.441         	8.653          	6.512
MS.442         	8.635          	6.333
MS.443         	8.617          	6.349
MS.444         	8.6            	6.331
MS.445         	8.582          	6.109
MS.446         	8.565          	6.328
MS.447         	8.547          	6.099
MS.448         	8.53           	6.113
MS.449         	8.515          	6.079
MS.450         	8.497          	5.837
MS.451         	8.48           	5.978
MS.452         	8.462          	5.863
MS.453         	8.448          	5.841
MS.454         	8.43           	5.823
MS.455         	8.412          	5.742
MS.456         	8.395          	5.722
MS.457         	8.38           	5.624
MS.458         	8.363          	5.702
MS.459         	8.345          	5.726
MS.460         	8.33           	5.547
MS.461         	8.312          	5.597
MS.462         	8.295          	5.601
MS.463         	8.28           	5.474
MS.464         	8.262          	5.4
MS.465         	8.245          	5.382
MS.466         	8.23           	5.523
MS.467         	8.212          	5.329
MS.468         	8.198          	5.279
MS.469         	8.18           	5.376
MS.470         	8.165          	5.193
MS.471         	8.148          	5.023
MS.472         	8.132          	5.14
MS.473         	8.115          	5.092
MS.474         	8.1            	5.14
MS.475         	8.082          	4.989
MS.476         	8.068          	5.021
MS.477         	8.05           	5.096
MS.478         	8.035          	4.949
MS.479         	8.017          	4.906
MS.480         	8.002          	5.108
MS.481         	7.987          	4.987
MS.482         	7.97           	4.86
MS.483         	7.955          	4.927
MS.484         	7.938          	4.985
MS.485         	7.922          	4.89
MS.486         	7.907          	4.808
MS.487         	7.89           	4.778
MS.488         	7.875          	4.89
MS.489         	7.86           	4.761
MS.490         	7.845          	4.653
MS.491         	7.827          	4.735
MS.492         	7.812          	4.635
