File:              	C:\Qtrac\Data\Daniel M Sørensen\MScan multicentre study\Data from centres\Oslo\Processed data\SZC00604E.QZD
Name:              	NO.OSL.NC.13.2
Protocol:          	MSCAN-R2
Date:              	4/6/20
Start time:        	17:08:06
Age:               	33
Sex:               	M
Temperature:       	31.9
S/R sites:         	ADM
NC/disease:        	NC13
Operator:          	SZ
Comments:          	Test2
M-SCAN DATA (10.3-5m)
Scanpts: 48, 52, 549, 570
Stim. (mA)     	Amp. (mV)
MS.1           	28.5           	7.664
MS.2           	28.5           	7.827
MS.3           	28.5           	7.748
MS.4           	28.5           	7.72
MS.5           	28.5           	7.622
MS.6           	28.5           	7.612
MS.7           	28.5           	7.638
MS.8           	28.5           	7.65
MS.9           	28.5           	7.652
MS.10          	28.5           	7.634
MS.11          	28.5           	7.632
MS.12          	28.5           	7.517
MS.13          	28.5           	7.537
MS.14          	28.5           	7.571
MS.15          	28.5           	7.585
MS.16          	28.5           	7.632
MS.17          	28.5           	7.668
MS.18          	28.5           	7.686
MS.19          	28.5           	7.714
MS.20          	28.5           	7.728
MS.21          	28.5           	7.746
MS.22          	28.5           	7.775
MS.23          	28.5           	7.765
MS.24          	28.33          	7.805
MS.25          	28.272         	7.805
MS.26          	28.217         	7.807
MS.27          	28.16          	7.821
MS.28          	28.102         	7.799
MS.29          	28.047         	7.781
MS.30          	27.993         	7.771
MS.31          	27.935         	7.757
MS.32          	27.88          	7.753
MS.33          	27.825         	7.757
MS.34          	27.767         	7.753
MS.35          	27.712         	7.763
MS.36          	27.657         	7.746
MS.37          	27.602         	7.716
MS.38          	27.547         	7.736
MS.39          	27.493         	7.708
MS.40          	27.438         	7.712
MS.41          	27.382         	7.722
MS.42          	27.327         	7.728
MS.43          	27.272         	7.738
MS.44          	27.217         	7.75
MS.45          	27.165         	7.712
MS.46          	27.11          	7.714
MS.47          	27.055         	7.718
MS.48          	27.002         	7.708
MS.49          	26.948         	7.7
MS.50          	26.895         	7.718
MS.51          	26.84          	7.722
MS.52          	26.787         	7.704
MS.53          	26.733         	7.684
MS.54          	26.68          	7.704
MS.55          	26.627         	7.706
MS.56          	26.573         	7.72
MS.57          	26.52          	7.724
MS.58          	26.467         	7.704
MS.59          	26.415         	7.718
MS.60          	26.362         	7.69
MS.61          	26.307         	7.676
MS.62          	26.255         	7.67
MS.63          	26.202         	7.676
MS.64          	26.153         	7.662
MS.65          	26.1           	7.666
MS.66          	26.047         	7.674
MS.67          	25.995         	7.638
MS.68          	25.942         	7.612
MS.69          	25.89          	7.63
MS.70          	25.84          	7.632
MS.71          	25.787         	7.583
MS.72          	25.735         	7.628
MS.73          	25.685         	7.595
MS.74          	25.632         	7.62
MS.75          	25.582         	7.62
MS.76          	25.53          	7.614
MS.77          	25.48          	7.589
MS.78          	25.43          	7.63
MS.79          	25.377         	7.585
MS.80          	25.327         	7.587
MS.81          	25.278         	7.622
MS.82          	25.227         	7.769
MS.83          	25.175         	7.646
MS.84          	25.125         	7.644
MS.85          	25.075         	7.686
MS.86          	25.025         	7.654
MS.87          	24.975         	7.688
MS.88          	24.925         	7.678
MS.89          	24.875         	7.648
MS.90          	24.825         	7.567
MS.91          	24.778         	7.648
MS.92          	24.727         	7.654
MS.93          	24.677         	7.332
MS.94          	24.627         	7.601
MS.95          	24.58          	7.652
MS.96          	24.53          	7.555
MS.97          	24.48          	7.569
MS.98          	24.432         	7.475
MS.99          	24.382         	7.561
MS.100         	24.335         	7.537
MS.101         	24.285         	7.406
MS.102         	24.237         	7.499
MS.103         	24.19          	7.414
MS.104         	24.14          	7.176
MS.105         	24.092         	7.36
MS.106         	24.045         	7.076
MS.107         	23.997         	7.015
MS.108         	23.948         	7.11
MS.109         	23.9           	7.245
MS.110         	23.852         	7.003
MS.111         	23.805         	7.084
MS.112         	23.757         	7.098
MS.113         	23.71          	6.929
MS.114         	23.663         	6.953
MS.115         	23.615         	6.959
MS.116         	23.567         	7.082
MS.117         	23.52          	7.156
MS.118         	23.475         	6.959
MS.119         	23.427         	6.943
MS.120         	23.38          	6.665
MS.121         	23.332         	6.339
MS.122         	23.288         	6.671
MS.123         	23.24          	6.717
MS.124         	23.195         	6.991
MS.125         	23.147         	6.57
MS.126         	23.102         	6.391
MS.127         	23.055         	6.312
MS.128         	23.01          	6.103
MS.129         	22.962         	6.361
MS.130         	22.917         	5.948
MS.131         	22.872         	6.163
MS.132         	22.825         	6.508
MS.133         	22.78          	6.574
MS.134         	22.735         	5.684
MS.135         	22.69          	5.863
MS.136         	22.645         	5.98
MS.137         	22.6           	6.02
MS.138         	22.552         	5.807
MS.139         	22.507         	5.797
MS.140         	22.462         	5.815
MS.141         	22.42          	5.823
MS.142         	22.375         	5.636
MS.143         	22.33          	5.744
MS.144         	22.285         	5.521
MS.145         	22.24          	5.718
MS.146         	22.195         	5.579
MS.147         	22.153         	5.521
MS.148         	22.108         	5.311
MS.149         	22.062         	5.432
MS.150         	22.02          	5.462
MS.151         	21.975         	5.251
MS.152         	21.93          	5.434
MS.153         	21.887         	5.199
MS.154         	21.842         	5.146
MS.155         	21.8           	5.201
MS.156         	21.755         	5.448
MS.157         	21.712         	5.114
MS.158         	21.67          	5.124
MS.159         	21.625         	4.991
MS.160         	21.583         	5.239
MS.161         	21.54          	5.088
MS.162         	21.497         	5.064
MS.163         	21.455         	5.156
MS.164         	21.41          	5.102
MS.165         	21.368         	4.985
MS.166         	21.325         	5.041
MS.167         	21.282         	4.975
MS.168         	21.24          	5.007
MS.169         	21.198         	5.062
MS.170         	21.155         	5.066
MS.171         	21.112         	4.749
MS.172         	21.07          	4.919
MS.173         	21.03          	4.83
MS.174         	20.987         	4.937
MS.175         	20.945         	5.142
MS.176         	20.903         	4.713
MS.177         	20.862         	4.719
MS.178         	20.82          	4.753
MS.179         	20.778         	4.53
MS.180         	20.737         	4.751
MS.181         	20.695         	4.5
MS.182         	20.655         	4.616
MS.183         	20.612         	4.669
MS.184         	20.573         	4.631
MS.185         	20.53          	4.596
MS.186         	20.49          	4.343
MS.187         	20.448         	4.524
MS.188         	20.407         	4.288
MS.189         	20.368         	4.512
MS.190         	20.325         	4.254
MS.191         	20.285         	4.383
MS.192         	20.245         	4.026
MS.193         	20.205         	3.956
MS.194         	20.165         	4.03
MS.195         	20.122         	3.837
MS.196         	20.083         	4.216
MS.197         	20.042         	3.845
MS.198         	20.002         	3.855
MS.199         	19.962         	3.787
MS.200         	19.922         	3.69
MS.201         	19.882         	3.454
MS.202         	19.845         	3.575
MS.203         	19.805         	3.497
MS.204         	19.765         	3.644
MS.205         	19.725         	3.66
MS.206         	19.685         	3.766
MS.207         	19.647         	3.543
MS.208         	19.608         	3.458
MS.209         	19.567         	3.416
MS.210         	19.53          	3.315
MS.211         	19.49          	3.307
MS.212         	19.45          	3.309
MS.213         	19.413         	3.329
MS.214         	19.372         	3.263
MS.215         	19.335         	3.156
MS.216         	19.295         	3.213
MS.217         	19.257         	3.092
MS.218         	19.22          	3.14
MS.219         	19.18          	3.035
MS.220         	19.142         	3.221
MS.221         	19.105         	3.237
MS.222         	19.065         	3.203
MS.223         	19.028         	3.184
MS.224         	18.99          	3.037
MS.225         	18.952         	3.064
MS.226         	18.915         	3.289
MS.227         	18.875         	3.273
MS.228         	18.837         	3.45
MS.229         	18.8           	2.945
MS.230         	18.762         	2.85
MS.231         	18.725         	2.957
MS.232         	18.688         	2.721
MS.233         	18.65          	3.104
MS.234         	18.612         	3.11
MS.235         	18.577         	2.951
MS.236         	18.54          	3.021
MS.237         	18.503         	2.633
MS.238         	18.465         	2.62
MS.239         	18.427         	2.651
MS.240         	18.392         	2.81
MS.241         	18.355         	2.725
MS.242         	18.317         	2.699
MS.243         	18.282         	2.828
MS.244         	18.245         	2.608
MS.245         	18.208         	2.776
MS.246         	18.172         	2.471
MS.247         	18.135         	2.435
MS.248         	18.1           	2.326
MS.249         	18.062         	2.117
MS.250         	18.028         	2.624
MS.251         	17.993         	2.465
MS.252         	17.955         	2.155
MS.253         	17.92          	2.413
MS.254         	17.885         	2.536
MS.255         	17.847         	2.453
MS.256         	17.812         	2.286
MS.257         	17.778         	2.381
MS.258         	17.743         	2.292
MS.259         	17.705         	2.479
MS.260         	17.67          	2.089
MS.261         	17.635         	2.119
MS.262         	17.6           	2.359
MS.263         	17.565         	2.145
MS.264         	17.53          	2.121
MS.265         	17.495         	2.008
MS.266         	17.46          	2.179
MS.267         	17.425         	1.97
MS.268         	17.39          	1.96
MS.269         	17.355         	2.171
MS.270         	17.32          	2.197
MS.271         	17.285         	1.809
MS.272         	17.253         	1.831
MS.273         	17.217         	1.772
MS.274         	17.182         	1.654
MS.275         	17.147         	1.917
MS.276         	17.115         	1.565
MS.277         	17.08          	1.795
MS.278         	17.045         	1.64
MS.279         	17.012         	1.587
MS.280         	16.977         	1.547
MS.281         	16.945         	1.551
MS.282         	16.91          	1.446
MS.283         	16.875         	1.533
MS.284         	16.842         	1.513
MS.285         	16.81          	1.39
MS.286         	16.775         	1.492
MS.287         	16.743         	1.382
MS.288         	16.708         	1.579
MS.289         	16.675         	1.374
MS.290         	16.642         	1.36
MS.291         	16.608         	1.434
MS.292         	16.575         	1.321
MS.293         	16.542         	1.335
MS.294         	16.51          	1.382
MS.295         	16.475         	1.329
MS.296         	16.442         	1.319
MS.297         	16.41          	1.406
MS.298         	16.378         	1.378
MS.299         	16.345         	1.372
MS.300         	16.312         	1.223
MS.301         	16.28          	1.333
MS.302         	16.247         	1.335
MS.303         	16.215         	1.275
MS.304         	16.182         	1.4
MS.305         	16.15          	1.333
MS.306         	16.118         	1.317
MS.307         	16.085         	1.188
MS.308         	16.052         	1.126
MS.309         	16.02          	1.065
MS.310         	15.99          	1.122
MS.311         	15.957         	1.065
MS.312         	15.925         	1.106
MS.313         	15.892         	1.088
MS.314         	15.862         	0.987
MS.315         	15.83          	1.017
MS.316         	15.797         	1.122
MS.317         	15.767         	1.217
MS.318         	15.735         	1.118
MS.319         	15.705         	0.86
MS.320         	15.672         	0.91
MS.321         	15.64          	1.031
MS.322         	15.61          	0.902
MS.323         	15.577         	0.844
MS.324         	15.547         	0.878
MS.325         	15.517         	0.85
MS.326         	15.485         	0.842
MS.327         	15.455         	0.769
MS.328         	15.422         	0.844
MS.329         	15.392         	0.757
MS.330         	15.362         	0.784
MS.331         	15.332         	0.755
MS.332         	15.3           	0.701
MS.333         	15.27          	0.669
MS.334         	15.24          	0.653
MS.335         	15.21          	0.8
MS.336         	15.18          	0.709
MS.337         	15.148         	0.739
MS.338         	15.117         	0.788
MS.339         	15.087         	0.695
MS.340         	15.057         	0.661
MS.341         	15.027         	0.673
MS.342         	14.997         	0.596
MS.343         	14.967         	0.661
MS.344         	14.938         	0.628
MS.345         	14.907         	0.729
MS.346         	14.877         	0.606
MS.347         	14.847         	0.747
MS.348         	14.82          	0.618
MS.349         	14.79          	0.584
MS.350         	14.76          	0.638
MS.351         	14.73          	0.655
MS.352         	14.7           	0.649
MS.353         	14.672         	0.588
MS.354         	14.642         	0.594
MS.355         	14.612         	0.59
MS.356         	14.582         	0.594
MS.357         	14.555         	0.661
MS.358         	14.525         	0.586
MS.359         	14.497         	0.588
MS.360         	14.467         	0.655
MS.361         	14.438         	0.574
MS.362         	14.41          	0.582
MS.363         	14.38          	0.592
MS.364         	14.352         	0.572
MS.365         	14.322         	0.582
MS.366         	14.295         	0.576
MS.367         	14.267         	0.592
MS.368         	14.237         	0.57
MS.369         	14.21          	0.576
MS.370         	14.18          	0.556
MS.371         	14.153         	0.572
MS.372         	14.125         	0.562
MS.373         	14.095         	0.574
MS.374         	14.068         	0.564
MS.375         	14.04          	0.556
MS.376         	14.012         	0.556
MS.377         	13.985         	0.548
MS.378         	13.955         	0.55
MS.379         	13.927         	0.566
MS.380         	13.9           	0.55
MS.381         	13.872         	0.552
MS.382         	13.845         	0.554
MS.383         	13.818         	0.554
MS.384         	13.79          	0.552
MS.385         	13.762         	0.552
MS.386         	13.735         	0.566
MS.387         	13.707         	0.566
MS.388         	13.68          	0.56
MS.389         	13.653         	0.566
MS.390         	13.625         	0.568
MS.391         	13.597         	0.574
MS.392         	13.57          	0.58
MS.393         	13.542         	0.57
MS.394         	13.517         	0.544
MS.395         	13.49          	0.558
MS.396         	13.462         	0.556
MS.397         	13.435         	0.562
MS.398         	13.407         	0.568
MS.399         	13.382         	0.568
MS.400         	13.355         	0.568
MS.401         	13.327         	0.558
MS.402         	13.302         	0.564
MS.403         	13.275         	0.558
MS.404         	13.247         	0.562
MS.405         	13.222         	0.562
MS.406         	13.195         	0.56
MS.407         	13.17          	0.562
MS.408         	13.142         	0.344
MS.409         	13.117         	0.558
MS.410         	13.09          	0.342
MS.411         	13.065         	0.338
MS.412         	13.037         	0.562
MS.413         	13.012         	0.34
MS.414         	12.987         	0.344
MS.415         	12.96          	0.34
MS.416         	12.935         	0.342
MS.417         	12.907         	0.338
MS.418         	12.882         	0.342
MS.419         	12.858         	0.344
MS.420         	12.832         	0.346
MS.421         	12.805         	0.346
MS.422         	12.78          	0.344
MS.423         	12.755         	0.338
MS.424         	12.73          	0.34
MS.425         	12.705         	0.338
MS.426         	12.677         	0.342
MS.427         	12.653         	0.342
MS.428         	12.627         	0.342
MS.429         	12.602         	0.342
MS.430         	12.577         	0.336
MS.431         	12.552         	0.344
MS.432         	12.528         	0.342
MS.433         	12.502         	0.338
MS.434         	12.477         	0.342
MS.435         	12.452         	0.336
MS.436         	12.427         	0.342
MS.437         	12.403         	0.344
MS.438         	12.377         	0.342
MS.439         	12.352         	0.342
MS.440         	12.327         	0.328
MS.441         	12.302         	0.344
MS.442         	12.28          	0.342
MS.443         	12.255         	0.344
MS.444         	12.23          	0.34
MS.445         	12.205         	0.332
MS.446         	12.182         	0.34
MS.447         	12.157         	0.344
MS.448         	12.132         	0.346
MS.449         	12.108         	0.342
MS.450         	12.085         	0.334
MS.451         	12.06          	0.34
MS.452         	12.035         	0.344
MS.453         	12.012         	0.332
MS.454         	11.988         	0.33
MS.455         	11.965         	0.342
MS.456         	11.94          	0.332
MS.457         	11.915         	0.324
MS.458         	11.892         	0.342
MS.459         	11.867         	0.33
MS.460         	11.845         	0.316
MS.461         	11.822         	0.326
MS.462         	11.797         	0.322
MS.463         	11.775         	0.32
MS.464         	11.75          	0.33
MS.465         	11.727         	0.318
MS.466         	11.702         	0.33
MS.467         	11.68          	0.34
MS.468         	11.657         	0.314
MS.469         	11.632         	0.33
MS.470         	11.61          	0.326
MS.471         	11.587         	0.32
MS.472         	11.565         	0.326
MS.473         	11.54          	0.32
MS.474         	11.517         	0.32
MS.475         	11.495         	0.32
MS.476         	11.472         	0.332
MS.477         	11.45          	0.32
MS.478         	11.425         	0.324
MS.479         	11.403         	0.318
MS.480         	11.38          	0.326
MS.481         	11.358         	0.322
MS.482         	11.335         	0.324
MS.483         	11.312         	0.318
MS.484         	11.29          	0.32
MS.485         	11.267         	0.322
MS.486         	11.245         	0.32
MS.487         	11.222         	0.32
MS.488         	11.2           	0.316
MS.489         	11.177         	0.326
MS.490         	11.155         	0.328
MS.491         	11.132         	0.32
MS.492         	11.11          	0.326
MS.493         	11.087         	0.32
MS.494         	11.068         	0.324
MS.495         	11.045         	0.318
MS.496         	11.023         	0.32
MS.497         	11             	0.326
MS.498         	10.977         	0.324
MS.499         	10.955         	0.328
MS.500         	10.935         	0.314
MS.501         	10.912         	0.324
