File:              	C:\Qtrac\Data\Daniel M Sørensen\MScan multicentre study\Data from centres\Oslo\IronKey\Oslo_NC_first examination\SZC00622B.QZD
Name:              	NO.OSL.NC.22.1
Protocol:          	MSCAN-R2
Date:              	22/6/20
Start time:        	16:24:32
Age:               	23
Sex:               	F
Temperature:       	33.4
S/R sites:         	Ulnar Wr-ADM
NC/disease:        	NC22
Operator:          	SZ
Comments:          	Test1
M-SCAN DATA (17.3-12.4m)
Scanpts: 159, 163, 508, 530
Stim. (mA)     	Amp. (mV)
MS.1           	17             	7.35
MS.2           	17             	7.225
MS.3           	17             	7.34
MS.4           	17             	7.267
MS.5           	17             	7.164
MS.6           	17             	7.319
MS.7           	17             	7.291
MS.8           	17             	7.259
MS.9           	17             	7.299
MS.10          	17             	7.301
MS.11          	17             	7.273
MS.12          	17             	7.305
MS.13          	17             	7.255
MS.14          	17             	7.289
MS.15          	17             	7.287
MS.16          	17             	7.311
MS.17          	17             	7.33
MS.18          	17             	7.273
MS.19          	17             	7.289
MS.20          	17             	7.297
MS.21          	17             	7.33
MS.22          	17             	7.336
MS.23          	17             	7.354
MS.24          	16.932         	7.283
MS.25          	16.897         	7.301
MS.26          	16.865         	7.344
MS.27          	16.83          	7.34
MS.28          	16.797         	7.382
MS.29          	16.762         	7.33
MS.30          	16.73          	7.321
MS.31          	16.698         	7.311
MS.32          	16.663         	7.267
MS.33          	16.63          	7.297
MS.34          	16.597         	7.332
MS.35          	16.562         	7.346
MS.36          	16.53          	7.336
MS.37          	16.497         	7.354
MS.38          	16.465         	7.295
MS.39          	16.432         	7.328
MS.40          	16.4           	7.313
MS.41          	16.365         	7.342
MS.42          	16.333         	7.291
MS.43          	16.3           	7.253
MS.44          	16.267         	7.275
MS.45          	16.235         	7.235
MS.46          	16.202         	7.128
MS.47          	16.17          	7.146
MS.48          	16.137         	7.193
MS.49          	16.108         	7.195
MS.50          	16.075         	7.042
MS.51          	16.042         	7.285
MS.52          	16.01          	7.257
MS.53          	15.977         	7.215
MS.54          	15.945         	7.146
MS.55          	15.915         	7.172
MS.56          	15.882         	7.223
MS.57          	15.85          	7.301
MS.58          	15.82          	7.225
MS.59          	15.787         	7.118
MS.60          	15.755         	7.13
MS.61          	15.725         	7.223
MS.62          	15.693         	7.221
MS.63          	15.662         	7.243
MS.64          	15.63          	7.195
MS.65          	15.6           	7.122
MS.66          	15.568         	7.096
MS.67          	15.537         	7.195
MS.68          	15.505         	7.142
MS.69          	15.475         	7.144
MS.70          	15.445         	7.124
MS.71          	15.412         	7.104
MS.72          	15.382         	7.074
MS.73          	15.352         	7.046
MS.74          	15.32          	7.134
MS.75          	15.29          	7.215
MS.76          	15.26          	7.158
MS.77          	15.23          	7.118
MS.78          	15.197         	7.191
MS.79          	15.167         	7.251
MS.80          	15.137         	7.245
MS.81          	15.108         	7.293
MS.82          	15.077         	7.195
MS.83          	15.047         	7.326
MS.84          	15.017         	7.352
MS.85          	14.987         	7.281
MS.86          	14.957         	7.35
MS.87          	14.927         	7.293
MS.88          	14.898         	7.404
MS.89          	14.867         	7.392
MS.90          	14.837         	7.436
MS.91          	14.807         	7.398
MS.92          	14.78          	7.384
MS.93          	14.75          	7.44
MS.94          	14.72          	7.44
MS.95          	14.69          	7.424
MS.96          	14.662         	7.446
MS.97          	14.632         	7.481
MS.98          	14.602         	7.507
MS.99          	14.572         	7.507
MS.100         	14.545         	7.503
MS.101         	14.515         	7.475
MS.102         	14.487         	7.469
MS.103         	14.457         	7.509
MS.104         	14.427         	7.43
MS.105         	14.4           	7.446
MS.106         	14.37          	7.432
MS.107         	14.342         	7.422
MS.108         	14.312         	7.416
MS.109         	14.285         	7.426
MS.110         	14.257         	7.412
MS.111         	14.227         	7.434
MS.112         	14.2           	7.446
MS.113         	14.17          	7.442
MS.114         	14.142         	7.497
MS.115         	14.115         	7.513
MS.116         	14.087         	7.497
MS.117         	14.057         	7.517
MS.118         	14.03          	7.525
MS.119         	14.002         	7.489
MS.120         	13.975         	7.517
MS.121         	13.945         	7.458
MS.122         	13.917         	7.473
MS.123         	13.89          	7.376
MS.124         	13.862         	7.352
MS.125         	13.835         	7.46
MS.126         	13.807         	7.481
MS.127         	13.78          	7.416
MS.128         	13.752         	7.481
MS.129         	13.725         	7.456
MS.130         	13.697         	7.503
MS.131         	13.67          	7.45
MS.132         	13.642         	7.448
MS.133         	13.615         	7.519
MS.134         	13.587         	7.418
MS.135         	13.56          	7.469
MS.136         	13.535         	7.466
MS.137         	13.507         	7.535
MS.138         	13.48          	7.448
MS.139         	13.452         	7.42
MS.140         	13.425         	7.436
MS.141         	13.4           	7.458
MS.142         	13.372         	7.334
MS.143         	13.345         	7.444
MS.144         	13.32          	7.448
MS.145         	13.292         	7.41
MS.146         	13.265         	7.462
MS.147         	13.24          	7.473
MS.148         	13.212         	7.424
MS.149         	13.188         	7.426
MS.150         	13.16          	7.442
MS.151         	13.135         	7.412
MS.152         	13.108         	7.444
MS.153         	13.082         	7.39
MS.154         	13.055         	7.434
MS.155         	13.03          	7.475
MS.156         	13.002         	7.483
MS.157         	12.977         	7.466
MS.158         	12.952         	7.458
MS.159         	12.925         	7.481
MS.160         	12.9           	7.46
MS.161         	12.875         	7.438
MS.162         	12.847         	7.448
MS.163         	12.822         	7.414
MS.164         	12.797         	7.444
MS.165         	12.773         	7.462
MS.166         	12.745         	7.358
MS.167         	12.72          	7.493
MS.168         	12.695         	7.442
MS.169         	12.67          	7.33
MS.170         	12.645         	7.477
MS.171         	12.62          	7.422
MS.172         	12.595         	7.452
MS.173         	12.568         	7.402
MS.174         	12.542         	7.38
MS.175         	12.517         	7.328
MS.176         	12.492         	7.396
MS.177         	12.467         	7.269
MS.178         	12.443         	7.35
MS.179         	12.42          	7.368
MS.180         	12.395         	7.321
MS.181         	12.37          	7.342
MS.182         	12.345         	7.305
MS.183         	12.32          	7.321
MS.184         	12.295         	7.307
MS.185         	12.27          	7.321
MS.186         	12.245         	7.35
MS.187         	12.222         	7.237
MS.188         	12.197         	7.243
MS.189         	12.172         	7.271
MS.190         	12.148         	7.452
MS.191         	12.125         	7.249
MS.192         	12.1           	7.267
MS.193         	12.075         	7.187
MS.194         	12.052         	7.207
MS.195         	12.028         	7.199
MS.196         	12.002         	7.352
MS.197         	11.98          	7.263
MS.198         	11.955         	7.299
MS.199         	11.932         	7.168
MS.200         	11.907         	7.265
MS.201         	11.885         	7.323
MS.202         	11.86          	7.227
MS.203         	11.837         	7.285
MS.204         	11.812         	7.305
MS.205         	11.79          	7.162
MS.206         	11.765         	7.251
MS.207         	11.742         	7.287
MS.208         	11.72          	7.233
MS.209         	11.695         	7.207
MS.210         	11.672         	7.338
MS.211         	11.65          	7.273
MS.212         	11.625         	7.213
MS.213         	11.602         	7.388
MS.214         	11.58          	7.201
MS.215         	11.555         	7.263
MS.216         	11.532         	7.221
MS.217         	11.51          	7.271
MS.218         	11.488         	7.203
MS.219         	11.465         	7.178
MS.220         	11.44          	7.195
MS.221         	11.417         	7.148
MS.222         	11.395         	7.384
MS.223         	11.372         	7.066
MS.224         	11.35          	7.166
MS.225         	11.327         	7.144
MS.226         	11.305         	7.138
MS.227         	11.282         	7.158
MS.228         	11.26          	7.112
MS.229         	11.238         	7.12
MS.230         	11.215         	7.037
MS.231         	11.193         	7.18
MS.232         	11.17          	7.064
MS.233         	11.148         	7.011
MS.234         	11.125         	6.89
MS.235         	11.102         	7.116
MS.236         	11.08          	7.023
MS.237         	11.057         	6.993
MS.238         	11.037         	6.755
MS.239         	11.015         	6.772
MS.240         	10.992         	6.886
MS.241         	10.97          	6.653
MS.242         	10.948         	6.653
MS.243         	10.927         	6.812
MS.244         	10.905         	6.681
MS.245         	10.882         	6.772
MS.246         	10.863         	6.55
MS.247         	10.84          	6.516
MS.248         	10.818         	6.697
MS.249         	10.797         	6.31
MS.250         	10.775         	6.542
MS.251         	10.752         	6.538
MS.252         	10.733         	6.409
MS.253         	10.71          	6.167
MS.254         	10.69          	6.139
MS.255         	10.667         	6.3
MS.256         	10.648         	6.294
MS.257         	10.625         	6.363
MS.258         	10.605         	6.181
MS.259         	10.582         	6.047
MS.260         	10.562         	6
MS.261         	10.54          	5.944
MS.262         	10.52          	5.799
MS.263         	10.497         	5.744
MS.264         	10.477         	5.752
MS.265         	10.457         	5.771
MS.266         	10.435         	5.656
MS.267         	10.415         	5.497
MS.268         	10.395         	5.666
MS.269         	10.372         	5.456
MS.270         	10.352         	5.495
MS.271         	10.332         	5.489
MS.272         	10.31          	5.368
MS.273         	10.29          	5.372
MS.274         	10.27          	5.225
MS.275         	10.25          	5.456
MS.276         	10.23          	5.392
MS.277         	10.207         	5.303
MS.278         	10.188         	5.346
MS.279         	10.167         	5.279
MS.280         	10.148         	5.269
MS.281         	10.127         	5.223
MS.282         	10.108         	5.271
MS.283         	10.087         	5.019
MS.284         	10.068         	5.094
MS.285         	10.047         	5.031
MS.286         	10.028         	5.102
MS.287         	10.005         	5.033
MS.288         	9.988          	4.882
MS.289         	9.967          	4.836
MS.290         	9.948          	4.979
MS.291         	9.927          	4.925
MS.292         	9.907          	4.822
MS.293         	9.887          	4.6
MS.294         	9.867          	4.85
MS.295         	9.847          	4.723
MS.296         	9.827          	4.915
MS.297         	9.807          	4.82
MS.298         	9.787          	4.8
MS.299         	9.77           	4.544
MS.300         	9.75           	4.627
MS.301         	9.73           	4.614
MS.302         	9.71           	4.618
MS.303         	9.69           	4.469
MS.304         	9.672          	4.353
MS.305         	9.653          	4.359
MS.306         	9.632          	4.222
MS.307         	9.615          	4.427
MS.308         	9.595          	4.282
MS.309         	9.575          	4.151
MS.310         	9.557          	4.042
MS.311         	9.537          	4.109
MS.312         	9.517          	3.857
MS.313         	9.5            	4.008
MS.314         	9.48           	4.063
MS.315         	9.462          	4.032
MS.316         	9.443          	3.833
MS.317         	9.422          	3.922
MS.318         	9.405          	3.644
MS.319         	9.385          	3.281
MS.320         	9.367          	3.706
MS.321         	9.347          	3.444
MS.322         	9.33           	3.644
MS.323         	9.31           	3.581
MS.324         	9.292          	3.378
MS.325         	9.275          	3.444
MS.326         	9.255          	3.315
MS.327         	9.238          	3.211
MS.328         	9.217          	3.182
MS.329         	9.2            	3.094
MS.330         	9.182          	3.515
MS.331         	9.162          	3.045
MS.332         	9.145          	3.076
MS.333         	9.127          	3.118
MS.334         	9.108          	3.068
MS.335         	9.09           	3.231
MS.336         	9.073          	3.082
MS.337         	9.055          	3.037
MS.338         	9.035          	2.997
MS.339         	9.017          	3.017
MS.340         	9              	2.904
MS.341         	8.983          	3.021
MS.342         	8.965          	2.669
MS.343         	8.945          	2.818
MS.344         	8.927          	2.856
MS.345         	8.91           	2.689
MS.346         	8.892          	2.733
MS.347         	8.875          	2.796
MS.348         	8.858          	2.699
MS.349         	8.84           	2.814
MS.350         	8.823          	2.739
MS.351         	8.805          	2.562
MS.352         	8.787          	2.405
MS.353         	8.77           	2.272
MS.354         	8.752          	2.32
MS.355         	8.735          	2.288
MS.356         	8.717          	2.165
MS.357         	8.7            	2.236
MS.358         	8.682          	2.248
MS.359         	8.665          	2.075
MS.360         	8.648          	2.008
MS.361         	8.63           	1.819
MS.362         	8.613          	1.996
MS.363         	8.595          	2.071
MS.364         	8.577          	1.785
MS.365         	8.56           	1.962
MS.366         	8.545          	1.956
MS.367         	8.528          	1.7
MS.368         	8.51           	1.543
MS.369         	8.492          	1.899
MS.370         	8.475          	1.438
MS.371         	8.46           	1.797
MS.372         	8.443          	1.589
MS.373         	8.425          	1.595
MS.374         	8.408          	1.486
MS.375         	8.392          	1.313
MS.376         	8.375          	1.196
MS.377         	8.358          	1.454
MS.378         	8.34           	1.146
MS.379         	8.325          	1.495
MS.380         	8.307          	1.122
MS.381         	8.292          	1.398
MS.382         	8.275          	1.305
MS.383         	8.257          	1.227
MS.384         	8.242          	1.368
MS.385         	8.225          	1.261
MS.386         	8.21           	1.065
MS.387         	8.193          	1.259
MS.388         	8.175          	1.16
MS.389         	8.16           	1.08
MS.390         	8.142          	1.019
MS.391         	8.127          	0.929
MS.392         	8.11           	0.947
MS.393         	8.095          	1.122
MS.394         	8.077          	0.872
MS.395         	8.062          	0.884
MS.396         	8.047          	0.953
MS.397         	8.03           	0.941
MS.398         	8.015          	0.832
MS.399         	7.997          	0.751
MS.400         	7.982          	0.856
MS.401         	7.965          	0.729
MS.402         	7.95           	0.751
MS.403         	7.935          	0.739
MS.404         	7.918          	0.661
MS.405         	7.902          	0.602
MS.406         	7.887          	0.677
MS.407         	7.87           	0.592
MS.408         	7.855          	0.441
MS.409         	7.84           	0.634
MS.410         	7.825          	0.387
MS.411         	7.807          	0.401
MS.412         	7.793          	0.375
MS.413         	7.777          	0.395
MS.414         	7.762          	0.502
MS.415         	7.747          	0.51
MS.416         	7.73           	0.397
MS.417         	7.715          	0.483
MS.418         	7.7            	0.461
MS.419         	7.685          	0.296
MS.420         	7.67           	0.34
MS.421         	7.655          	0.385
MS.422         	7.637          	0.31
MS.423         	7.622          	0.318
MS.424         	7.607          	0.421
MS.425         	7.592          	0.28
MS.426         	7.577          	0.31
MS.427         	7.562          	0.254
MS.428         	7.547          	0.286
MS.429         	7.532          	0.268
MS.430         	7.517          	0.296
MS.431         	7.503          	0.26
MS.432         	7.487          	0.262
MS.433         	7.472          	0.26
MS.434         	7.457          	0.27
MS.435         	7.442          	0.187
MS.436         	7.427          	0.185
MS.437         	7.412          	0.171
MS.438         	7.398          	0.224
MS.439         	7.382          	0.224
MS.440         	7.367          	0.22
MS.441         	7.352          	0.183
MS.442         	7.34           	0.185
MS.443         	7.325          	0.173
MS.444         	7.31           	0.288
MS.445         	7.295          	0.183
MS.446         	7.28           	0.181
MS.447         	7.265          	0.173
MS.448         	7.253          	0.163
MS.449         	7.237          	0.177
MS.450         	7.222          	0.177
MS.451         	7.207          	0.175
MS.452         	7.192          	0.175
MS.453         	7.18           	0.169
MS.454         	7.165          	0.175
MS.455         	7.15           	0.183
MS.456         	7.137          	0.169
MS.457         	7.122          	0.161
MS.458         	7.108          	0.163
MS.459         	7.092          	0.157
MS.460         	7.08           	0.175
MS.461         	7.065          	0.165
MS.462         	7.052          	0.167
MS.463         	7.037          	0.165
MS.464         	7.023          	0.173
MS.465         	7.01           	0.163
MS.466         	6.995          	0.155
MS.467         	6.98           	0.167
MS.468         	6.967          	0.169
MS.469         	6.952          	0.165
MS.470         	6.94           	0.167
MS.471         	6.925          	0.167
MS.472         	6.912          	0.173
MS.473         	6.898          	0.167
MS.474         	6.885          	0.163
MS.475         	6.87           	0.173
MS.476         	6.858          	0.177
MS.477         	6.842          	0.163
MS.478         	6.83           	0.171
MS.479         	6.815          	0.167
MS.480         	6.802          	0.163
MS.481         	6.787          	0.171
MS.482         	6.775          	0.143
MS.483         	6.762          	0.167
MS.484         	6.747          	0.159
MS.485         	6.735          	0.163
MS.486         	6.72           	0.169
MS.487         	6.707          	0.161
MS.488         	6.695          	0.171
MS.489         	6.68           	0.149
MS.490         	6.668          	0.155
MS.491         	6.655          	0.161
MS.492         	6.64           	0.159
MS.493         	6.628          	0.151
MS.494         	6.615          	0.157
MS.495         	6.6            	0.151
MS.496         	6.587          	0.147
MS.497         	6.575          	0.145
MS.498         	6.562          	0.151
MS.499         	6.547          	0.149
MS.500         	6.535          	0.153
