File:              	C:\Qtrac\Data\Daniel M Sørensen\MScan multicentre study\Data from centres\Oslo\Processed data\SZC00511C.QZD
Name:              	NO.OSL.NC.4.2
Protocol:          	MSCAN-R2
Date:              	11/5/20
Start time:        	16:45:17
Age:               	39
Sex:               	F
Temperature:       	31.3
S/R sites:         	TA
NC/disease:        	NC4
Operator:          	SZ
Comments:          	Test2
M-SCAN DATA (13.6-3.7m)
Scanpts: 7, 16, 1012, 1034
Stim. (mA)     	Amp. (mV)
MS.1           	34             	8.82
MS.2           	34             	8.812
MS.3           	34             	8.792
MS.4           	34             	8.77
MS.5           	34             	8.766
MS.6           	34             	8.735
MS.7           	34             	8.719
MS.8           	34             	8.766
MS.9           	34             	8.756
MS.10          	34             	8.735
MS.11          	34             	8.752
MS.12          	34             	8.727
MS.13          	34             	8.725
MS.14          	34             	8.754
MS.15          	34             	8.752
MS.16          	34             	8.75
MS.17          	34             	8.727
MS.18          	34             	8.735
MS.19          	34             	8.681
MS.20          	34             	8.707
MS.21          	34             	8.693
MS.22          	34             	8.695
MS.23          	34             	8.717
MS.24          	33.865         	8.667
MS.25          	33.798         	8.667
MS.26          	33.73          	8.685
MS.27          	33.662         	8.659
MS.28          	33.595         	8.671
MS.29          	33.528         	8.675
MS.30          	33.46          	8.687
MS.31          	33.392         	8.665
MS.32          	33.327         	8.637
MS.33          	33.26          	8.613
MS.34          	33.193         	8.643
MS.35          	33.127         	8.669
MS.36          	33.06          	8.671
MS.37          	32.995         	8.611
MS.38          	32.93          	8.607
MS.39          	32.862         	8.596
MS.40          	32.798         	8.607
MS.41          	32.732         	8.582
MS.42          	32.667         	8.564
MS.43          	32.603         	8.582
MS.44          	32.537         	8.574
MS.45          	32.472         	8.568
MS.46          	32.407         	8.518
MS.47          	32.342         	8.556
MS.48          	32.278         	8.55
MS.49          	32.212         	8.54
MS.50          	32.147         	8.504
MS.51          	32.085         	8.55
MS.52          	32.02          	8.506
MS.53          	31.955         	8.502
MS.54          	31.892         	8.486
MS.55          	31.827         	8.47
MS.56          	31.765         	8.49
MS.57          	31.702         	8.476
MS.58          	31.637         	8.461
MS.59          	31.575         	8.435
MS.60          	31.512         	8.421
MS.61          	31.448         	8.445
MS.62          	31.385         	8.449
MS.63          	31.323         	8.468
MS.64          	31.26          	8.399
MS.65          	31.198         	8.425
MS.66          	31.135         	8.419
MS.67          	31.073         	8.375
MS.68          	31.012         	8.413
MS.69          	30.95          	8.389
MS.70          	30.887         	8.365
MS.71          	30.825         	8.371
MS.72          	30.765         	8.361
MS.73          	30.702         	8.347
MS.74          	30.642         	8.351
MS.75          	30.58          	8.349
MS.76          	30.52          	8.335
MS.77          	30.457         	8.333
MS.78          	30.397         	8.318
MS.79          	30.337         	8.3
MS.80          	30.275         	8.284
MS.81          	30.215         	8.262
MS.82          	30.155         	8.323
MS.83          	30.095         	8.222
MS.84          	30.035         	8.238
MS.85          	29.975         	8.24
MS.86          	29.915         	8.254
MS.87          	29.855         	8.262
MS.88          	29.795         	8.27
MS.89          	29.735         	8.238
MS.90          	29.677         	8.254
MS.91          	29.617         	8.234
MS.92          	29.557         	8.23
MS.93          	29.5           	8.22
MS.94          	29.44          	8.212
MS.95          	29.382         	8.19
MS.96          	29.323         	8.184
MS.97          	29.265         	8.194
MS.98          	29.205         	8.194
MS.99          	29.147         	8.186
MS.100         	29.09          	8.167
MS.101         	29.03          	8.167
MS.102         	28.972         	8.155
MS.103         	28.915         	8.149
MS.104         	28.858         	8.161
MS.105         	28.8           	8.123
MS.106         	28.743         	8.133
MS.107         	28.685         	8.109
MS.108         	28.627         	8.127
MS.109         	28.57          	8.113
MS.110         	28.512         	8.103
MS.111         	28.455         	8.149
MS.112         	28.4           	8.101
MS.113         	28.342         	8.067
MS.114         	28.285         	8.081
MS.115         	28.23          	8.069
MS.116         	28.172         	8.041
MS.117         	28.118         	8.034
MS.118         	28.06          	8.053
MS.119         	28.005         	8.047
MS.120         	27.948         	8.022
MS.121         	27.892         	8.041
MS.122         	27.837         	8.018
MS.123         	27.78          	8.024
MS.124         	27.725         	8.006
MS.125         	27.67          	7.992
MS.126         	27.615         	7.99
MS.127         	27.56          	7.976
MS.128         	27.505         	7.984
MS.129         	27.45          	7.99
MS.130         	27.395         	7.964
MS.131         	27.34          	7.954
MS.132         	27.285         	7.96
MS.133         	27.23          	7.934
MS.134         	27.177         	7.946
MS.135         	27.122         	7.934
MS.136         	27.067         	7.932
MS.137         	27.015         	7.904
MS.138         	26.96          	7.906
MS.139         	26.905         	7.896
MS.140         	26.852         	7.865
MS.141         	26.8           	7.869
MS.142         	26.745         	7.855
MS.143         	26.692         	7.841
MS.144         	26.637         	7.865
MS.145         	26.585         	7.859
MS.146         	26.532         	7.867
MS.147         	26.48          	7.837
MS.148         	26.425         	7.819
MS.149         	26.372         	7.815
MS.150         	26.32          	7.823
MS.151         	26.267         	7.807
MS.152         	26.215         	7.781
MS.153         	26.162         	7.813
MS.154         	26.11          	7.767
MS.155         	26.06          	7.781
MS.156         	26.007         	7.777
MS.157         	25.955         	7.775
MS.158         	25.903         	7.793
MS.159         	25.85          	7.773
MS.160         	25.8           	7.755
MS.161         	25.747         	7.753
MS.162         	25.698         	7.75
MS.163         	25.645         	7.72
MS.164         	25.595         	7.761
MS.165         	25.542         	7.716
MS.166         	25.493         	7.753
MS.167         	25.44          	7.722
MS.168         	25.39          	7.734
MS.169         	25.34          	7.7
MS.170         	25.288         	7.702
MS.171         	25.237         	7.678
MS.172         	25.188         	7.7
MS.173         	25.137         	7.682
MS.174         	25.087         	7.674
MS.175         	25.038         	7.674
MS.176         	24.987         	7.67
MS.177         	24.938         	7.636
MS.178         	24.887         	7.67
MS.179         	24.837         	7.638
MS.180         	24.788         	7.648
MS.181         	24.737         	7.684
MS.182         	24.69          	7.634
MS.183         	24.64          	7.658
MS.184         	24.59          	7.656
MS.185         	24.542         	7.648
MS.186         	24.493         	7.64
MS.187         	24.442         	7.628
MS.188         	24.395         	7.658
MS.189         	24.345         	7.616
MS.190         	24.297         	7.614
MS.191         	24.247         	7.636
MS.192         	24.2           	7.618
MS.193         	24.153         	7.601
MS.194         	24.102         	7.603
MS.195         	24.055         	7.622
MS.196         	24.007         	7.612
MS.197         	23.96          	7.603
MS.198         	23.913         	7.589
MS.199         	23.862         	7.593
MS.200         	23.815         	7.587
MS.201         	23.767         	7.577
MS.202         	23.72          	7.571
MS.203         	23.672         	7.583
MS.204         	23.625         	7.571
MS.205         	23.58          	7.555
MS.206         	23.532         	7.589
MS.207         	23.485         	7.555
MS.208         	23.438         	7.559
MS.209         	23.39          	7.549
MS.210         	23.345         	7.561
MS.211         	23.297         	7.551
MS.212         	23.25          	7.551
MS.213         	23.205         	7.567
MS.214         	23.157         	7.545
MS.215         	23.112         	7.529
MS.216         	23.065         	7.529
MS.217         	23.02          	7.531
MS.218         	22.975         	7.541
MS.219         	22.927         	7.527
MS.220         	22.882         	7.507
MS.221         	22.837         	7.503
MS.222         	22.79          	7.491
MS.223         	22.745         	7.462
MS.224         	22.7           	7.499
MS.225         	22.655         	7.477
MS.226         	22.61          	7.505
MS.227         	22.565         	7.434
MS.228         	22.52          	7.491
MS.229         	22.475         	7.491
MS.230         	22.43          	7.499
MS.231         	22.385         	7.479
MS.232         	22.34          	7.458
MS.233         	22.295         	7.481
MS.234         	22.25          	7.471
MS.235         	22.205         	7.442
MS.236         	22.163         	7.43
MS.237         	22.118         	7.44
MS.238         	22.073         	7.446
MS.239         	22.03          	7.46
MS.240         	21.985         	7.458
MS.241         	21.94          	7.43
MS.242         	21.897         	7.438
MS.243         	21.852         	7.436
MS.244         	21.81          	7.41
MS.245         	21.765         	7.42
MS.246         	21.722         	7.432
MS.247         	21.68          	7.408
MS.248         	21.635         	7.438
MS.249         	21.592         	7.42
MS.250         	21.55          	7.438
MS.251         	21.507         	7.412
MS.252         	21.462         	7.402
MS.253         	21.42          	7.424
MS.254         	21.377         	7.414
MS.255         	21.335         	7.418
MS.256         	21.292         	7.428
MS.257         	21.25          	7.406
MS.258         	21.208         	7.392
MS.259         	21.165         	7.394
MS.260         	21.122         	7.384
MS.261         	21.08          	7.408
MS.262         	21.038         	7.4
MS.263         	20.997         	7.388
MS.264         	20.955         	7.392
MS.265         	20.913         	7.4
MS.266         	20.87          	7.328
MS.267         	20.83          	7.386
MS.268         	20.788         	7.39
MS.269         	20.745         	7.37
MS.270         	20.705         	7.358
MS.271         	20.663         	7.366
MS.272         	20.622         	7.362
MS.273         	20.58          	7.368
MS.274         	20.54          	7.362
MS.275         	20.497         	7.352
MS.276         	20.458         	7.321
MS.277         	20.417         	7.37
MS.278         	20.375         	7.366
MS.279         	20.335         	7.376
MS.280         	20.295         	7.35
MS.281         	20.255         	7.366
MS.282         	20.212         	7.344
MS.283         	20.172         	7.362
MS.284         	20.132         	7.386
MS.285         	20.092         	7.408
MS.286         	20.052         	7.336
MS.287         	20.012         	7.35
MS.288         	19.972         	7.323
MS.289         	19.932         	7.35
MS.290         	19.892         	7.372
MS.291         	19.852         	7.37
MS.292         	19.812         	7.374
MS.293         	19.775         	7.313
MS.294         	19.735         	7.344
MS.295         	19.695         	7.358
MS.296         	19.655         	7.348
MS.297         	19.615         	7.352
MS.298         	19.577         	7.368
MS.299         	19.538         	7.299
MS.300         	19.5           	7.358
MS.301         	19.46          	7.346
MS.302         	19.42          	7.338
MS.303         	19.382         	7.323
MS.304         	19.342         	7.315
MS.305         	19.305         	7.319
MS.306         	19.267         	7.299
MS.307         	19.227         	7.344
MS.308         	19.19          	7.317
MS.309         	19.15          	7.315
MS.310         	19.112         	7.299
MS.311         	19.075         	7.332
MS.312         	19.038         	7.311
MS.313         	18.997         	7.303
MS.314         	18.96          	7.291
MS.315         	18.922         	7.275
MS.316         	18.885         	7.287
MS.317         	18.847         	7.277
MS.318         	18.81          	7.283
MS.319         	18.772         	7.307
MS.320         	18.735         	7.261
MS.321         	18.698         	7.293
MS.322         	18.66          	7.261
MS.323         	18.622         	7.321
MS.324         	18.585         	7.309
MS.325         	18.547         	7.283
MS.326         	18.51          	7.259
MS.327         	18.475         	7.33
MS.328         	18.438         	7.277
MS.329         	18.4           	7.269
MS.330         	18.362         	7.245
MS.331         	18.327         	7.247
MS.332         	18.29          	7.265
MS.333         	18.253         	7.249
MS.334         	18.217         	7.197
MS.335         	18.18          	7.265
MS.336         	18.145         	7.251
MS.337         	18.108         	7.267
MS.338         	18.073         	7.217
MS.339         	18.035         	7.203
MS.340         	18             	7.263
MS.341         	17.965         	7.261
MS.342         	17.927         	7.201
MS.343         	17.892         	7.217
MS.344         	17.858         	7.233
MS.345         	17.82          	7.211
MS.346         	17.785         	7.166
MS.347         	17.75          	7.225
MS.348         	17.715         	7.235
MS.349         	17.677         	7.193
MS.350         	17.642         	7.164
MS.351         	17.608         	7.142
MS.352         	17.573         	7.174
MS.353         	17.538         	7.124
MS.354         	17.503         	7.166
MS.355         	17.467         	7.158
MS.356         	17.432         	7.162
MS.357         	17.397         	7.122
MS.358         	17.362         	7.172
MS.359         	17.327         	7.12
MS.360         	17.295         	7.124
MS.361         	17.26          	7.138
MS.362         	17.225         	7.092
MS.363         	17.19          	7.138
MS.364         	17.155         	7.112
MS.365         	17.122         	7.096
MS.366         	17.087         	7.118
MS.367         	17.052         	7.096
MS.368         	17.02          	7.094
MS.369         	16.985         	7.088
MS.370         	16.952         	7.066
MS.371         	16.917         	7.054
MS.372         	16.885         	7.096
MS.373         	16.85          	7.074
MS.374         	16.817         	7.062
MS.375         	16.782         	7.046
MS.376         	16.75          	7.05
MS.377         	16.715         	6.997
MS.378         	16.682         	7.044
MS.379         	16.65          	7.021
MS.380         	16.615         	6.967
MS.381         	16.583         	6.985
MS.382         	16.55          	6.999
MS.383         	16.517         	6.999
MS.384         	16.483         	6.985
MS.385         	16.45          	6.957
MS.386         	16.417         	6.939
MS.387         	16.385         	6.913
MS.388         	16.352         	6.943
MS.389         	16.32          	6.892
MS.390         	16.288         	6.927
MS.391         	16.255         	6.929
MS.392         	16.222         	6.905
MS.393         	16.19          	6.903
MS.394         	16.157         	6.905
MS.395         	16.125         	6.878
MS.396         	16.092         	6.888
MS.397         	16.06          	6.901
MS.398         	16.028         	6.848
MS.399         	15.997         	6.852
MS.400         	15.965         	6.8
MS.401         	15.932         	6.776
MS.402         	15.9           	6.768
MS.403         	15.87          	6.76
MS.404         	15.837         	6.772
MS.405         	15.805         	6.737
MS.406         	15.775         	6.782
MS.407         	15.742         	6.776
MS.408         	15.71          	6.762
MS.409         	15.68          	6.77
MS.410         	15.648         	6.729
MS.411         	15.617         	6.814
MS.412         	15.585         	6.719
MS.413         	15.555         	6.747
MS.414         	15.523         	6.713
MS.415         	15.492         	6.735
MS.416         	15.462         	6.758
MS.417         	15.43          	6.76
MS.418         	15.4           	6.705
MS.419         	15.37          	6.707
MS.420         	15.337         	6.705
MS.421         	15.307         	6.689
MS.422         	15.277         	6.705
MS.423         	15.247         	6.711
MS.424         	15.215         	6.739
MS.425         	15.185         	6.725
MS.426         	15.155         	6.629
MS.427         	15.125         	6.695
MS.428         	15.095         	6.625
MS.429         	15.065         	6.667
MS.430         	15.035         	6.61
MS.431         	15.005         	6.518
MS.432         	14.975         	6.506
MS.433         	14.945         	6.6
MS.434         	14.915         	6.623
MS.435         	14.885         	6.61
MS.436         	14.855         	6.568
MS.437         	14.825         	6.512
MS.438         	14.795         	6.492
MS.439         	14.767         	6.506
MS.440         	14.737         	6.409
MS.441         	14.707         	6.415
MS.442         	14.677         	6.343
MS.443         	14.65          	6.403
MS.444         	14.62          	6.419
MS.445         	14.59          	6.373
MS.446         	14.56          	6.401
MS.447         	14.532         	6.335
MS.448         	14.502         	6.318
MS.449         	14.475         	6.326
MS.450         	14.445         	6.254
MS.451         	14.417         	6.2
MS.452         	14.387         	6.236
MS.453         	14.358         	6.163
MS.454         	14.33          	6.28
MS.455         	14.302         	6.155
MS.456         	14.273         	6.163
MS.457         	14.245         	6.179
MS.458         	14.215         	6.185
MS.459         	14.188         	6.107
MS.460         	14.16          	6.03
MS.461         	14.13          	6.059
MS.462         	14.102         	6.125
MS.463         	14.075         	6.014
MS.464         	14.047         	6.004
MS.465         	14.017         	6
MS.466         	13.99          	6.049
MS.467         	13.962         	5.851
MS.468         	13.935         	5.936
MS.469         	13.907         	5.881
MS.470         	13.877         	5.865
MS.471         	13.85          	5.867
MS.472         	13.822         	5.791
MS.473         	13.795         	5.807
MS.474         	13.767         	5.758
MS.475         	13.74          	5.777
MS.476         	13.712         	5.688
MS.477         	13.685         	5.801
MS.478         	13.657         	5.684
MS.479         	13.63          	5.585
MS.480         	13.605         	5.603
MS.481         	13.577         	5.686
MS.482         	13.55          	5.642
MS.483         	13.523         	5.567
MS.484         	13.495         	5.529
MS.485         	13.467         	5.485
MS.486         	13.443         	5.571
MS.487         	13.415         	5.43
MS.488         	13.387         	5.593
MS.489         	13.36          	5.46
MS.490         	13.335         	5.507
MS.491         	13.307         	5.41
MS.492         	13.282         	5.412
MS.493         	13.255         	5.388
MS.494         	13.227         	5.364
MS.495         	13.202         	5.331
MS.496         	13.175         	5.299
MS.497         	13.15          	5.225
MS.498         	13.122         	5.289
MS.499         	13.097         	5.319
MS.500         	13.07          	5.307
MS.501         	13.045         	5.251
