File:              	C:\Qtrac\Data\Daniel M Sørensen\MScan multicentre study\Data from centres\Oslo\Processed data\SZC00505B.QZD
Name:              	NO.OSL.NC.2.2
Protocol:          	MSCAN-R2
Date:              	5/5/20
Start time:        	16:12:16
Age:               	41
Sex:               	F
Temperature:       	33.9
S/R sites:         	ADM
NC/disease:        	NC2
Operator:          	SZ
Comments:          	Test2
M-SCAN DATA (8.7-4.1m)
Scanpts: 34, 41, 351, 356
Stim. (mA)     	Amp. (mV)
MS.1           	14.5           	9.724
MS.2           	14.5           	9.73
MS.3           	14.5           	9.728
MS.4           	14.5           	9.702
MS.5           	14.5           	9.696
MS.6           	14.5           	9.736
MS.7           	14.5           	9.728
MS.8           	14.5           	9.704
MS.9           	14.5           	9.716
MS.10          	14.5           	9.71
MS.11          	14.5           	9.702
MS.12          	14.5           	9.706
MS.13          	14.5           	9.74
MS.14          	14.5           	9.734
MS.15          	14.5           	9.684
MS.16          	14.5           	9.69
MS.17          	14.5           	9.71
MS.18          	14.5           	9.74
MS.19          	14.5           	9.712
MS.20          	14.5           	9.714
MS.21          	14.5           	9.688
MS.22          	14.5           	9.702
MS.23          	14.5           	9.712
MS.24          	14.443         	9.702
MS.25          	14.412         	9.72
MS.26          	14.385         	9.755
MS.27          	14.355         	9.728
MS.28          	14.327         	9.734
MS.29          	14.297         	9.759
MS.30          	14.27          	9.724
MS.31          	14.242         	9.759
MS.32          	14.212         	9.738
MS.33          	14.185         	9.753
MS.34          	14.155         	9.767
MS.35          	14.127         	9.775
MS.36          	14.1           	9.763
MS.37          	14.072         	9.751
MS.38          	14.042         	9.738
MS.39          	14.015         	9.805
MS.40          	13.987         	9.795
MS.41          	13.96          	9.763
MS.42          	13.932         	9.775
MS.43          	13.903         	9.783
MS.44          	13.875         	9.809
MS.45          	13.847         	9.799
MS.46          	13.82          	9.809
MS.47          	13.792         	9.773
MS.48          	13.765         	9.724
MS.49          	13.737         	9.696
MS.50          	13.71          	9.825
MS.51          	13.682         	9.813
MS.52          	13.655         	9.753
MS.53          	13.627         	9.765
MS.54          	13.6           	9.745
MS.55          	13.575         	9.757
MS.56          	13.547         	9.789
MS.57          	13.52          	9.745
MS.58          	13.492         	9.827
MS.59          	13.465         	9.708
MS.60          	13.44          	9.745
MS.61          	13.412         	9.732
MS.62          	13.385         	9.742
MS.63          	13.358         	9.833
MS.64          	13.332         	9.708
MS.65          	13.305         	9.712
MS.66          	13.278         	9.749
MS.67          	13.252         	9.815
MS.68          	13.225         	9.751
MS.69          	13.2           	9.771
MS.70          	13.172         	9.702
MS.71          	13.148         	9.813
MS.72          	13.12          	9.791
MS.73          	13.095         	9.654
MS.74          	13.068         	9.714
MS.75          	13.042         	9.606
MS.76          	13.015         	9.71
MS.77          	12.99          	9.787
MS.78          	12.962         	9.755
MS.79          	12.938         	9.628
MS.80          	12.912         	9.497
MS.81          	12.885         	9.612
MS.82          	12.86          	9.612
MS.83          	12.835         	9.686
MS.84          	12.81          	9.573
MS.85          	12.782         	9.535
MS.86          	12.757         	9.708
MS.87          	12.733         	9.672
MS.88          	12.707         	9.573
MS.89          	12.682         	9.636
MS.90          	12.655         	9.581
MS.91          	12.63          	9.692
MS.92          	12.605         	9.608
MS.93          	12.58          	9.668
MS.94          	12.555         	9.602
MS.95          	12.53          	9.406
MS.96          	12.505         	9.712
MS.97          	12.48          	9.666
MS.98          	12.455         	9.662
MS.99          	12.43          	9.404
MS.100         	12.405         	9.624
MS.101         	12.38          	9.626
MS.102         	12.355         	9.446
MS.103         	12.332         	9.326
MS.104         	12.307         	9.289
MS.105         	12.282         	9.275
MS.106         	12.257         	9.618
MS.107         	12.233         	9.207
MS.108         	12.207         	9.116
MS.109         	12.185         	9.221
MS.110         	12.16          	9.44
MS.111         	12.135         	9.183
MS.112         	12.113         	8.693
MS.113         	12.087         	8.878
MS.114         	12.062         	8.81
MS.115         	12.04          	9.279
MS.116         	12.015         	8.882
MS.117         	11.99          	8.677
MS.118         	11.967         	8.365
MS.119         	11.943         	8.897
MS.120         	11.92          	8.999
MS.121         	11.895         	8.58
MS.122         	11.872         	8.371
MS.123         	11.847         	8.548
MS.124         	11.825         	8.828
MS.125         	11.8           	8.568
MS.126         	11.778         	8.413
MS.127         	11.752         	7.986
MS.128         	11.73          	7.926
MS.129         	11.707         	8.059
MS.130         	11.682         	7.988
MS.131         	11.66          	8.103
MS.132         	11.637         	7.966
MS.133         	11.613         	7.726
MS.134         	11.59          	7.658
MS.135         	11.568         	7.835
MS.136         	11.545         	7.914
MS.137         	11.52          	7.601
MS.138         	11.497         	7.829
MS.139         	11.475         	7.603
MS.140         	11.452         	7.307
MS.141         	11.43          	7.515
MS.142         	11.405         	7.656
MS.143         	11.382         	7.559
MS.144         	11.36          	7.354
MS.145         	11.337         	6.967
MS.146         	11.315         	7.187
MS.147         	11.292         	7.489
MS.148         	11.27          	7.469
MS.149         	11.247         	7.479
MS.150         	11.225         	7.253
MS.151         	11.202         	6.999
MS.152         	11.18          	6.985
MS.153         	11.157         	6.741
MS.154         	11.135         	6.991
MS.155         	11.113         	6.917
MS.156         	11.09          	6.894
MS.157         	11.07          	6.451
MS.158         	11.047         	6.868
MS.159         	11.025         	6.729
MS.160         	11.002         	6.683
MS.161         	10.98          	6.32
MS.162         	10.96          	6.369
MS.163         	10.938         	6.721
MS.164         	10.915         	6.415
MS.165         	10.892         	6.274
MS.166         	10.872         	6.234
MS.167         	10.85          	6.469
MS.168         	10.827         	6.782
MS.169         	10.807         	6.804
MS.170         	10.785         	6.494
MS.171         	10.762         	5.466
MS.172         	10.742         	6.268
MS.173         	10.72          	6.582
MS.174         	10.7           	6.58
MS.175         	10.677         	5.742
MS.176         	10.655         	5.855
MS.177         	10.635         	5.68
MS.178         	10.613         	5.307
MS.179         	10.592         	5.074
MS.180         	10.573         	5.323
MS.181         	10.55          	5.249
MS.182         	10.53          	5.225
MS.183         	10.507         	5.4
MS.184         	10.488         	4.913
MS.185         	10.465         	5.009
MS.186         	10.445         	5.1
MS.187         	10.425         	5.35
MS.188         	10.403         	5.017
MS.189         	10.382         	4.53
MS.190         	10.363         	4.494
MS.191         	10.342         	4.915
MS.192         	10.32          	5.293
MS.193         	10.3           	4.872
MS.194         	10.28          	4.395
MS.195         	10.26          	4.286
MS.196         	10.238         	4.181
MS.197         	10.217         	4.363
MS.198         	10.198         	4.415
MS.199         	10.177         	4.437
MS.200         	10.157         	3.93
MS.201         	10.137         	4.282
MS.202         	10.117         	4.379
MS.203         	10.095         	4.308
MS.204         	10.075         	3.742
MS.205         	10.055         	4.212
MS.206         	10.035         	4.028
MS.207         	10.015         	3.783
MS.208         	9.995          	3.948
MS.209         	9.975          	4.036
MS.210         	9.955          	3.484
MS.211         	9.935          	3.547
MS.212         	9.915          	3.509
MS.213         	9.895          	3.632
MS.214         	9.877          	3.922
MS.215         	9.858          	3.916
MS.216         	9.837          	3.277
MS.217         	9.818          	3.231
MS.218         	9.797          	3.279
MS.219         	9.778          	3.458
MS.220         	9.757          	3.213
MS.221         	9.74           	3.287
MS.222         	9.72           	2.697
MS.223         	9.7            	3.138
MS.224         	9.68           	3.382
MS.225         	9.662          	3.43
MS.226         	9.642          	2.798
MS.227         	9.622          	2.467
MS.228         	9.602          	2.806
MS.229         	9.585          	2.842
MS.230         	9.565          	2.759
MS.231         	9.545          	2.846
MS.232         	9.528          	2.637
MS.233         	9.507          	1.972
MS.234         	9.49           	2.173
MS.235         	9.47           	2.473
MS.236         	9.45           	2.296
MS.237         	9.432          	2.715
MS.238         	9.412          	2.288
MS.239         	9.395          	1.573
MS.240         	9.375          	2.423
MS.241         	9.358          	2.56
MS.242         	9.337          	2.592
MS.243         	9.32           	2.369
MS.244         	9.3            	1.851
MS.245         	9.283          	1.382
MS.246         	9.265          	1.871
MS.247         	9.245          	1.871
MS.248         	9.227          	1.617
MS.249         	9.207          	1.533
MS.250         	9.19           	1.337
MS.251         	9.172          	1.537
MS.252         	9.153          	1.674
MS.253         	9.135          	1.315
MS.254         	9.117          	1.148
MS.255         	9.1            	1.378
MS.256         	9.08           	1.305
MS.257         	9.062          	1.428
MS.258         	9.045          	1.281
MS.259         	9.028          	0.896
MS.260         	9.007          	0.792
MS.261         	8.99           	1.174
MS.262         	8.972          	1.17
MS.263         	8.955          	0.991
MS.264         	8.938          	0.848
MS.265         	8.917          	0.761
MS.266         	8.9            	0.763
MS.267         	8.882          	0.933
MS.268         	8.865          	0.822
MS.269         	8.847          	0.804
MS.270         	8.83           	0.779
MS.271         	8.812          	0.892
MS.272         	8.795          	0.643
MS.273         	8.778          	0.596
MS.274         	8.76           	0.645
MS.275         	8.742          	0.588
MS.276         	8.725          	0.377
MS.277         	8.707          	0.57
MS.278         	8.69           	0.457
MS.279         	8.672          	0.542
MS.280         	8.655          	0.586
MS.281         	8.637          	0.788
MS.282         	8.62           	0.441
MS.283         	8.602          	0.439
MS.284         	8.585          	0.316
MS.285         	8.57           	0.338
MS.286         	8.552          	0.461
MS.287         	8.535          	0.465
MS.288         	8.517          	0.3
MS.289         	8.5            	0.28
MS.290         	8.483          	0.324
MS.291         	8.467          	0.469
MS.292         	8.45           	0.566
MS.293         	8.432          	0.32
MS.294         	8.415          	0.256
MS.295         	8.4            	0.222
MS.296         	8.382          	0.173
MS.297         	8.365          	0.26
MS.298         	8.35           	0.29
MS.299         	8.332          	0.284
MS.300         	8.315          	0.105
MS.301         	8.3            	0.203
MS.302         	8.283          	0.139
MS.303         	8.265          	0.143
MS.304         	8.25           	0.246
MS.305         	8.233          	0.165
MS.306         	8.217          	0.161
MS.307         	8.2            	0.103
MS.308         	8.182          	0.121
MS.309         	8.167          	0.157
MS.310         	8.15           	0.218
MS.311         	8.135          	0.117
MS.312         	8.117          	0.103
MS.313         	8.102          	0.165
MS.314         	8.085          	0.163
MS.315         	8.07           	0.163
MS.316         	8.055          	0.107
MS.317         	8.037          	0.097
MS.318         	8.023          	0.111
MS.319         	8.005          	0.087
MS.320         	7.99           	0.097
MS.321         	7.972          	0.079
MS.322         	7.957          	0.087
MS.323         	7.942          	0.081
MS.324         	7.925          	0.075
MS.325         	7.91           	0.091
MS.326         	7.895          	0.093
MS.327         	7.878          	0.07
MS.328         	7.862          	0.07
MS.329         	7.847          	0.089
MS.330         	7.832          	0.066
MS.331         	7.815          	0.079
MS.332         	7.8            	0.077
MS.333         	7.785          	0.093
MS.334         	7.77           	0.073
MS.335         	7.753          	0.068
MS.336         	7.737          	0.075
MS.337         	7.722          	0.085
MS.338         	7.707          	0.079
MS.339         	7.692          	0.073
MS.340         	7.677          	0.081
MS.341         	7.66           	0.075
MS.342         	7.645          	0.054
MS.343         	7.63           	0.077
MS.344         	7.615          	0.075
MS.345         	7.6            	0.073
MS.346         	7.585          	0.085
MS.347         	7.57           	0.064
MS.348         	7.555          	0.056
MS.349         	7.54           	0.058
MS.350         	7.525          	0.056
MS.351         	7.51           	0.064
MS.352         	7.495          	0.066
MS.353         	7.48           	0.056
MS.354         	7.465          	0.056
MS.355         	7.45           	0.06
MS.356         	7.435          	0.052
MS.357         	7.42           	0.073
MS.358         	7.405          	0.058
MS.359         	7.39           	0.056
MS.360         	7.375          	0.06
MS.361         	7.36           	0.079
MS.362         	7.345          	0.058
MS.363         	7.33           	0.075
MS.364         	7.317          	0.062
MS.365         	7.302          	0.036
MS.366         	7.287          	0.062
MS.367         	7.273          	0.038
MS.368         	7.257          	0.038
MS.369         	7.245          	0.034
MS.370         	7.23           	0.058
MS.371         	7.215          	0.064
MS.372         	7.2            	0.03
MS.373         	7.185          	0.062
MS.374         	7.172          	0.042
MS.375         	7.157          	0.04
MS.376         	7.142          	0.064
MS.377         	7.13           	0.036
MS.378         	7.115          	0.054
MS.379         	7.1            	0.032
MS.380         	7.085          	0.034
MS.381         	7.072          	0.04
MS.382         	7.057          	0.066
MS.383         	7.045          	0.062
MS.384         	7.03           	0.056
MS.385         	7.015          	0.04
MS.386         	7.003          	0.03
MS.387         	6.987          	0.036
MS.388         	6.972          	0.03
MS.389         	6.96           	0.038
MS.390         	6.945          	0.038
MS.391         	6.932          	0.038
MS.392         	6.918          	0.04
MS.393         	6.905          	0.044
MS.394         	6.89           	0.04
MS.395         	6.878          	0.028
MS.396         	6.862          	0.034
MS.397         	6.85           	0.028
MS.398         	6.835          	0.044
MS.399         	6.822          	0.034
MS.400         	6.807          	0.042
MS.401         	6.795          	0.022
MS.402         	6.78           	0.038
MS.403         	6.767          	0.038
MS.404         	6.755          	0.026
MS.405         	6.74           	0.036
MS.406         	6.727          	0.042
MS.407         	6.712          	0.022
MS.408         	6.7            	0.028
MS.409         	6.688          	0.022
MS.410         	6.672          	0.034
MS.411         	6.66           	0.026
MS.412         	6.648          	0.028
MS.413         	6.632          	0.024
MS.414         	6.62           	0.03
MS.415         	6.608          	0.022
MS.416         	6.595          	0.026
MS.417         	6.58           	0.02
MS.418         	6.567          	0.03
MS.419         	6.555          	0.026
MS.420         	6.543          	0.02
MS.421         	6.527          	0.028
MS.422         	6.515          	0.04
MS.423         	6.503          	0.03
MS.424         	6.49           	0.026
MS.425         	6.477          	0.028
MS.426         	6.462          	0.03
MS.427         	6.45           	0.02
MS.428         	6.438          	0.02
MS.429         	6.425          	0.028
MS.430         	6.412          	0.018
MS.431         	6.4            	0.024
MS.432         	6.385          	0.03
MS.433         	6.372          	0.028
MS.434         	6.36           	0.02
MS.435         	6.347          	0.022
MS.436         	6.335          	0.028
MS.437         	6.322          	0.03
MS.438         	6.31           	0.02
MS.439         	6.297          	0.026
MS.440         	6.285          	0.028
MS.441         	6.273          	0.024
MS.442         	6.26           	0.028
MS.443         	6.247          	0.022
MS.444         	6.235          	0.022
MS.445         	6.222          	0.024
MS.446         	6.21           	0.02
MS.447         	6.197          	0.026
MS.448         	6.185          	0.028
MS.449         	6.172          	0.02
MS.450         	6.16           	0.024
MS.451         	6.148          	0.03
MS.452         	6.135          	0.024
MS.453         	6.122          	0.03
MS.454         	6.112          	0.028
MS.455         	6.1            	0.022
MS.456         	6.088          	0.03
MS.457         	6.075          	0.03
MS.458         	6.062          	0.03
MS.459         	6.05           	0.02
MS.460         	6.037          	0.026
MS.461         	6.027          	0.026
MS.462         	6.015          	0.026
MS.463         	6.003          	0.028
MS.464         	5.99           	0.02
MS.465         	5.977          	0.028
MS.466         	5.967          	0.024
MS.467         	5.955          	0.03
MS.468         	5.942          	0.026
MS.469         	5.93           	0.024
MS.470         	5.92           	0.028
MS.471         	5.907          	0.042
MS.472         	5.895          	0.028
MS.473         	5.882          	0.026
MS.474         	5.872          	0.026
MS.475         	5.86           	0.036
MS.476         	5.847          	0.028
MS.477         	5.838          	0.03
MS.478         	5.825          	0.044
MS.479         	5.812          	0.038
MS.480         	5.802          	0.02
MS.481         	5.79           	0.034
MS.482         	5.777          	0.042
MS.483         	5.767          	0.038
MS.484         	5.755          	0.042
MS.485         	5.745          	0.042
MS.486         	5.733          	0.038
MS.487         	5.72           	0.04
MS.488         	5.71           	0.036
MS.489         	5.697          	0.036
MS.490         	5.688          	0.042
MS.491         	5.675          	0.034
MS.492         	5.665          	0.024
MS.493         	5.652          	0.04
MS.494         	5.642          	0.04
DERIVED EXCITABILITY VARIABLES
Program = QTracP 3/4/2020
Threshold method = 6 (optimised for CAP, using data for present condition only)
SR method = 1 (using actual data values)
6.                 	0.000               	Peak response\(mV)
