File:              	C:\Qtrac\Data\Daniel M Sørensen\MScan multicentre study\Data from centres\Oslo\IronKey\Oslo_NC_first examination\SZC00618C.QZD
Name:              	NO.OSL.NC.19.1
Protocol:          	MSCAN-R2
Date:              	18/6/20
Start time:        	10:15:21
Age:               	39
Sex:               	M
Temperature:       	33.8
S/R sites:         	Peroneal-TA
NC/disease:        	NC19
Operator:          	SZ
Comments:          	Test1
M-SCAN DATA (10.6-1.7m)
Scanpts: 12, 19, 915, 935
Stim. (mA)     	Amp. (mV)
MS.1           	16             	12.524
MS.2           	16             	12.52
MS.3           	16             	12.504
MS.4           	16             	12.45
MS.5           	16             	12.427
MS.6           	16             	12.395
MS.7           	16             	12.415
MS.8           	16             	12.403
MS.9           	16             	12.415
MS.10          	16             	12.393
MS.11          	16             	12.399
MS.12          	16             	12.399
MS.13          	16             	12.417
MS.14          	16             	12.365
MS.15          	16             	12.385
MS.16          	16             	12.387
MS.17          	16             	12.383
MS.18          	16             	12.397
MS.19          	16             	12.393
MS.20          	16             	12.401
MS.21          	16             	12.341
MS.22          	16             	12.355
MS.23          	16             	12.439
MS.24          	15.935         	12.476
MS.25          	15.905         	12.46
MS.26          	15.872         	12.395
MS.27          	15.84          	12.361
MS.28          	15.81          	12.347
MS.29          	15.777         	12.399
MS.30          	15.745         	12.397
MS.31          	15.715         	12.373
MS.32          	15.682         	12.391
MS.33          	15.652         	12.349
MS.34          	15.62          	12.321
MS.35          	15.59          	12.367
MS.36          	15.557         	12.333
MS.37          	15.527         	12.355
MS.38          	15.495         	12.335
MS.39          	15.465         	12.351
MS.40          	15.435         	12.355
MS.41          	15.402         	12.333
MS.42          	15.372         	12.351
MS.43          	15.342         	12.317
MS.44          	15.31          	12.337
MS.45          	15.28          	12.319
MS.46          	15.25          	12.335
MS.47          	15.22          	12.311
MS.48          	15.19          	12.331
MS.49          	15.16          	12.333
MS.50          	15.127         	12.337
MS.51          	15.097         	12.302
MS.52          	15.068         	12.298
MS.53          	15.037         	12.319
MS.54          	15.007         	12.315
MS.55          	14.977         	12.325
MS.56          	14.947         	12.323
MS.57          	14.917         	12.292
MS.58          	14.887         	12.28
MS.59          	14.858         	12.321
MS.60          	14.83          	12.286
MS.61          	14.8           	12.278
MS.62          	14.77          	12.288
MS.63          	14.74          	12.302
MS.64          	14.71          	12.327
MS.65          	14.682         	12.27
MS.66          	14.652         	12.242
MS.67          	14.622         	12.29
MS.68          	14.592         	12.264
MS.69          	14.565         	12.288
MS.70          	14.535         	12.28
MS.71          	14.507         	12.27
MS.72          	14.477         	12.298
MS.73          	14.447         	12.305
MS.74          	14.42          	12.262
MS.75          	14.39          	12.294
MS.76          	14.362         	12.264
MS.77          	14.332         	12.226
MS.78          	14.305         	12.284
MS.79          	14.275         	12.286
MS.80          	14.247         	12.276
MS.81          	14.22          	12.226
MS.82          	14.19          	12.266
MS.83          	14.162         	12.244
MS.84          	14.135         	12.258
MS.85          	14.105         	12.29
MS.86          	14.077         	12.292
MS.87          	14.05          	12.212
MS.88          	14.023         	12.266
MS.89          	13.992         	12.252
MS.90          	13.965         	12.248
MS.91          	13.938         	12.27
MS.92          	13.91          	12.24
MS.93          	13.882         	12.23
MS.94          	13.855         	12.228
MS.95          	13.827         	12.19
MS.96          	13.8           	12.178
MS.97          	13.773         	12.153
MS.98          	13.745         	12.164
MS.99          	13.717         	12.23
MS.100         	13.69          	12.176
MS.101         	13.662         	12.182
MS.102         	13.635         	12.161
MS.103         	13.608         	12.212
MS.104         	13.58          	12.127
MS.105         	13.552         	12.147
MS.106         	13.525         	12.198
MS.107         	13.497         	12.149
MS.108         	13.472         	12.111
MS.109         	13.445         	12.161
MS.110         	13.417         	12.19
MS.111         	13.39          	12.188
MS.112         	13.365         	12.095
MS.113         	13.337         	12.131
MS.114         	13.31          	12.151
MS.115         	13.285         	12.127
MS.116         	13.257         	12.079
MS.117         	13.233         	12.157
MS.118         	13.205         	12.109
MS.119         	13.177         	12.153
MS.120         	13.153         	12.105
MS.121         	13.125         	12.119
MS.122         	13.1           	12.137
MS.123         	13.072         	12.141
MS.124         	13.047         	12.069
MS.125         	13.023         	12.149
MS.126         	12.995         	12.123
MS.127         	12.97          	12.061
MS.128         	12.943         	12.18
MS.129         	12.917         	12.055
MS.130         	12.892         	12.055
MS.131         	12.865         	12.115
MS.132         	12.84          	12.087
MS.133         	12.815         	12.073
MS.134         	12.79          	12.037
MS.135         	12.762         	12.041
MS.136         	12.738         	12.023
MS.137         	12.712         	12.075
MS.138         	12.688         	12.027
MS.139         	12.662         	12.012
MS.140         	12.637         	12.061
MS.141         	12.61          	12.031
MS.142         	12.585         	12.053
MS.143         	12.56          	12
MS.144         	12.535         	11.96
MS.145         	12.51          	11.871
MS.146         	12.485         	12.01
MS.147         	12.46          	12.002
MS.148         	12.435         	11.845
MS.149         	12.41          	11.992
MS.150         	12.385         	12.008
MS.151         	12.363         	11.837
MS.152         	12.337         	11.827
MS.153         	12.312         	11.962
MS.154         	12.287         	11.946
MS.155         	12.262         	11.795
MS.156         	12.238         	11.785
MS.157         	12.215         	11.861
MS.158         	12.19          	11.718
MS.159         	12.165         	11.928
MS.160         	12.14          	11.734
MS.161         	12.117         	11.765
MS.162         	12.092         	11.755
MS.163         	12.068         	11.724
MS.164         	12.045         	11.72
MS.165         	12.02          	11.666
MS.166         	11.995         	11.616
MS.167         	11.972         	11.646
MS.168         	11.947         	11.656
MS.169         	11.925         	11.551
MS.170         	11.9           	11.533
MS.171         	11.877         	11.682
MS.172         	11.852         	11.587
MS.173         	11.83          	11.495
MS.174         	11.805         	11.585
MS.175         	11.782         	11.714
MS.176         	11.757         	11.527
MS.177         	11.735         	11.598
MS.178         	11.712         	11.44
MS.179         	11.688         	11.503
MS.180         	11.665         	11.505
MS.181         	11.642         	11.428
MS.182         	11.617         	11.463
MS.183         	11.595         	11.44
MS.184         	11.572         	11.473
MS.185         	11.55          	11.352
MS.186         	11.525         	11.382
MS.187         	11.502         	11.479
MS.188         	11.48          	11.269
MS.189         	11.457         	11.37
MS.190         	11.435         	11.448
MS.191         	11.41          	11.346
MS.192         	11.387         	11.235
MS.193         	11.365         	11.209
MS.194         	11.342         	11.247
MS.195         	11.32          	11.297
MS.196         	11.297         	11.305
MS.197         	11.275         	11.128
MS.198         	11.252         	11.16
MS.199         	11.23          	11.04
MS.200         	11.207         	11.066
MS.201         	11.185         	10.969
MS.202         	11.162         	11.098
MS.203         	11.14          	11.092
MS.204         	11.117         	11.046
MS.205         	11.095         	11.036
MS.206         	11.075         	10.995
MS.207         	11.052         	10.935
MS.208         	11.03          	10.858
MS.209         	11.007         	10.935
MS.210         	10.985         	10.911
MS.211         	10.962         	10.83
MS.212         	10.943         	10.822
MS.213         	10.92          	10.768
MS.214         	10.898         	10.675
MS.215         	10.877         	10.729
MS.216         	10.855         	10.891
MS.217         	10.832         	10.78
MS.218         	10.81          	10.794
MS.219         	10.79          	10.733
MS.220         	10.767         	10.627
MS.221         	10.747         	10.697
MS.222         	10.725         	10.399
MS.223         	10.702         	10.689
MS.224         	10.682         	10.55
MS.225         	10.66          	10.574
MS.226         	10.64          	10.335
MS.227         	10.617         	10.23
MS.228         	10.597         	10.258
MS.229         	10.575         	10.143
MS.230         	10.555         	10.155
MS.231         	10.535         	10.242
MS.232         	10.512         	10.012
MS.233         	10.492         	9.98
MS.234         	10.47          	10.274
MS.235         	10.45          	10.109
MS.236         	10.43          	10.159
MS.237         	10.407         	10.093
MS.238         	10.387         	9.96
MS.239         	10.367         	9.847
MS.240         	10.345         	9.777
MS.241         	10.325         	9.68
MS.242         	10.305         	9.908
MS.243         	10.285         	9.861
MS.244         	10.262         	9.797
MS.245         	10.242         	9.871
MS.246         	10.222         	9.815
MS.247         	10.202         	9.648
MS.248         	10.182         	9.68
MS.249         	10.162         	9.535
MS.250         	10.14          	9.618
MS.251         	10.12          	9.694
MS.252         	10.1           	9.64
MS.253         	10.08          	9.551
MS.254         	10.06          	9.4
MS.255         	10.04          	9.354
MS.256         	10.02          	9.328
MS.257         	10             	9.297
MS.258         	9.98           	9.144
MS.259         	9.96           	8.933
MS.260         	9.94           	9.034
MS.261         	9.92           	9.058
MS.262         	9.9            	8.895
MS.263         	9.88           	8.83
MS.264         	9.86           	9.056
MS.265         	9.842          	8.973
MS.266         	9.823          	8.78
MS.267         	9.802          	8.838
MS.268         	9.782          	8.651
MS.269         	9.762          	8.655
MS.270         	9.742          	8.592
MS.271         	9.725          	8.576
MS.272         	9.705          	8.701
MS.273         	9.685          	8.596
MS.274         	9.665          	8.717
MS.275         	9.648          	8.417
MS.276         	9.627          	8.461
MS.277         	9.608          	8.584
MS.278         	9.587          	8.451
MS.279         	9.57           	8.367
MS.280         	9.55           	8.29
MS.281         	9.532          	8.316
MS.282         	9.512          	8.405
MS.283         	9.492          	8.272
MS.284         	9.475          	8.157
MS.285         	9.455          	8.296
MS.286         	9.438          	8.256
MS.287         	9.417          	8.043
MS.288         	9.4            	8.167
MS.289         	9.38           	8.157
MS.290         	9.363          	7.906
MS.291         	9.342          	8.032
MS.292         	9.325          	8.022
MS.293         	9.305          	8.047
MS.294         	9.287          	8.073
MS.295         	9.267          	7.962
MS.296         	9.25           	8.03
MS.297         	9.23           	7.912
MS.298         	9.212          	7.869
MS.299         	9.195          	7.662
MS.300         	9.175          	7.773
MS.301         	9.158          	7.787
MS.302         	9.14           	7.622
MS.303         	9.12           	7.712
MS.304         	9.102          	7.618
MS.305         	9.085          	7.712
MS.306         	9.068          	7.622
MS.307         	9.047          	7.43
MS.308         	9.03           	7.323
MS.309         	9.012          	7.267
MS.310         	8.995          	7.11
MS.311         	8.977          	7.505
MS.312         	8.957          	7.436
MS.313         	8.94           	7.36
MS.314         	8.922          	7.114
MS.315         	8.905          	7.162
MS.316         	8.887          	7.078
MS.317         	8.87           	7.096
MS.318         	8.852          	7.112
MS.319         	8.835          	7.056
MS.320         	8.815          	6.917
MS.321         	8.797          	6.784
MS.322         	8.78           	6.985
MS.323         	8.762          	6.82
MS.324         	8.745          	7.094
MS.325         	8.727          	6.566
MS.326         	8.71           	6.57
MS.327         	8.693          	6.669
MS.328         	8.675          	6.532
MS.329         	8.66           	6.645
MS.330         	8.642          	6.697
MS.331         	8.625          	6.526
MS.332         	8.608          	6.5
MS.333         	8.59           	6.373
MS.334         	8.573          	6.383
MS.335         	8.555          	6.328
MS.336         	8.537          	6.443
MS.337         	8.523          	6.292
MS.338         	8.505          	6.198
MS.339         	8.488          	6.119
MS.340         	8.47           	6.167
MS.341         	8.452          	5.92
MS.342         	8.438          	5.934
MS.343         	8.42           	5.966
MS.344         	8.403          	5.64
MS.345         	8.385          	5.823
MS.346         	8.37           	5.718
MS.347         	8.352          	5.72
MS.348         	8.335          	5.593
MS.349         	8.32           	5.509
MS.350         	8.302          	5.64
MS.351         	8.285          	5.436
MS.352         	8.27           	5.344
MS.353         	8.252          	5.19
MS.354         	8.238          	5.336
MS.355         	8.22           	5.462
MS.356         	8.202          	5.408
MS.357         	8.188          	5.233
MS.358         	8.17           	5.313
MS.359         	8.155          	5.203
MS.360         	8.137          	5.1
MS.361         	8.122          	5.082
MS.362         	8.105          	4.925
MS.363         	8.09           	4.999
MS.364         	8.073          	4.878
MS.365         	8.057          	4.866
MS.366         	8.042          	4.757
MS.367         	8.025          	4.854
MS.368         	8.01           	4.753
MS.369         	7.992          	4.574
MS.370         	7.977          	4.761
MS.371         	7.96           	4.614
MS.372         	7.945          	4.659
MS.373         	7.93           	4.582
MS.374         	7.912          	4.675
MS.375         	7.898          	4.528
MS.376         	7.882          	4.423
MS.377         	7.867          	4.391
MS.378         	7.85           	4.336
MS.379         	7.835          	4.357
MS.380         	7.82           	4.357
MS.381         	7.802          	4.302
MS.382         	7.787          	4.175
MS.383         	7.773          	4.334
MS.384         	7.757          	4.24
MS.385         	7.742          	4.284
MS.386         	7.725          	4.224
MS.387         	7.71           	4.161
MS.388         	7.695          	4.077
MS.389         	7.68           	4.103
MS.390         	7.665          	4.059
MS.391         	7.65           	4.026
MS.392         	7.635          	4.022
MS.393         	7.617          	4.083
MS.394         	7.602          	3.97
MS.395         	7.587          	3.934
MS.396         	7.572          	4.065
MS.397         	7.557          	3.869
MS.398         	7.543          	3.92
MS.399         	7.527          	3.742
MS.400         	7.512          	3.924
MS.401         	7.497          	3.811
MS.402         	7.482          	3.529
MS.403         	7.467          	3.686
MS.404         	7.452          	3.575
MS.405         	7.438          	3.509
MS.406         	7.422          	3.434
MS.407         	7.407          	3.41
MS.408         	7.392          	3.621
MS.409         	7.378          	3.368
MS.410         	7.365          	3.452
MS.411         	7.35           	3.309
MS.412         	7.335          	3.533
MS.413         	7.32           	3.319
MS.414         	7.305          	3.235
MS.415         	7.29           	3.285
MS.416         	7.275          	3.18
MS.417         	7.262          	3.225
MS.418         	7.247          	3.146
MS.419         	7.233          	3.166
MS.420         	7.217          	3.192
MS.421         	7.202          	3.19
MS.422         	7.19           	3.207
MS.423         	7.175          	3.132
MS.424         	7.16           	3.057
MS.425         	7.145          	3.088
MS.426         	7.132          	3.053
MS.427         	7.117          	3.037
MS.428         	7.102          	3.041
MS.429         	7.09           	2.906
MS.430         	7.075          	3.031
MS.431         	7.06           	3.007
MS.432         	7.047          	2.989
MS.433         	7.032          	2.989
MS.434         	7.017          	2.977
MS.435         	7.005          	2.943
MS.436         	6.99           	2.898
MS.437         	6.977          	2.981
MS.438         	6.962          	2.89
MS.439         	6.95           	2.856
MS.440         	6.935          	2.852
MS.441         	6.92           	2.828
MS.442         	6.907          	2.771
MS.443         	6.892          	2.81
MS.444         	6.88           	2.786
MS.445         	6.865          	2.633
MS.446         	6.852          	2.826
MS.447         	6.837          	2.828
MS.448         	6.825          	2.846
MS.449         	6.812          	2.745
MS.450         	6.797          	2.508
MS.451         	6.785          	2.548
MS.452         	6.77           	2.502
MS.453         	6.757          	2.655
MS.454         	6.742          	2.657
MS.455         	6.73           	2.566
MS.456         	6.717          	2.439
MS.457         	6.702          	2.443
MS.458         	6.69           	2.512
MS.459         	6.677          	2.411
MS.460         	6.662          	2.395
MS.461         	6.65           	2.453
MS.462         	6.637          	2.55
MS.463         	6.622          	2.441
MS.464         	6.61           	2.282
MS.465         	6.597          	2.278
MS.466         	6.582          	2.361
MS.467         	6.57           	2.367
MS.468         	6.557          	2.383
MS.469         	6.545          	2.242
MS.470         	6.53           	2.419
MS.471         	6.517          	2.264
MS.472         	6.505          	2.342
MS.473         	6.492          	2.28
MS.474         	6.48           	2.28
MS.475         	6.465          	2.258
MS.476         	6.452          	2.326
MS.477         	6.44           	2.163
MS.478         	6.427          	2.27
MS.479         	6.415          	2.338
MS.480         	6.402          	2.206
MS.481         	6.39           	2.147
MS.482         	6.378          	2.262
MS.483         	6.362          	2.185
MS.484         	6.35           	2.141
MS.485         	6.338          	2.119
MS.486         	6.325          	2.199
MS.487         	6.312          	2.125
MS.488         	6.3            	2.171
MS.489         	6.287          	2.103
MS.490         	6.275          	2.115
MS.491         	6.262          	2.079
MS.492         	6.25           	2.056
MS.493         	6.237          	2.121
MS.494         	6.225          	2.054
