File:              	C:\Qtrac\Data\Daniel M Sørensen\MScan multicentre study\Data from centres\Oslo\Processed data\SZC00619A (2).QZD
Name:              	NO.OSL.NC.17.2
Protocol:          	MSCAN-R2
Date:              	19/6/20
Start time:        	12:59:05
Age:               	52
Sex:               	F
Temperature:       	35.1
S/R sites:         	APB
NC/disease:        	NC17
Operator:          	SZ
Comments:          	Test2
M-SCAN DATA (8.5-3.2m)
Scanpts: 103, 114, 480, 496
Stim. (mA)     	Amp. (mV)
MS.1           	13             	9.65
MS.2           	13             	9.634
MS.3           	13             	9.648
MS.4           	13             	9.626
MS.5           	13             	9.624
MS.6           	13             	9.634
MS.7           	13             	9.632
MS.8           	13             	9.63
MS.9           	13             	9.624
MS.10          	13             	9.642
MS.11          	13             	9.634
MS.12          	13             	9.652
MS.13          	13             	9.64
MS.14          	13             	9.63
MS.15          	13             	9.636
MS.16          	13             	9.63
MS.17          	13             	9.648
MS.18          	13             	9.648
MS.19          	13             	9.636
MS.20          	13             	9.646
MS.21          	13             	9.654
MS.22          	13             	9.654
MS.23          	13             	9.606
MS.24          	12.947         	9.656
MS.25          	12.922         	9.64
MS.26          	12.898         	9.628
MS.27          	12.87          	9.622
MS.28          	12.845         	9.63
MS.29          	12.82          	9.63
MS.30          	12.792         	9.632
MS.31          	12.767         	9.634
MS.32          	12.742         	9.628
MS.33          	12.717         	9.652
MS.34          	12.693         	9.634
MS.35          	12.667         	9.638
MS.36          	12.64          	9.632
MS.37          	12.615         	9.628
MS.38          	12.59          	9.628
MS.39          	12.565         	9.634
MS.40          	12.54          	9.652
MS.41          	12.515         	9.646
MS.42          	12.49          	9.662
MS.43          	12.465         	9.644
MS.44          	12.44          	9.626
MS.45          	12.415         	9.638
MS.46          	12.39          	9.668
MS.47          	12.365         	9.67
MS.48          	12.34          	9.702
MS.49          	12.318         	9.698
MS.50          	12.292         	9.682
MS.51          	12.267         	9.678
MS.52          	12.242         	9.63
MS.53          	12.217         	9.708
MS.54          	12.195         	9.692
MS.55          	12.17          	9.626
MS.56          	12.145         	9.654
MS.57          	12.12          	9.684
MS.58          	12.097         	9.612
MS.59          	12.072         	9.704
MS.60          	12.047         	9.708
MS.61          	12.025         	9.698
MS.62          	12             	9.704
MS.63          	11.977         	9.732
MS.64          	11.952         	9.694
MS.65          	11.927         	9.706
MS.66          	11.905         	9.755
MS.67          	11.88          	9.74
MS.68          	11.858         	9.704
MS.69          	11.832         	9.749
MS.70          	11.81          	9.72
MS.71          	11.787         	9.698
MS.72          	11.762         	9.706
MS.73          	11.74          	9.694
MS.74          	11.715         	9.712
MS.75          	11.693         	9.712
MS.76          	11.67          	9.722
MS.77          	11.645         	9.67
MS.78          	11.622         	9.684
MS.79          	11.6           	9.672
MS.80          	11.575         	9.666
MS.81          	11.552         	9.66
MS.82          	11.53          	9.66
MS.83          	11.507         	9.658
MS.84          	11.485         	9.724
MS.85          	11.46          	9.73
MS.86          	11.438         	9.716
MS.87          	11.415         	9.716
MS.88          	11.392         	9.69
MS.89          	11.37          	9.688
MS.90          	11.347         	9.714
MS.91          	11.325         	9.724
MS.92          	11.302         	9.69
MS.93          	11.28          	9.714
MS.94          	11.257         	9.648
MS.95          	11.235         	9.704
MS.96          	11.212         	9.72
MS.97          	11.19          	9.595
MS.98          	11.167         	9.72
MS.99          	11.145         	9.728
MS.100         	11.122         	9.72
MS.101         	11.1           	9.73
MS.102         	11.077         	9.694
MS.103         	11.055         	9.712
MS.104         	11.032         	9.688
MS.105         	11.012         	9.724
MS.106         	10.99          	9.712
MS.107         	10.967         	9.692
MS.108         	10.945         	9.712
MS.109         	10.925         	9.722
MS.110         	10.903         	9.738
MS.111         	10.88          	9.751
MS.112         	10.858         	9.688
MS.113         	10.837         	9.708
MS.114         	10.815         	9.694
MS.115         	10.792         	9.716
MS.116         	10.773         	9.761
MS.117         	10.75          	9.783
MS.118         	10.73          	9.773
MS.119         	10.707         	9.722
MS.120         	10.685         	9.736
MS.121         	10.665         	9.728
MS.122         	10.642         	9.767
MS.123         	10.622         	9.722
MS.124         	10.6           	9.259
MS.125         	10.58          	9.16
MS.126         	10.557         	9.273
MS.127         	10.537         	9.724
MS.128         	10.517         	9.728
MS.129         	10.495         	9.197
MS.130         	10.475         	9.71
MS.131         	10.452         	9.299
MS.132         	10.432         	9.767
MS.133         	10.412         	9.283
MS.134         	10.39          	9.269
MS.135         	10.37          	9.259
MS.136         	10.35          	9.225
MS.137         	10.33          	9.219
MS.138         	10.307         	9.716
MS.139         	10.287         	9.191
MS.140         	10.267         	9.263
MS.141         	10.247         	9.253
MS.142         	10.225         	9.233
MS.143         	10.205         	9.213
MS.144         	10.185         	9.253
MS.145         	10.165         	9.287
MS.146         	10.145         	9.259
MS.147         	10.125         	9.295
MS.148         	10.105         	9.684
MS.149         	10.085         	9.245
MS.150         	10.065         	9.217
MS.151         	10.042         	9.219
MS.152         	10.023         	9.219
MS.153         	10.002         	9.235
MS.154         	9.983          	9.257
MS.155         	9.962          	9.269
MS.156         	9.945          	9.14
MS.157         	9.925          	9.271
MS.158         	9.905          	9.17
MS.159         	9.885          	9.215
MS.160         	9.865          	9.253
MS.161         	9.845          	9.253
MS.162         	9.825          	9.247
MS.163         	9.805          	9.277
MS.164         	9.785          	9.245
MS.165         	9.767          	9.249
MS.166         	9.747          	9.239
MS.167         	9.727          	9.283
MS.168         	9.707          	9.255
MS.169         	9.688          	9.235
MS.170         	9.67           	9.255
MS.171         	9.65           	9.243
MS.172         	9.63           	9.277
MS.173         	9.613          	9.213
MS.174         	9.592          	9.209
MS.175         	9.573          	9.177
MS.176         	9.555          	9.247
MS.177         	9.535          	9.197
MS.178         	9.515          	9.235
MS.179         	9.497          	9.209
MS.180         	9.477          	9.213
MS.181         	9.46           	8.893
MS.182         	9.44           	9.237
MS.183         	9.42           	9.231
MS.184         	9.403          	8.903
MS.185         	9.382          	9.179
MS.186         	9.365          	9.203
MS.187         	9.345          	9.183
MS.188         	9.327          	8.403
MS.189         	9.307          	8.915
MS.190         	9.29           	8.933
MS.191         	9.273          	8.923
MS.192         	9.252          	8.949
MS.193         	9.235          	8.963
MS.194         	9.215          	9.193
MS.195         	9.198          	8.985
MS.196         	9.18           	9.279
MS.197         	9.16           	8.464
MS.198         	9.142          	8.88
MS.199         	9.125          	8.464
MS.200         	9.105          	8.461
MS.201         	9.087          	8.927
MS.202         	9.07           	8.933
MS.203         	9.052          	8.925
MS.204         	9.033          	8.445
MS.205         	9.015          	8.389
MS.206         	8.997          	8.461
MS.207         	8.98           	8.468
MS.208         	8.962          	8.478
MS.209         	8.943          	8.502
MS.210         	8.925          	8.476
MS.211         	8.908          	8.441
MS.212         	8.89           	8.441
MS.213         	8.872          	8.478
MS.214         	8.855          	8.437
MS.215         	8.837          	8.447
MS.216         	8.82           	8.476
MS.217         	8.802          	8.419
MS.218         	8.785          	8.399
MS.219         	8.767          	8.371
MS.220         	8.75           	8.439
MS.221         	8.733          	8.425
MS.222         	8.715          	8.405
MS.223         	8.698          	8.433
MS.224         	8.68           	8.353
MS.225         	8.662          	8.377
MS.226         	8.645          	8.359
MS.227         	8.627          	8.359
MS.228         	8.61           	8.359
MS.229         	8.592          	8.32
MS.230         	8.575          	8.302
MS.231         	8.557          	8.318
MS.232         	8.542          	8.365
MS.233         	8.525          	8.274
MS.234         	8.507          	8.302
MS.235         	8.49           	8.335
MS.236         	8.472          	8.093
MS.237         	8.457          	8.256
MS.238         	8.44           	8.28
MS.239         	8.422          	8.31
MS.240         	8.405          	8.101
MS.241         	8.39           	8.306
MS.242         	8.372          	8.29
MS.243         	8.355          	8.111
MS.244         	8.34           	8.085
MS.245         	8.323          	8.079
MS.246         	8.305          	8.119
MS.247         	8.29           	8.218
MS.248         	8.273          	8.111
MS.249         	8.255          	8.087
MS.250         	8.24           	8.069
MS.251         	8.222          	8.047
MS.252         	8.207          	7.98
MS.253         	8.19           	8.075
MS.254         	8.175          	8.051
MS.255         	8.158          	8.063
MS.256         	8.142          	7.938
MS.257         	8.125          	8
MS.258         	8.11           	7.914
MS.259         	8.092          	8.067
MS.260         	8.077          	7.992
MS.261         	8.06           	7.984
MS.262         	8.045          	8.014
MS.263         	8.028          	7.904
MS.264         	8.012          	7.922
MS.265         	7.995          	7.946
MS.266         	7.98           	7.632
MS.267         	7.965          	7.529
MS.268         	7.947          	7.652
MS.269         	7.932          	7.918
MS.270         	7.918          	7.871
MS.271         	7.9            	7.338
MS.272         	7.885          	7.424
MS.273         	7.87           	7.775
MS.274         	7.852          	7.827
MS.275         	7.837          	7.839
MS.276         	7.822          	7.815
MS.277         	7.807          	6.977
MS.278         	7.79           	6.81
MS.279         	7.775          	7.261
MS.280         	7.76           	6.794
MS.281         	7.745          	6.749
MS.282         	7.727          	6.896
MS.283         	7.712          	6.492
MS.284         	7.697          	6.892
MS.285         	7.682          	6.623
MS.286         	7.668          	6.619
MS.287         	7.652          	6.574
MS.288         	7.637          	6.478
MS.289         	7.622          	6.427
MS.290         	7.605          	6.286
MS.291         	7.59           	6.21
MS.292         	7.575          	6.262
MS.293         	7.56           	6.314
MS.294         	7.545          	5.922
MS.295         	7.53           	6.169
MS.296         	7.515          	6.165
MS.297         	7.5            	5.765
MS.298         	7.485          	6.262
MS.299         	7.47           	6.053
MS.300         	7.455          	5.97
MS.301         	7.44           	6.208
MS.302         	7.425          	5.682
MS.303         	7.41           	6.042
MS.304         	7.395          	5.626
MS.305         	7.382          	5.344
MS.306         	7.367          	5.597
MS.307         	7.352          	5.513
MS.308         	7.337          	5.573
MS.309         	7.322          	4.917
MS.310         	7.307          	5.432
MS.311         	7.293          	5.352
MS.312         	7.277          	5.08
MS.313         	7.265          	5.013
MS.314         	7.25           	4.844
MS.315         	7.235          	5.221
MS.316         	7.22           	4.578
MS.317         	7.205          	4.5
MS.318         	7.192          	4.322
MS.319         	7.177          	4.556
MS.320         	7.162          	4.345
MS.321         	7.15           	4.625
MS.322         	7.135          	4.375
MS.323         	7.12           	4.238
MS.324         	7.105          	4.391
MS.325         	7.092          	4.139
MS.326         	7.077          	4.214
MS.327         	7.062          	4
MS.328         	7.05           	3.964
MS.329         	7.035          	3.789
MS.330         	7.023          	4.075
MS.331         	7.007          	3.827
MS.332         	6.992          	4.149
MS.333         	6.98           	3.986
MS.334         	6.965          	3.356
MS.335         	6.952          	3.448
MS.336         	6.938          	3.686
MS.337         	6.922          	3.186
MS.338         	6.91           	3.142
MS.339         	6.895          	3.259
MS.340         	6.882          	3.142
MS.341         	6.867          	3.098
MS.342         	6.855          	3.013
MS.343         	6.84           	3.043
MS.344         	6.827          	3.215
MS.345         	6.815          	2.933
MS.346         	6.8            	3.096
MS.347         	6.787          	2.991
MS.348         	6.773          	2.949
MS.349         	6.76           	3.074
MS.350         	6.745          	3.12
MS.351         	6.733          	3.068
MS.352         	6.72           	2.902
MS.353         	6.705          	2.888
MS.354         	6.692          	2.467
MS.355         	6.68           	2.788
MS.356         	6.665          	2.361
MS.357         	6.652          	2.367
MS.358         	6.64           	2.111
MS.359         	6.625          	2.649
MS.360         	6.612          	2.57
MS.361         	6.6            	2.429
MS.362         	6.585          	2.461
MS.363         	6.572          	2.461
MS.364         	6.56           	2.492
MS.365         	6.547          	2.073
MS.366         	6.532          	2.054
MS.367         	6.52           	1.706
MS.368         	6.507          	2.038
MS.369         	6.495          	2.475
MS.370         	6.483          	1.837
MS.371         	6.467          	2.435
MS.372         	6.455          	1.527
MS.373         	6.442          	1.718
MS.374         	6.43           	1.869
MS.375         	6.418          	1.517
MS.376         	6.405          	1.722
MS.377         	6.392          	1.47
MS.378         	6.378          	1.384
MS.379         	6.365          	1.509
MS.380         	6.352          	1.36
MS.381         	6.34           	1.315
MS.382         	6.327          	1.378
MS.383         	6.315          	1.208
MS.384         	6.302          	1.376
MS.385         	6.29           	1.376
MS.386         	6.277          	1.388
MS.387         	6.265          	1.307
MS.388         	6.253          	1.096
MS.389         	6.24           	1.192
MS.390         	6.227          	1.19
MS.391         	6.215          	1.138
MS.392         	6.202          	1.235
MS.393         	6.19           	1.088
MS.394         	6.177          	0.844
MS.395         	6.165          	1.084
MS.396         	6.152          	1.134
MS.397         	6.14           	1.084
MS.398         	6.128          	0.894
MS.399         	6.115          	0.84
MS.400         	6.105          	0.886
MS.401         	6.092          	0.898
MS.402         	6.08           	0.765
MS.403         	6.067          	0.886
MS.404         	6.055          	0.727
MS.405         	6.043          	0.872
MS.406         	6.03           	0.864
MS.407         	6.02           	0.812
MS.408         	6.007          	0.594
MS.409         	5.995          	0.697
MS.410         	5.983          	0.518
MS.411         	5.97           	0.85
MS.412         	5.96           	0.487
MS.413         	5.947          	0.487
MS.414         	5.935          	0.419
MS.415         	5.922          	0.669
MS.416         	5.912          	0.439
MS.417         	5.9            	0.578
MS.418         	5.887          	0.495
MS.419         	5.878          	0.485
MS.420         	5.865          	0.397
MS.421         	5.852          	0.399
MS.422         	5.842          	0.403
MS.423         	5.83           	0.395
MS.424         	5.817          	0.332
MS.425         	5.807          	0.411
MS.426         	5.795          	0.322
MS.427         	5.782          	0.385
MS.428         	5.773          	0.403
MS.429         	5.76           	0.391
MS.430         	5.747          	0.302
MS.431         	5.737          	0.318
MS.432         	5.725          	0.32
MS.433         	5.715          	0.318
MS.434         	5.702          	0.322
MS.435         	5.692          	0.324
MS.436         	5.68           	0.286
MS.437         	5.668          	0.308
MS.438         	5.657          	0.296
MS.439         	5.645          	0.29
MS.440         	5.635          	0.292
MS.441         	5.622          	0.286
MS.442         	5.612          	0.288
MS.443         	5.6            	0.312
MS.444         	5.59           	0.314
MS.445         	5.577          	0.288
MS.446         	5.567          	0.232
MS.447         	5.557          	0.29
MS.448         	5.545          	0.145
MS.449         	5.535          	0.228
MS.450         	5.523          	0.232
MS.451         	5.512          	0.294
MS.452         	5.5            	0.147
MS.453         	5.49           	0.153
MS.454         	5.48           	0.145
MS.455         	5.467          	0.077
MS.456         	5.457          	0.218
MS.457         	5.447          	0.081
MS.458         	5.435          	0.137
MS.459         	5.425          	0.079
MS.460         	5.415          	0.141
MS.461         	5.402          	0.075
MS.462         	5.392          	0.133
MS.463         	5.382          	0.07
MS.464         	5.37           	0.075
MS.465         	5.36           	0.079
MS.466         	5.35           	0.075
MS.467         	5.338          	0.07
MS.468         	5.327          	0.075
MS.469         	5.318          	0.135
MS.470         	5.307          	0.068
MS.471         	5.295          	0.075
MS.472         	5.285          	0.068
MS.473         	5.275          	0.075
MS.474         	5.265          	0.062
MS.475         	5.255          	0.06
MS.476         	5.242          	0.066
MS.477         	5.233          	0.068
MS.478         	5.222          	0.066
MS.479         	5.213          	0.077
MS.480         	5.202          	0.064
MS.481         	5.19           	0.058
MS.482         	5.18           	0.066
MS.483         	5.17           	0.062
MS.484         	5.16           	0.066
MS.485         	5.15           	0.064
MS.486         	5.14           	0.062
MS.487         	5.13           	0.077
MS.488         	5.12           	0.066
MS.489         	5.108          	0.062
MS.490         	5.097          	0.068
MS.491         	5.088          	0.06
MS.492         	5.077          	0.07
MS.493         	5.068          	0.064
MS.494         	5.057          	0.068
MS.495         	5.047          	0.07
MS.496         	5.037          	0.068
MS.497         	5.027          	0.068
MS.498         	5.017          	0.068
MS.499         	5.007          	0.068
MS.500         	4.997          	0.07
MS.501         	4.987          	0.064
