File:              	C:\Qtrac\Data\Daniel M Sørensen\MScan multicentre study\Data from centres\Oslo\Processed data\SZC00604G.QZD
Name:              	NO.OSL.NC.13.2
Protocol:          	MSCAN-R2
Date:              	4/6/20
Start time:        	17:41:48
Age:               	33
Sex:               	M
Temperature:       	31.8
S/R sites:         	TA
NC/disease:        	NC13
Operator:          	SZ
Comments:          	Test2
M-SCAN DATA (14.2-6.1m)
Scanpts: 22, 32, 833, 854
Stim. (mA)     	Amp. (mV)
MS.1           	41.5           	9.001
MS.2           	41.5           	9.007
MS.3           	41.5           	8.979
MS.4           	41.5           	8.979
MS.5           	41.5           	8.893
MS.6           	41.5           	8.909
MS.7           	41.5           	8.772
MS.8           	41.5           	8.939
MS.9           	41.5           	8.923
MS.10          	41.5           	8.965
MS.11          	41.5           	8.884
MS.12          	41.5           	8.903
MS.13          	41.5           	8.798
MS.14          	41.5           	8.931
MS.15          	41.5           	8.947
MS.16          	41.5           	8.822
MS.17          	41.5           	8.897
MS.18          	41.5           	8.967
MS.19          	41.5           	8.963
MS.20          	41.5           	8.983
MS.21          	41.5           	8.941
MS.22          	41.5           	8.866
MS.23          	41.5           	8.935
MS.24          	41.252         	8.731
MS.25          	41.17          	8.814
MS.26          	41.087         	8.838
MS.27          	41.005         	8.876
MS.28          	40.923         	8.941
MS.29          	40.84          	8.814
MS.30          	40.76          	8.921
MS.31          	40.677         	8.876
MS.32          	40.597         	8.776
MS.33          	40.515         	8.782
MS.34          	40.435         	8.893
MS.35          	40.355         	8.923
MS.36          	40.272         	8.8
MS.37          	40.192         	8.909
MS.38          	40.112         	8.951
MS.39          	40.032         	8.83
MS.40          	39.952         	8.921
MS.41          	39.872         	8.812
MS.42          	39.792         	8.882
MS.43          	39.712         	8.82
MS.44          	39.635         	8.874
MS.45          	39.555         	8.844
MS.46          	39.475         	8.87
MS.47          	39.397         	8.834
MS.48          	39.317         	8.81
MS.49          	39.24          	8.943
MS.50          	39.162         	8.929
MS.51          	39.083         	8.846
MS.52          	39.005         	8.935
MS.53          	38.927         	8.963
MS.54          	38.85          	8.886
MS.55          	38.772         	8.951
MS.56          	38.695         	8.848
MS.57          	38.618         	8.878
MS.58          	38.54          	8.812
MS.59          	38.462         	8.85
MS.60          	38.385         	8.798
MS.61          	38.31          	8.832
MS.62          	38.232         	8.832
MS.63          	38.155         	8.784
MS.64          	38.08          	8.818
MS.65          	38.005         	8.848
MS.66          	37.927         	8.826
MS.67          	37.853         	8.782
MS.68          	37.778         	8.758
MS.69          	37.7           	8.77
MS.70          	37.625         	8.78
MS.71          	37.55          	8.834
MS.72          	37.475         	8.85
MS.73          	37.4           	8.786
MS.74          	37.325         	8.697
MS.75          	37.252         	8.727
MS.76          	37.177         	8.804
MS.77          	37.103         	8.8
MS.78          	37.028         	8.727
MS.79          	36.955         	8.782
MS.80          	36.88          	8.651
MS.81          	36.807         	8.721
MS.82          	36.732         	8.621
MS.83          	36.66          	8.697
MS.84          	36.587         	8.629
MS.85          	36.515         	8.592
MS.86          	36.44          	8.659
MS.87          	36.368         	8.611
MS.88          	36.295         	8.715
MS.89          	36.222         	8.677
MS.90          	36.15          	8.49
MS.91          	36.077         	8.59
MS.92          	36.005         	8.544
MS.93          	35.935         	8.474
MS.94          	35.862         	8.546
MS.95          	35.79          	8.49
MS.96          	35.72          	8.461
MS.97          	35.647         	8.59
MS.98          	35.577         	8.496
MS.99          	35.505         	8.502
MS.100         	35.435         	8.431
MS.101         	35.365         	8.5
MS.102         	35.292         	8.518
MS.103         	35.222         	8.314
MS.104         	35.153         	8.31
MS.105         	35.083         	8.345
MS.106         	35.013         	8.439
MS.107         	34.943         	8.347
MS.108         	34.872         	8.349
MS.109         	34.802         	8.298
MS.110         	34.732         	8.415
MS.111         	34.662         	8.256
MS.112         	34.595         	8.278
MS.113         	34.525         	8.182
MS.114         	34.455         	8.236
MS.115         	34.388         	8.119
MS.116         	34.318         	8.111
MS.117         	34.25          	8.161
MS.118         	34.182         	8.139
MS.119         	34.112         	8.095
MS.120         	34.045         	8.041
MS.121         	33.978         	7.972
MS.122         	33.91          	8.081
MS.123         	33.842         	8.053
MS.124         	33.775         	7.964
MS.125         	33.708         	8.022
MS.126         	33.64          	8.026
MS.127         	33.572         	7.869
MS.128         	33.505         	7.883
MS.129         	33.438         	7.847
MS.130         	33.37          	7.845
MS.131         	33.305         	7.879
MS.132         	33.237         	7.837
MS.133         	33.173         	7.857
MS.134         	33.105         	7.781
MS.135         	33.04          	7.785
MS.136         	32.972         	7.825
MS.137         	32.907         	7.783
MS.138         	32.842         	7.75
MS.139         	32.775         	7.787
MS.140         	32.71          	7.75
MS.141         	32.645         	7.632
MS.142         	32.58          	7.736
MS.143         	32.515         	7.72
MS.144         	32.45          	7.69
MS.145         	32.385         	7.547
MS.146         	32.32          	7.726
MS.147         	32.255         	7.656
MS.148         	32.19          	7.652
MS.149         	32.127         	7.597
MS.150         	32.062         	7.559
MS.151         	31.997         	7.616
MS.152         	31.935         	7.599
MS.153         	31.87          	7.612
MS.154         	31.807         	7.573
MS.155         	31.742         	7.581
MS.156         	31.68          	7.537
MS.157         	31.617         	7.513
MS.158         	31.552         	7.396
MS.159         	31.49          	7.497
MS.160         	31.427         	7.485
MS.161         	31.365         	7.471
MS.162         	31.302         	7.523
MS.163         	31.24          	7.489
MS.164         	31.177         	7.356
MS.165         	31.115         	7.436
MS.166         	31.052         	7.426
MS.167         	30.99          	7.396
MS.168         	30.93          	7.354
MS.169         	30.867         	7.36
MS.170         	30.805         	7.317
MS.171         	30.745         	7.378
MS.172         	30.682         	7.299
MS.173         	30.62          	7.336
MS.174         	30.56          	7.303
MS.175         	30.5           	7.35
MS.176         	30.438         	7.166
MS.177         	30.377         	7.247
MS.178         	30.317         	7.251
MS.179         	30.255         	7.172
MS.180         	30.195         	7.217
MS.181         	30.135         	7.189
MS.182         	30.075         	7.178
MS.183         	30.015         	7.182
MS.184         	29.955         	7.156
MS.185         	29.895         	7.166
MS.186         	29.835         	7.054
MS.187         	29.775         	6.969
MS.188         	29.715         	6.923
MS.189         	29.657         	6.79
MS.190         	29.597         	6.957
MS.191         	29.537         	6.81
MS.192         	29.48          	6.888
MS.193         	29.42          	6.973
MS.194         	29.362         	6.886
MS.195         	29.302         	6.737
MS.196         	29.245         	6.872
MS.197         	29.185         	6.54
MS.198         	29.127         	6.84
MS.199         	29.07          	6.56
MS.200         	29.012         	6.576
MS.201         	28.952         	6.562
MS.202         	28.895         	6.385
MS.203         	28.837         	6.478
MS.204         	28.78          	6.385
MS.205         	28.722         	6.427
MS.206         	28.665         	6.413
MS.207         	28.608         	6.367
MS.208         	28.55          	6.355
MS.209         	28.495         	6.383
MS.210         	28.438         	6.578
MS.211         	28.38          	6.079
MS.212         	28.323         	6.192
MS.213         	28.267         	6.224
MS.214         	28.21          	6.123
MS.215         	28.155         	6.075
MS.216         	28.097         	6.137
MS.217         	28.042         	6.022
MS.218         	27.985         	6.024
MS.219         	27.93          	6.171
MS.220         	27.875         	5.811
MS.221         	27.817         	5.906
MS.222         	27.762         	5.891
MS.223         	27.707         	5.763
MS.224         	27.653         	5.636
MS.225         	27.597         	5.767
MS.226         	27.542         	5.69
MS.227         	27.487         	5.692
MS.228         	27.432         	5.756
MS.229         	27.377         	5.722
MS.230         	27.323         	5.537
MS.231         	27.267         	5.634
MS.232         	27.212         	5.593
MS.233         	27.157         	5.549
MS.234         	27.105         	5.537
MS.235         	27.05          	5.515
MS.236         	26.995         	5.529
MS.237         	26.942         	5.541
MS.238         	26.887         	5.503
MS.239         	26.835         	5.468
MS.240         	26.78          	5.462
MS.241         	26.727         	5.434
MS.242         	26.675         	5.4
MS.243         	26.62          	5.426
MS.244         	26.567         	5.394
MS.245         	26.515         	5.4
MS.246         	26.462         	5.416
MS.247         	26.407         	5.354
MS.248         	26.355         	5.376
MS.249         	26.302         	5.372
MS.250         	26.25          	5.404
MS.251         	26.198         	5.374
MS.252         	26.145         	5.317
MS.253         	26.092         	5.352
MS.254         	26.042         	5.253
MS.255         	25.99          	5.307
MS.256         	25.938         	5.064
MS.257         	25.885         	5.247
MS.258         	25.835         	5.255
MS.259         	25.782         	5.251
MS.260         	25.73          	5.239
MS.261         	25.68          	5.14
MS.262         	25.627         	5.078
MS.263         	25.577         	5.174
MS.264         	25.525         	4.949
MS.265         	25.475         	5.17
MS.266         	25.425         	5.142
MS.267         	25.372         	4.961
MS.268         	25.323         	5.066
MS.269         	25.272         	4.935
MS.270         	25.222         	4.715
MS.271         	25.17          	4.832
MS.272         	25.12          	4.745
MS.273         	25.07          	4.729
MS.274         	25.02          	4.538
MS.275         	24.97          	4.776
MS.276         	24.92          	4.894
MS.277         	24.87          	4.659
MS.278         	24.82          	4.612
MS.279         	24.772         	4.625
MS.280         	24.722         	4.645
MS.281         	24.672         	4.564
MS.282         	24.622         	4.62
MS.283         	24.575         	4.622
MS.284         	24.525         	4.268
MS.285         	24.475         	4.395
MS.286         	24.427         	4.465
MS.287         	24.377         	4.429
MS.288         	24.33          	4.298
MS.289         	24.28          	4.294
MS.290         	24.233         	4.169
MS.291         	24.185         	4.365
MS.292         	24.135         	4.169
MS.293         	24.087         	4.165
MS.294         	24.04          	4.193
MS.295         	23.993         	4.363
MS.296         	23.942         	4.332
MS.297         	23.895         	4.367
MS.298         	23.847         	4.135
MS.299         	23.8           	4.121
MS.300         	23.752         	4.302
MS.301         	23.705         	4.024
MS.302         	23.657         	4.145
MS.303         	23.61          	4.091
MS.304         	23.562         	4.129
MS.305         	23.515         	4.125
MS.306         	23.47          	3.988
MS.307         	23.422         	4.004
MS.308         	23.375         	3.909
MS.309         	23.33          	3.99
MS.310         	23.282         	3.893
MS.311         	23.235         	3.809
MS.312         	23.19          	3.865
MS.313         	23.142         	3.861
MS.314         	23.097         	3.879
MS.315         	23.05          	3.946
MS.316         	23.005         	3.787
MS.317         	22.957         	3.801
MS.318         	22.913         	3.805
MS.319         	22.868         	3.758
MS.320         	22.82          	3.789
MS.321         	22.775         	3.752
MS.322         	22.73          	3.849
MS.323         	22.685         	3.781
MS.324         	22.64          	3.652
MS.325         	22.595         	3.746
MS.326         	22.55          	3.547
MS.327         	22.505         	3.744
MS.328         	22.46          	3.644
MS.329         	22.415         	3.652
MS.330         	22.37          	3.658
MS.331         	22.325         	3.634
MS.332         	22.28          	3.688
MS.333         	22.235         	3.7
MS.334         	22.19          	3.575
MS.335         	22.147         	3.619
MS.336         	22.102         	3.625
MS.337         	22.057         	3.636
MS.338         	22.015         	3.589
MS.339         	21.97          	3.609
MS.340         	21.927         	3.617
MS.341         	21.882         	3.454
MS.342         	21.84          	3.472
MS.343         	21.795         	3.521
MS.344         	21.752         	3.484
MS.345         	21.708         	3.491
MS.346         	21.665         	3.501
MS.347         	21.622         	3.394
MS.348         	21.577         	3.402
MS.349         	21.535         	3.394
MS.350         	21.493         	3.468
MS.351         	21.45          	3.335
MS.352         	21.407         	3.352
MS.353         	21.362         	3.416
MS.354         	21.32          	3.42
MS.355         	21.278         	3.283
MS.356         	21.235         	3.384
MS.357         	21.192         	3.309
MS.358         	21.15          	3.259
MS.359         	21.11          	3.295
MS.360         	21.067         	3.317
MS.361         	21.025         	3.253
MS.362         	20.983         	3.267
MS.363         	20.94          	3.317
MS.364         	20.9           	3.249
MS.365         	20.858         	3.221
MS.366         	20.815         	3.285
MS.367         	20.772         	3.261
MS.368         	20.733         	3.223
MS.369         	20.69          	3.223
MS.370         	20.65          	3.215
MS.371         	20.608         	3.225
MS.372         	20.567         	3.221
MS.373         	20.525         	3.205
MS.374         	20.485         	3.19
MS.375         	20.445         	3.19
MS.376         	20.403         	3.221
MS.377         	20.362         	3.188
MS.378         	20.323         	3.211
MS.379         	20.28          	3.186
MS.380         	20.24          	3.211
MS.381         	20.2           	3.192
MS.382         	20.16          	3.239
MS.383         	20.12          	3.188
MS.384         	20.08          	3.176
MS.385         	20.04          	3.209
MS.386         	20             	3.198
MS.387         	19.96          	3.174
MS.388         	19.92          	3.14
MS.389         	19.88          	3.156
MS.390         	19.84          	3.17
MS.391         	19.8           	3.182
MS.392         	19.76          	3.164
MS.393         	19.72          	3.166
MS.394         	19.682         	3.146
MS.395         	19.642         	3.142
MS.396         	19.602         	3.17
MS.397         	19.565         	3.168
MS.398         	19.525         	3.156
MS.399         	19.485         	3.152
MS.400         	19.448         	3.154
MS.401         	19.407         	3.166
MS.402         	19.37          	3.134
MS.403         	19.33          	3.146
MS.404         	19.292         	3.116
MS.405         	19.252         	3.12
MS.406         	19.215         	3.11
MS.407         	19.177         	3.078
MS.408         	19.137         	3.11
MS.409         	19.1           	3.094
MS.410         	19.062         	3.11
MS.411         	19.025         	3.072
MS.412         	18.985         	3.108
MS.413         	18.948         	3.098
MS.414         	18.91          	3.096
MS.415         	18.872         	3.126
MS.416         	18.835         	3.138
MS.417         	18.797         	3.09
MS.418         	18.76          	3.094
MS.419         	18.722         	3.074
MS.420         	18.685         	3.102
MS.421         	18.647         	3.055
MS.422         	18.61          	3.12
MS.423         	18.573         	3.055
MS.424         	18.535         	3.13
MS.425         	18.497         	3.055
MS.426         	18.462         	3.07
MS.427         	18.425         	3.082
MS.428         	18.387         	3.112
MS.429         	18.35          	3.104
MS.430         	18.315         	3.057
MS.431         	18.278         	3.055
MS.432         	18.243         	3.06
MS.433         	18.205         	3.102
MS.434         	18.167         	3.088
MS.435         	18.132         	3.053
MS.436         	18.095         	3.035
MS.437         	18.06          	3.045
MS.438         	18.022         	3.025
MS.439         	17.987         	3.015
MS.440         	17.952         	3.025
MS.441         	17.915         	3.049
MS.442         	17.88          	3.043
MS.443         	17.845         	3.037
MS.444         	17.807         	3.025
MS.445         	17.772         	3.021
MS.446         	17.737         	3.017
MS.447         	17.702         	3.003
MS.448         	17.667         	3.009
MS.449         	17.632         	3.005
MS.450         	17.597         	2.999
MS.451         	17.56          	3.011
MS.452         	17.525         	2.993
MS.453         	17.49          	2.993
MS.454         	17.455         	2.965
MS.455         	17.42          	3.007
MS.456         	17.387         	2.985
MS.457         	17.352         	2.983
MS.458         	17.317         	2.961
MS.459         	17.282         	2.985
MS.460         	17.247         	2.971
MS.461         	17.212         	2.973
MS.462         	17.18          	2.969
MS.463         	17.145         	2.955
MS.464         	17.11          	2.975
MS.465         	17.077         	2.963
MS.466         	17.042         	2.973
MS.467         	17.007         	2.989
MS.468         	16.975         	2.965
MS.469         	16.94          	2.975
MS.470         	16.907         	2.975
MS.471         	16.872         	2.957
MS.472         	16.84          	2.969
MS.473         	16.805         	2.969
MS.474         	16.772         	2.969
MS.475         	16.737         	2.963
MS.476         	16.705         	2.953
MS.477         	16.672         	2.979
MS.478         	16.637         	2.971
MS.479         	16.605         	2.894
MS.480         	16.573         	2.961
MS.481         	16.538         	2.971
MS.482         	16.505         	2.969
MS.483         	16.472         	2.973
MS.484         	16.44          	2.989
MS.485         	16.407         	2.864
MS.486         	16.375         	2.88
MS.487         	16.34          	2.983
MS.488         	16.307         	2.969
MS.489         	16.275         	2.955
MS.490         	16.243         	2.983
MS.491         	16.21          	2.981
MS.492         	16.177         	2.912
MS.493         	16.147         	2.838
MS.494         	16.115         	2.929
MS.495         	16.083         	2.878
MS.496         	16.05          	2.884
MS.497         	16.017         	2.848
MS.498         	15.985         	2.89
MS.499         	15.952         	2.836
MS.500         	15.922         	2.834
MS.501         	15.89          	2.858
