File:              	C:\Qtrac\Data\Daniel M Sørensen\MScan multicentre study\Data from centres\Oslo\Processed data\SZC00506D.QZD
Name:              	NO.OSL.NC.3.2
Protocol:          	MSCAN-R2
Date:              	6/5/20
Start time:        	17:02:16
Age:               	37
Sex:               	M
Temperature:       	33.0
S/R sites:         	TA
NC/disease:        	NC3
Operator:          	SZ
Comments:          	Test2
M-SCAN DATA (10.1-1.2m)
Scanpts: 17, 27, 917, 938
Stim. (mA)     	Amp. (mV)
MS.1           	49.5           	7.62
MS.2           	50             	7.684
MS.3           	50             	7.69
MS.4           	50             	7.605
MS.5           	50             	7.612
MS.6           	50             	7.595
MS.7           	50             	7.565
MS.8           	50             	7.529
MS.9           	50             	7.569
MS.10          	50             	7.563
MS.11          	50             	7.614
MS.12          	50             	7.523
MS.13          	50             	7.537
MS.14          	50             	7.525
MS.15          	50             	7.521
MS.16          	50             	7.547
MS.17          	50             	7.551
MS.18          	50             	7.505
MS.19          	50             	7.563
MS.20          	50             	7.483
MS.21          	50             	7.523
MS.22          	50             	7.533
MS.23          	50             	7.539
MS.24          	49.7           	7.511
MS.25          	49.602         	7.489
MS.26          	49.502         	7.503
MS.27          	49.403         	7.471
MS.28          	49.305         	7.501
MS.29          	49.205         	7.464
MS.30          	49.107         	7.469
MS.31          	49.01          	7.527
MS.32          	48.912         	7.487
MS.33          	48.815         	7.418
MS.34          	48.717         	7.462
MS.35          	48.62          	7.424
MS.36          	48.522         	7.471
MS.37          	48.425         	7.46
MS.38          	48.327         	7.448
MS.39          	48.232         	7.408
MS.40          	48.135         	7.448
MS.41          	48.04          	7.36
MS.42          	47.942         	7.46
MS.43          	47.847         	7.408
MS.44          	47.752         	7.346
MS.45          	47.657         	7.406
MS.46          	47.562         	7.396
MS.47          	47.465         	7.36
MS.48          	47.372         	7.416
MS.49          	47.278         	7.448
MS.50          	47.182         	7.418
MS.51          	47.087         	7.428
MS.52          	46.995         	7.42
MS.53          	46.9           	7.39
MS.54          	46.807         	7.366
MS.55          	46.712         	7.344
MS.56          	46.62          	7.352
MS.57          	46.528         	7.382
MS.58          	46.432         	7.362
MS.59          	46.34          	7.374
MS.60          	46.247         	7.406
MS.61          	46.155         	7.307
MS.62          	46.062         	7.384
MS.63          	45.972         	7.376
MS.64          	45.88          	7.328
MS.65          	45.787         	7.354
MS.66          	45.697         	7.317
MS.67          	45.605         	7.299
MS.68          	45.515         	7.328
MS.69          	45.423         	7.313
MS.70          	45.333         	7.285
MS.71          	45.243         	7.321
MS.72          	45.153         	7.346
MS.73          	45.06          	7.297
MS.74          	44.97          	7.313
MS.75          	44.88          	7.285
MS.76          	44.792         	7.354
MS.77          	44.702         	7.275
MS.78          	44.612         	7.319
MS.79          	44.522         	7.263
MS.80          	44.435         	7.283
MS.81          	44.345         	7.245
MS.82          	44.257         	7.317
MS.83          	44.17          	7.265
MS.84          	44.08          	7.255
MS.85          	43.993         	7.305
MS.86          	43.905         	7.253
MS.87          	43.817         	7.247
MS.88          	43.73          	7.307
MS.89          	43.642         	7.271
MS.90          	43.555         	7.221
MS.91          	43.467         	7.257
MS.92          	43.38          	7.237
MS.93          	43.295         	7.201
MS.94          	43.208         	7.172
MS.95          	43.122         	7.211
MS.96          	43.035         	7.195
MS.97          	42.95          	7.211
MS.98          	42.862         	7.207
MS.99          	42.778         	7.195
MS.100         	42.692         	7.195
MS.101         	42.607         	7.17
MS.102         	42.522         	7.166
MS.103         	42.438         	7.116
MS.104         	42.353         	7.185
MS.105         	42.267         	7.148
MS.106         	42.182         	7.12
MS.107         	42.1           	7.06
MS.108         	42.015         	7.14
MS.109         	41.93          	7.13
MS.110         	41.847         	7.106
MS.111         	41.763         	7.086
MS.112         	41.68          	7.132
MS.113         	41.597         	7.039
MS.114         	41.513         	6.975
MS.115         	41.43          	6.985
MS.116         	41.347         	6.965
MS.117         	41.265         	7.052
MS.118         	41.182         	7.086
MS.119         	41.1           	7.078
MS.120         	41.017         	7.042
MS.121         	40.938         	6.87
MS.122         	40.855         	6.945
MS.123         	40.772         	6.917
MS.124         	40.692         	6.919
MS.125         	40.61          	6.943
MS.126         	40.53          	6.941
MS.127         	40.447         	6.919
MS.128         	40.368         	6.782
MS.129         	40.287         	6.903
MS.130         	40.205         	6.822
MS.131         	40.125         	6.733
MS.132         	40.045         	6.816
MS.133         	39.965         	6.806
MS.134         	39.885         	6.743
MS.135         	39.805         	6.675
MS.136         	39.728         	6.753
MS.137         	39.647         	6.727
MS.138         	39.567         	6.715
MS.139         	39.49          	6.707
MS.140         	39.41          	6.669
MS.141         	39.33          	6.695
MS.142         	39.252         	6.643
MS.143         	39.175         	6.699
MS.144         	39.095         	6.625
MS.145         	39.017         	6.606
MS.146         	38.94          	6.572
MS.147         	38.862         	6.631
MS.148         	38.785         	6.58
MS.149         	38.708         	6.564
MS.150         	38.63          	6.544
MS.151         	38.552         	6.552
MS.152         	38.475         	6.542
MS.153         	38.397         	6.546
MS.154         	38.322         	6.59
MS.155         	38.245         	6.562
MS.156         	38.17          	6.544
MS.157         	38.092         	6.5
MS.158         	38.017         	6.494
MS.159         	37.94          	6.528
MS.160         	37.865         	6.488
MS.161         	37.79          	6.568
MS.162         	37.712         	6.474
MS.163         	37.638         	6.484
MS.164         	37.562         	6.425
MS.165         	37.487         	6.449
MS.166         	37.412         	6.431
MS.167         	37.337         	6.427
MS.168         	37.263         	6.411
MS.169         	37.19          	6.482
MS.170         	37.115         	6.459
MS.171         	37.04          	6.425
MS.172         	36.967         	6.451
MS.173         	36.892         	6.387
MS.174         	36.82          	6.391
MS.175         	36.745         	6.389
MS.176         	36.673         	6.397
MS.177         	36.6           	6.383
MS.178         	36.525         	6.413
MS.179         	36.452         	6.411
MS.180         	36.38          	6.375
MS.181         	36.307         	6.343
MS.182         	36.235         	6.328
MS.183         	36.162         	6.314
MS.184         	36.09          	6.349
MS.185         	36.017         	6.292
MS.186         	35.945         	6.266
MS.187         	35.875         	6.294
MS.188         	35.802         	6.306
MS.189         	35.73          	6.31
MS.190         	35.66          	6.212
MS.191         	35.587         	6.21
MS.192         	35.517         	6.252
MS.193         	35.447         	6.242
MS.194         	35.375         	6.161
MS.195         	35.305         	6.23
MS.196         	35.235         	6.157
MS.197         	35.165         	6.131
MS.198         	35.092         	6.161
MS.199         	35.022         	6.212
MS.200         	34.952         	6.077
MS.201         	34.882         	6.107
MS.202         	34.815         	6.218
MS.203         	34.745         	5.984
MS.204         	34.675         	6.014
MS.205         	34.605         	6.042
MS.206         	34.537         	5.98
MS.207         	34.467         	5.966
MS.208         	34.397         	5.887
MS.209         	34.33          	5.916
MS.210         	34.263         	5.853
MS.211         	34.193         	5.95
MS.212         	34.125         	5.891
MS.213         	34.057         	5.901
MS.214         	33.987         	5.914
MS.215         	33.92          	5.904
MS.216         	33.853         	5.839
MS.217         	33.785         	5.793
MS.218         	33.717         	5.847
MS.219         	33.65          	5.72
MS.220         	33.583         	5.843
MS.221         	33.515         	5.831
MS.222         	33.45          	5.72
MS.223         	33.382         	5.779
MS.224         	33.315         	5.767
MS.225         	33.25          	5.702
MS.226         	33.182         	5.754
MS.227         	33.115         	5.644
MS.228         	33.05          	5.682
MS.229         	32.985         	5.622
MS.230         	32.917         	5.648
MS.231         	32.853         	5.617
MS.232         	32.787         	5.579
MS.233         	32.72          	5.583
MS.234         	32.655         	5.458
MS.235         	32.59          	5.491
MS.236         	32.525         	5.531
MS.237         	32.46          	5.454
MS.238         	32.395         	5.466
MS.239         	32.33          	5.47
MS.240         	32.265         	5.418
MS.241         	32.202         	5.4
MS.242         	32.138         	5.454
MS.243         	32.072         	5.424
MS.244         	32.01          	5.416
MS.245         	31.945         	5.376
MS.246         	31.882         	5.336
MS.247         	31.817         	5.329
MS.248         	31.755         	5.319
MS.249         	31.69          	5.273
MS.250         	31.627         	5.241
MS.251         	31.565         	5.201
MS.252         	31.5           	5.186
MS.253         	31.438         	5.166
MS.254         	31.375         	5.154
MS.255         	31.312         	5.225
MS.256         	31.25          	5.152
MS.257         	31.188         	5.025
MS.258         	31.125         	5.021
MS.259         	31.062         	5.096
MS.260         	31             	4.985
MS.261         	30.94          	4.834
MS.262         	30.877         	4.848
MS.263         	30.815         	4.933
MS.264         	30.755         	4.824
MS.265         	30.692         	4.949
MS.266         	30.63          	4.947
MS.267         	30.57          	4.832
MS.268         	30.51          	4.747
MS.269         	30.448         	4.681
MS.270         	30.387         	4.85
MS.271         	30.327         	4.778
MS.272         	30.265         	4.594
MS.273         	30.205         	4.616
MS.274         	30.145         	4.669
MS.275         	30.085         	4.661
MS.276         	30.025         	4.57
MS.277         	29.965         	4.488
MS.278         	29.905         	4.6
MS.279         	29.845         	4.496
MS.280         	29.785         	4.498
MS.281         	29.725         	4.536
MS.282         	29.667         	4.524
MS.283         	29.608         	4.387
MS.284         	29.547         	4.417
MS.285         	29.49          	4.484
MS.286         	29.43          	4.242
MS.287         	29.372         	4.421
MS.288         	29.312         	4.373
MS.289         	29.255         	4.2
MS.290         	29.195         	4.157
MS.291         	29.137         	4.212
MS.292         	29.08          	4.306
MS.293         	29.02          	4.202
MS.294         	28.962         	4.195
MS.295         	28.905         	4.161
MS.296         	28.847         	4.169
MS.297         	28.79          	4.044
MS.298         	28.733         	4.012
MS.299         	28.675         	3.982
MS.300         	28.618         	3.994
MS.301         	28.56          	3.879
MS.302         	28.502         	4.006
MS.303         	28.448         	3.905
MS.304         	28.39          	3.833
MS.305         	28.332         	3.867
MS.306         	28.275         	3.879
MS.307         	28.22          	3.702
MS.308         	28.162         	3.783
MS.309         	28.108         	3.702
MS.310         	28.05          	3.702
MS.311         	27.995         	3.787
MS.312         	27.94          	3.704
MS.313         	27.882         	3.704
MS.314         	27.827         	3.656
MS.315         	27.772         	3.658
MS.316         	27.715         	3.656
MS.317         	27.66          	3.642
MS.318         	27.605         	3.676
MS.319         	27.55          	3.64
MS.320         	27.495         	3.575
MS.321         	27.44          	3.557
MS.322         	27.385         	3.557
MS.323         	27.33          	3.517
MS.324         	27.278         	3.497
MS.325         	27.222         	3.466
MS.326         	27.167         	3.466
MS.327         	27.112         	3.404
MS.328         	27.06          	3.442
MS.329         	27.005         	3.41
MS.330         	26.95          	3.434
MS.331         	26.897         	3.35
MS.332         	26.842         	3.267
MS.333         	26.79          	3.329
MS.334         	26.735         	3.219
MS.335         	26.682         	3.243
MS.336         	26.63          	3.229
MS.337         	26.577         	3.233
MS.338         	26.522         	3.215
MS.339         	26.47          	3.178
MS.340         	26.417         	3.136
MS.341         	26.365         	3.168
MS.342         	26.312         	3.172
MS.343         	26.26          	3.162
MS.344         	26.207         	3.112
MS.345         	26.155         	3.158
MS.346         	26.102         	3.108
MS.347         	26.05          	3.192
MS.348         	25.997         	3.086
MS.349         	25.945         	2.931
MS.350         	25.895         	3.015
MS.351         	25.842         	2.967
MS.352         	25.79          	2.951
MS.353         	25.74          	2.937
MS.354         	25.688         	2.983
MS.355         	25.637         	2.91
MS.356         	25.585         	3.005
MS.357         	25.535         	2.963
MS.358         	25.483         	2.933
MS.359         	25.432         	2.927
MS.360         	25.382         	2.921
MS.361         	25.33          	2.939
MS.362         	25.28          	2.894
MS.363         	25.23          	2.85
MS.364         	25.18          	2.844
MS.365         	25.13          	2.816
MS.366         	25.077         	2.784
MS.367         	25.028         	2.757
MS.368         	24.977         	2.683
MS.369         	24.927         	2.709
MS.370         	24.88          	2.721
MS.371         	24.83          	2.691
MS.372         	24.78          	2.687
MS.373         	24.73          	2.693
MS.374         	24.68          	2.63
MS.375         	24.632         	2.639
MS.376         	24.582         	2.582
MS.377         	24.532         	2.626
MS.378         	24.485         	2.608
MS.379         	24.435         	2.576
MS.380         	24.385         	2.626
MS.381         	24.337         	2.52
MS.382         	24.29          	2.534
MS.383         	24.24          	2.554
MS.384         	24.192         	2.54
MS.385         	24.142         	2.526
MS.386         	24.095         	2.55
MS.387         	24.047         	2.459
MS.388         	24             	2.413
MS.389         	23.95          	2.453
MS.390         	23.903         	2.423
MS.391         	23.855         	2.453
MS.392         	23.807         	2.395
MS.393         	23.76          	2.415
MS.394         	23.712         	2.427
MS.395         	23.665         	2.351
MS.396         	23.618         	2.361
MS.397         	23.57          	2.332
MS.398         	23.525         	2.316
MS.399         	23.477         	2.298
MS.400         	23.43          	2.304
MS.401         	23.382         	2.254
MS.402         	23.337         	2.32
MS.403         	23.29          	2.238
MS.404         	23.243         	2.161
MS.405         	23.198         	2.226
MS.406         	23.15          	2.294
MS.407         	23.105         	2.167
MS.408         	23.057         	2.149
MS.409         	23.012         	2.212
MS.410         	22.965         	2.147
MS.411         	22.92          	2.127
MS.412         	22.875         	2.062
MS.413         	22.827         	2.105
MS.414         	22.782         	2.151
MS.415         	22.737         	2.069
MS.416         	22.692         	2.056
MS.417         	22.647         	2.06
MS.418         	22.602         	2.006
MS.419         	22.557         	2.038
MS.420         	22.512         	2.018
MS.421         	22.467         	1.994
MS.422         	22.422         	1.966
MS.423         	22.377         	1.976
MS.424         	22.332         	2.024
MS.425         	22.288         	2.008
MS.426         	22.243         	1.956
MS.427         	22.198         	1.964
MS.428         	22.155         	1.928
MS.429         	22.11          	1.928
MS.430         	22.065         	1.93
MS.431         	22.022         	1.891
MS.432         	21.977         	1.909
MS.433         	21.932         	1.913
MS.434         	21.89          	1.897
MS.435         	21.845         	1.883
MS.436         	21.802         	1.893
MS.437         	21.76          	1.881
MS.438         	21.715         	1.839
MS.439         	21.672         	1.865
MS.440         	21.627         	1.835
MS.441         	21.585         	1.797
MS.442         	21.542         	1.811
MS.443         	21.5           	1.813
MS.444         	21.458         	1.813
MS.445         	21.413         	1.785
MS.446         	21.37          	1.787
MS.447         	21.327         	1.805
MS.448         	21.285         	1.789
MS.449         	21.243         	1.744
MS.450         	21.2           	1.791
MS.451         	21.157         	1.766
MS.452         	21.115         	1.75
MS.453         	21.073         	1.748
MS.454         	21.032         	1.748
MS.455         	20.99          	1.726
MS.456         	20.948         	1.7
MS.457         	20.905         	1.73
MS.458         	20.865         	1.686
MS.459         	20.823         	1.658
MS.460         	20.78          	1.66
MS.461         	20.74          	1.662
MS.462         	20.698         	1.676
MS.463         	20.657         	1.648
MS.464         	20.615         	1.591
MS.465         	20.575         	1.629
MS.466         	20.532         	1.633
MS.467         	20.493         	1.591
MS.468         	20.45          	1.567
MS.469         	20.41          	1.561
MS.470         	20.37          	1.597
MS.471         	20.327         	1.541
MS.472         	20.288         	1.547
MS.473         	20.247         	1.458
MS.474         	20.208         	1.456
MS.475         	20.167         	1.513
MS.476         	20.125         	1.424
MS.477         	20.085         	1.434
MS.478         	20.045         	1.495
MS.479         	20.005         	1.466
MS.480         	19.965         	1.46
MS.481         	19.925         	1.478
MS.482         	19.885         	1.384
MS.483         	19.847         	1.398
MS.484         	19.807         	1.335
MS.485         	19.767         	1.335
MS.486         	19.727         	1.333
MS.487         	19.688         	1.237
MS.488         	19.65          	1.303
MS.489         	19.61          	1.243
MS.490         	19.57          	1.251
MS.491         	19.532         	1.259
MS.492         	19.493         	1.219
MS.493         	19.452         	1.233
MS.494         	19.415         	1.271
MS.495         	19.375         	1.213
MS.496         	19.337         	1.186
MS.497         	19.297         	1.188
MS.498         	19.26          	1.202
MS.499         	19.222         	1.154
MS.500         	19.182         	1.154
MS.501         	19.145         	1.116
