File:              	C:\Qtrac\Data\Daniel M Sørensen\MScan multicentre study\Data from centres\Oslo\Processed data\SZC00707B.QZD
Name:              	NO.OSL.NC.22.2
Protocol:          	MSCAN-R2
Date:              	7/7/20
Start time:        	17:03:43
Age:               	23
Sex:               	F
Temperature:       	31.2
S/R sites:         	APB
NC/disease:        	NC22
Operator:          	SZ
Comments:          	Test2
M-SCAN DATA (4.3-0.8m)
Scanpts: 76, 84, 372, 394
Stim. (mA)     	Amp. (mV)
MS.1           	11.5           	10.917
MS.2           	11.5           	10.897
MS.3           	11.5           	10.878
MS.4           	11.5           	10.836
MS.5           	11.5           	10.816
MS.6           	11.5           	10.826
MS.7           	11.5           	10.86
MS.8           	11.5           	10.891
MS.9           	11.5           	10.895
MS.10          	11.5           	10.891
MS.11          	11.5           	10.85
MS.12          	11.5           	10.858
MS.13          	11.5           	10.824
MS.14          	11.5           	10.816
MS.15          	11.5           	10.816
MS.16          	11.5           	10.81
MS.17          	11.5           	10.806
MS.18          	11.5           	10.786
MS.19          	11.5           	10.78
MS.20          	11.5           	10.8
MS.21          	11.5           	10.808
MS.22          	11.5           	10.814
MS.23          	11.5           	10.808
MS.24          	11.455         	10.784
MS.25          	11.43          	10.77
MS.26          	11.407         	10.766
MS.27          	11.385         	10.774
MS.28          	11.363         	10.772
MS.29          	11.34          	10.776
MS.30          	11.318         	10.788
MS.31          	11.295         	10.774
MS.32          	11.273         	10.774
MS.33          	11.25          	10.796
MS.34          	11.227         	10.782
MS.35          	11.205         	10.78
MS.36          	11.182         	10.79
MS.37          	11.16          	10.774
MS.38          	11.137         	10.772
MS.39          	11.115         	10.77
MS.40          	11.092         	10.774
MS.41          	11.07          	10.76
MS.42          	11.05          	10.768
MS.43          	11.028         	10.758
MS.44          	11.005         	10.758
MS.45          	10.983         	10.752
MS.46          	10.96          	10.756
MS.47          	10.94          	10.744
MS.48          	10.917         	10.762
MS.49          	10.895         	10.784
MS.50          	10.872         	10.778
MS.51          	10.852         	10.774
MS.52          	10.83          	10.76
MS.53          	10.807         	10.752
MS.54          	10.787         	10.762
MS.55          	10.765         	10.756
MS.56          	10.745         	10.758
MS.57          	10.722         	10.748
MS.58          	10.7           	10.742
MS.59          	10.68          	10.746
MS.60          	10.657         	10.752
MS.61          	10.637         	10.75
MS.62          	10.615         	10.746
MS.63          	10.595         	10.729
MS.64          	10.573         	10.744
MS.65          	10.552         	10.74
MS.66          	10.53          	10.748
MS.67          	10.51          	10.752
MS.68          	10.49          	10.74
MS.69          	10.467         	10.742
MS.70          	10.448         	10.737
MS.71          	10.427         	10.727
MS.72          	10.405         	10.742
MS.73          	10.385         	10.744
MS.74          	10.365         	10.733
MS.75          	10.342         	10.721
MS.76          	10.323         	10.735
MS.77          	10.302         	10.737
MS.78          	10.282         	10.733
MS.79          	10.26          	10.737
MS.80          	10.24          	10.727
MS.81          	10.22          	10.725
MS.82          	10.2           	10.725
MS.83          	10.18          	10.727
MS.84          	10.16          	10.725
MS.85          	10.137         	10.721
MS.86          	10.117         	10.729
MS.87          	10.097         	10.74
MS.88          	10.077         	10.746
MS.89          	10.057         	10.737
MS.90          	10.037         	10.699
MS.91          	10.017         	10.709
MS.92          	9.997          	10.705
MS.93          	9.977          	10.713
MS.94          	9.957          	10.74
MS.95          	9.938          	10.703
MS.96          	9.917          	10.695
MS.97          	9.898          	10.701
MS.98          	9.877          	10.735
MS.99          	9.858          	10.711
MS.100         	9.84           	10.705
MS.101         	9.82           	10.695
MS.102         	9.8            	10.572
MS.103         	9.78           	10.681
MS.104         	9.76           	10.458
MS.105         	9.74           	10.572
MS.106         	9.722          	10.681
MS.107         	9.702          	10.451
MS.108         	9.682          	10.437
MS.109         	9.662          	10.552
MS.110         	9.645          	10.284
MS.111         	9.625          	10.278
MS.112         	9.605          	10.016
MS.113         	9.587          	10.445
MS.114         	9.568          	10.244
MS.115         	9.547          	10.159
MS.116         	9.53           	10.435
MS.117         	9.51           	10.375
MS.118         	9.49           	10.286
MS.119         	9.472          	10.228
MS.120         	9.452          	9.942
MS.121         	9.435          	10.167
MS.122         	9.415          	9.867
MS.123         	9.398          	9.964
MS.124         	9.377          	9.914
MS.125         	9.36           	9.94
MS.126         	9.34           	9.93
MS.127         	9.323          	9.95
MS.128         	9.302          	9.815
MS.129         	9.285          	9.914
MS.130         	9.265          	9.809
MS.131         	9.247          	9.678
MS.132         	9.23           	9.722
MS.133         	9.21           	9.177
MS.134         	9.193          	9.811
MS.135         	9.172          	9.031
MS.136         	9.155          	9.716
MS.137         	9.137          	9.12
MS.138         	9.12           	9.892
MS.139         	9.1            	9.626
MS.140         	9.082          	9.827
MS.141         	9.065          	9.001
MS.142         	9.045          	8.941
MS.143         	9.028          	8.941
MS.144         	9.01           	9.084
MS.145         	8.992          	9.66
MS.146         	8.975          	9.787
MS.147         	8.955          	9.009
MS.148         	8.938          	8.965
MS.149         	8.92           	8.937
MS.150         	8.903          	8.973
MS.151         	8.885          	8.584
MS.152         	8.867          	8.592
MS.153         	8.85           	9.084
MS.154         	8.832          	8.971
MS.155         	8.815          	9.283
MS.156         	8.797          	8.961
MS.157         	8.78           	8.973
MS.158         	8.762          	8.953
MS.159         	8.745          	8.528
MS.160         	8.727          	8.629
MS.161         	8.71           	8.6
MS.162         	8.693          	8.961
MS.163         	8.675          	8.607
MS.164         	8.658          	8.611
MS.165         	8.64           	8.468
MS.166         	8.622          	8.592
MS.167         	8.605          	8.651
MS.168         	8.587          	8.649
MS.169         	8.57           	8.335
MS.170         	8.552          	8.343
MS.171         	8.537          	8.335
MS.172         	8.52           	8.127
MS.173         	8.502          	8.56
MS.174         	8.485          	8.268
MS.175         	8.467          	8.045
MS.176         	8.452          	8.159
MS.177         	8.435          	7.891
MS.178         	8.417          	7.896
MS.179         	8.4            	7.887
MS.180         	8.385          	8.018
MS.181         	8.367          	7.738
MS.182         	8.35           	7.873
MS.183         	8.335          	7.634
MS.184         	8.318          	7.591
MS.185         	8.3            	7.765
MS.186         	8.285          	8.061
MS.187         	8.267          	7.855
MS.188         	8.25           	7.857
MS.189         	8.235          	7.668
MS.190         	8.217          	7.728
MS.191         	8.202          	7.174
MS.192         	8.185          	7.106
MS.193         	8.17           	7.134
MS.194         	8.153          	6.997
MS.195         	8.137          	7.45
MS.196         	8.12           	7.092
MS.197         	8.105          	7.003
MS.198         	8.087          	7.033
MS.199         	8.073          	7.048
MS.200         	8.055          	7.16
MS.201         	8.04           	7.021
MS.202         	8.023          	6.747
MS.203         	8.007          	7.029
MS.204         	7.99           	6.911
MS.205         	7.975          	6.725
MS.206         	7.96           	6.872
MS.207         	7.942          	6.637
MS.208         	7.927          	6.639
MS.209         	7.912          	6.639
MS.210         	7.895          	6.572
MS.211         	7.88           	6.911
MS.212         	7.865          	6.361
MS.213         	7.847          	6.534
MS.214         	7.832          	6.288
MS.215         	7.817          	6.588
MS.216         	7.802          	6.316
MS.217         	7.785          	6.047
MS.218         	7.77           	6.155
MS.219         	7.755          	6.26
MS.220         	7.74           	5.855
MS.221         	7.725          	6.141
MS.222         	7.707          	5.769
MS.223         	7.692          	5.972
MS.224         	7.677          	5.585
MS.225         	7.662          	5.134
MS.226         	7.648          	5.255
MS.227         	7.632          	5.358
MS.228         	7.617          	5.309
MS.229         	7.602          	5.201
MS.230         	7.587          	5.039
MS.231         	7.57           	5.358
MS.232         	7.555          	5.019
MS.233         	7.54           	5.108
MS.234         	7.525          	4.993
MS.235         	7.51           	4.772
MS.236         	7.495          	4.524
MS.237         	7.48           	4.52
MS.238         	7.465          	4.353
MS.239         	7.45           	4.479
MS.240         	7.435          	4.405
MS.241         	7.42           	4.085
MS.242         	7.407          	3.752
MS.243         	7.392          	4.544
MS.244         	7.378          	4.246
MS.245         	7.362          	3.948
MS.246         	7.347          	4.085
MS.247         	7.332          	3.529
MS.248         	7.317          	3.728
MS.249         	7.302          	3.785
MS.250         	7.29           	3.245
MS.251         	7.275          	3.396
MS.252         	7.26           	3.025
MS.253         	7.245          	2.767
MS.254         	7.23           	3.055
MS.255         	7.217          	3.372
MS.256         	7.202          	3.491
MS.257         	7.188          	3.186
MS.258         	7.172          	2.896
MS.259         	7.16           	2.786
MS.260         	7.145          	2.49
MS.261         	7.13           	2.669
MS.262         	7.115          	2.59
MS.263         	7.102          	2.628
MS.264         	7.087          	2.586
MS.265         	7.072          	2.836
MS.266         	7.06           	2.397
MS.267         	7.045          	2.357
MS.268         	7.03           	2.083
MS.269         	7.017          	2.065
MS.270         	7.003          	2.23
MS.271         	6.99           	2.044
MS.272         	6.975          	1.694
MS.273         	6.96           	1.936
MS.274         	6.947          	1.996
MS.275         	6.932          	1.885
MS.276         	6.92           	1.825
MS.277         	6.905          	1.811
MS.278         	6.892          	1.392
MS.279         	6.878          	1.333
MS.280         	6.865          	1.394
MS.281         	6.85           	1.65
MS.282         	6.837          	1.162
MS.283         	6.822          	1.519
MS.284         	6.81           	1.182
MS.285         	6.795          	1.16
MS.286         	6.782          	1.059
MS.287         	6.77           	1.041
MS.288         	6.755          	1.07
MS.289         	6.742          	0.886
MS.290         	6.727          	0.949
MS.291         	6.715          	1.003
MS.292         	6.702          	1.086
MS.293         	6.688          	0.997
MS.294         	6.675          	0.963
MS.295         	6.662          	0.806
MS.296         	6.648          	0.727
MS.297         	6.635          	0.808
MS.298         	6.622          	0.798
MS.299         	6.608          	0.818
MS.300         	6.595          	0.767
MS.301         	6.582          	0.836
MS.302         	6.57           	0.854
MS.303         	6.555          	0.85
MS.304         	6.543          	0.749
MS.305         	6.53           	0.596
MS.306         	6.517          	0.641
MS.307         	6.503          	0.588
MS.308         	6.49           	0.52
MS.309         	6.477          	0.526
MS.310         	6.465          	0.588
MS.311         	6.452          	0.538
MS.312         	6.44           	0.467
MS.313         	6.425          	0.514
MS.314         	6.412          	0.455
MS.315         	6.4            	0.477
MS.316         	6.387          	0.264
MS.317         	6.375          	0.346
MS.318         	6.362          	0.395
MS.319         	6.35           	0.357
MS.320         	6.338          	0.401
MS.321         	6.325          	0.286
MS.322         	6.312          	0.226
MS.323         	6.297          	0.379
MS.324         	6.285          	0.266
MS.325         	6.273          	0.224
MS.326         	6.26           	0.205
MS.327         	6.247          	0.274
MS.328         	6.235          	0.246
MS.329         	6.222          	0.282
MS.330         	6.21           	0.242
MS.331         	6.197          	0.169
MS.332         	6.188          	0.099
MS.333         	6.175          	0.153
MS.334         	6.162          	0.135
MS.335         	6.15           	0.095
MS.336         	6.137          	0.139
MS.337         	6.125          	0.131
MS.338         	6.112          	0.097
MS.339         	6.1            	0.095
MS.340         	6.088          	0.266
MS.341         	6.075          	0.121
MS.342         	6.065          	0.125
MS.343         	6.052          	0.149
MS.344         	6.04           	0.026
MS.345         	6.027          	0.091
MS.346         	6.015          	0.123
MS.347         	6.003          	0.085
MS.348         	5.992          	0.07
MS.349         	5.98           	0.034
MS.350         	5.967          	0.073
MS.351         	5.955          	0.066
MS.352         	5.945          	0.133
MS.353         	5.932          	0.042
MS.354         	5.92           	0.068
MS.355         	5.907          	0.066
MS.356         	5.898          	0.131
MS.357         	5.885          	0.03
MS.358         	5.872          	0.028
MS.359         	5.86           	0.01
MS.360         	5.85           	0.016
MS.361         	5.838          	0.066
MS.362         	5.825          	0.026
MS.363         	5.815          	0.012
MS.364         	5.802          	0.014
MS.365         	5.79           	0.022
MS.366         	5.78           	0.012
MS.367         	5.767          	0.012
MS.368         	5.757          	0.000
MS.369         	5.745          	0.022
MS.370         	5.733          	0.002
MS.371         	5.722          	0.004
MS.372         	5.71           	0.012
MS.373         	5.7            	0.004
MS.374         	5.688          	0.002
MS.375         	5.677          	0.002
MS.376         	5.665          	0.022
MS.377         	5.655          	0.006
MS.378         	5.642          	0.008
MS.379         	5.632          	0.01
MS.380         	5.62           	0.002
MS.381         	5.61           	0.002
MS.382         	5.597          	0.024
MS.383         	5.588          	0.018
MS.384         	5.575          	0.000
MS.385         	5.565          	-0.002
MS.386         	5.552          	0.000
MS.387         	5.543          	0.006
MS.388         	5.53           	0.006
MS.389         	5.52           	0.002
MS.390         	5.51           	0.004
MS.391         	5.497          	0.002
MS.392         	5.487          	0.004
MS.393         	5.475          	-0.002
MS.394         	5.465          	0.004
DERIVED EXCITABILITY VARIABLES
Program = QTracP 3/4/2020
Threshold method = 6 (optimised for CAP, using data for present condition only)
SR method = 1 (using actual data values)
6.                 	0.000               	Peak response\(mV)
9.                 	31.2                	Temperature ( C)
17.                	23                  	Age (years)
18.                	2                   	Sex (M=1, F=2)

EXTRA VARIABLES

MScPeak(mV) = 10.83
MScS5(mA) = 6.47
MScS50(mA) = 7.67
MScS95(mA) = 9.57
MScNSteps = 3
MScSteps(%) = 8.3
MScStepMax(%) = 3.2
MScD50 = 36
MScSlope = 5.65
MSFPeakAmp(mV) = 10.7
MSFNUnits = 101
MSFMeanUnitAmp(uV) = 106.2
MSFHuntTime(m) = 1.86
MSFError(%) = 6.79
MSFNLarge = 29.93
MSFMedianAmp(%) = 0.841
MSFMedianAmp(mV) = 0.0902
MSFHalfAmpAmp(%) = 1.13
MSFHalfAmpAmp(mV) = 0.121
MSFLargestAmp(%) = 5.94
MSFLargestAmp(mV) = 0.637
MSFMeanRS(%) = 2.01
MSFOpts = 10106121
MScDuration(min) = 3.5
MSFTraces = 319
MSFSizeLimit(uV) = 26.8
MSFLimitType = 1
MSFSmallestAmp(uV) = 27.8

EXTRA WAVEFORMS


!MScan Model
!101
	1	5.93	0.45	2
	2	6.11	0.73	2
	3	6.21	0.59	2
	4	6.25	0.37	2
	5	6.29	0.4	2
	6	6.31	0.34	2
	7	6.34	0.41	2
	8	6.39	0.52	2
	9	6.41	0.3	2
	10	6.44	0.46	2
	11	6.45	0.26	2
	12	6.47	0.3	2
	13	6.48	0.34	2
	14	6.51	0.52	2
	15	6.54	0.42	2
	16	6.57	0.52	2
	17	6.61	0.57	2
	18	6.67	0.95	2
	19	6.7	0.5	2
	20	6.73	0.78	2
	21	6.75	0.57	2
	22	6.77	0.66	2
	23	6.8	0.76	2
	24	6.81	0.52	2
	25	6.83	0.43	2
	26	6.85	0.53	2
	27	6.86	0.68	2
	28	6.88	0.72	2
	29	6.89	0.67	2
	30	6.91	0.73	2
	31	6.93	0.75	2
	32	6.94	0.7	2
	33	6.96	0.62	2
	34	6.97	0.53	2
	35	6.99	0.5	2
	36	7	0.69	2
	37	7.02	0.65	2
	38	7.03	0.79	2
	39	7.05	0.85	2
	40	7.06	0.82	2
	41	7.08	1.08	2
	42	7.12	1.31	2
	43	7.16	1.3	2
	44	7.19	1.91	2
	45	7.22	1.56	2
	46	7.25	1.32	2
	47	7.28	1.58	2
	48	7.31	1.34	2
	49	7.33	0.88	2
	50	7.35	1.15	2
	51	7.37	1.14	2
	52	7.39	1.17	2
	53	7.41	1.3	2
	54	7.43	1.09	2
	55	7.46	1.36	2
	56	7.48	1.3	2
	57	7.5	0.92	2
	58	7.51	1.18	2
	59	7.53	0.69	2
	60	7.54	0.78	2
	61	7.56	0.91	2
	62	7.57	0.94	2
	63	7.59	0.64	2
	64	7.6	0.8	2
	65	7.62	1.06	2
	66	7.64	1.02	2
	67	7.67	0.82	2
	68	7.69	0.68	2
	69	7.71	0.54	2
	70	7.72	0.59	2
	71	7.74	0.9	2
	72	7.76	1.29	2
	73	7.79	1.11	2
	74	7.82	0.98	2
	75	7.84	1.13	2
	76	7.87	1.02	2
	77	7.9	0.9	2
	78	7.94	1.36	2
	79	7.99	1.12	2
	80	8.05	0.99	2
	81	8.19	1.6	2
	82	8.25	1.38	2
	83	8.28	2.29	2.4
	84	8.34	2.26	2
	85	8.4	1.88	2
	86	8.45	0.6	2
	87	8.47	0.7	2
	88	8.5	0.91	2
	89	8.54	0.74	2
	90	8.58	1.14	2
	91	8.64	1.42	2
	92	8.84	3.2	2
	93	9.16	5.94	2
	94	9.29	1.7	2
	95	9.35	1.56	2
	96	9.43	1.59	2
	97	9.5	1.09	2
	98	9.59	1.44	2
	99	9.67	1.04	2
	100	9.74	0.84	2
	101	9.8	0.64	2

