File:              	C:\Qtrac\Data\Daniel M Sørensen\MScan multicentre study\Data from centres\Oslo\Processed data\SZC00515C.QZD
Name:              	NO.OSL.NC.8.2
Protocol:          	MSCAN-R2
Date:              	15/5/20
Start time:        	12:21:07
Age:               	68
Sex:               	F
Temperature:       	31.9
S/R sites:         	TA
NC/disease:        	NC8
Operator:          	SZ
Comments:          	Test2
M-SCAN DATA (14.7-5.1m)
Scanpts: 10, 18, 986, 1007
Stim. (mA)     	Amp. (mV)
MS.1           	38.5           	7.835
MS.2           	38.5           	7.829
MS.3           	38.5           	7.839
MS.4           	38.5           	7.803
MS.5           	38.5           	7.791
MS.6           	38.5           	7.823
MS.7           	38.5           	7.773
MS.8           	38.5           	7.869
MS.9           	38.5           	7.748
MS.10          	38.5           	7.793
MS.11          	38.5           	7.769
MS.12          	38.5           	7.811
MS.13          	38.5           	7.801
MS.14          	38.5           	7.809
MS.15          	38.5           	7.799
MS.16          	38.5           	7.819
MS.17          	38.5           	7.825
MS.18          	38.5           	7.803
MS.19          	38.5           	7.785
MS.20          	38.5           	7.771
MS.21          	38.5           	7.759
MS.22          	38.5           	7.815
MS.23          	38.5           	7.847
MS.24          	38.27          	7.753
MS.25          	38.192         	7.807
MS.26          	38.118         	7.805
MS.27          	38.04          	7.769
MS.28          	37.965         	7.787
MS.29          	37.89          	7.734
MS.30          	37.812         	7.773
MS.31          	37.737         	7.734
MS.32          	37.662         	7.732
MS.33          	37.587         	7.94
MS.34          	37.513         	7.74
MS.35          	37.438         	7.795
MS.36          	37.362         	7.761
MS.37          	37.287         	7.736
MS.38          	37.212         	7.755
MS.39          	37.138         	7.797
MS.40          	37.065         	7.728
MS.41          	36.99          	7.716
MS.42          	36.917         	7.738
MS.43          	36.842         	7.757
MS.44          	36.77          	7.738
MS.45          	36.695         	7.746
MS.46          	36.622         	7.718
MS.47          	36.55          	7.746
MS.48          	36.475         	7.728
MS.49          	36.403         	7.702
MS.50          	36.33          	7.734
MS.51          	36.257         	7.738
MS.52          	36.185         	7.718
MS.53          	36.112         	7.744
MS.54          	36.04          	7.72
MS.55          	35.97          	7.722
MS.56          	35.897         	7.742
MS.57          	35.825         	7.708
MS.58          	35.752         	7.726
MS.59          	35.682         	7.724
MS.60          	35.61          	7.71
MS.61          	35.54          	7.728
MS.62          	35.47          	7.726
MS.63          	35.397         	7.702
MS.64          	35.327         	7.694
MS.65          	35.257         	7.714
MS.66          	35.185         	7.696
MS.67          	35.115         	7.728
MS.68          	35.045         	7.706
MS.69          	34.975         	7.732
MS.70          	34.905         	7.698
MS.71          	34.835         	7.716
MS.72          	34.767         	7.706
MS.73          	34.697         	7.718
MS.74          	34.627         	7.704
MS.75          	34.557         	7.668
MS.76          	34.49          	7.7
MS.77          	34.42          	7.684
MS.78          	34.353         	7.698
MS.79          	34.282         	7.694
MS.80          	34.215         	7.7
MS.81          	34.147         	7.714
MS.82          	34.077         	7.708
MS.83          	34.01          	7.684
MS.84          	33.943         	7.696
MS.85          	33.875         	7.692
MS.86          	33.807         	7.704
MS.87          	33.74          	7.694
MS.88          	33.673         	7.682
MS.89          	33.605         	7.65
MS.90          	33.537         	7.694
MS.91          	33.47          	7.706
MS.92          	33.403         	7.688
MS.93          	33.337         	7.696
MS.94          	33.27          	7.706
MS.95          	33.202         	7.69
MS.96          	33.138         	7.664
MS.97          	33.07          	7.706
MS.98          	33.005         	7.7
MS.99          	32.94          	7.724
MS.100         	32.872         	7.726
MS.101         	32.807         	7.672
MS.102         	32.743         	7.73
MS.103         	32.677         	7.718
MS.104         	32.61          	7.672
MS.105         	32.545         	7.702
MS.106         	32.48          	7.684
MS.107         	32.415         	7.732
MS.108         	32.353         	7.7
MS.109         	32.287         	7.724
MS.110         	32.222         	7.658
MS.111         	32.157         	7.704
MS.112         	32.092         	7.726
MS.113         	32.03          	7.658
MS.114         	31.965         	7.724
MS.115         	31.903         	7.7
MS.116         	31.837         	7.7
MS.117         	31.775         	7.726
MS.118         	31.71          	7.722
MS.119         	31.647         	7.702
MS.120         	31.585         	7.676
MS.121         	31.52          	7.694
MS.122         	31.457         	7.68
MS.123         	31.395         	7.672
MS.124         	31.332         	7.688
MS.125         	31.27          	7.708
MS.126         	31.207         	7.678
MS.127         	31.145         	7.682
MS.128         	31.082         	7.682
MS.129         	31.02          	7.684
MS.130         	30.957         	7.69
MS.131         	30.897         	7.688
MS.132         	30.835         	7.698
MS.133         	30.772         	7.696
MS.134         	30.712         	7.65
MS.135         	30.65          	7.694
MS.136         	30.59          	7.67
MS.137         	30.528         	7.688
MS.138         	30.467         	7.654
MS.139         	30.407         	7.674
MS.140         	30.345         	7.688
MS.141         	30.285         	7.682
MS.142         	30.225         	7.686
MS.143         	30.165         	7.658
MS.144         	30.105         	7.62
MS.145         	30.042         	7.684
MS.146         	29.983         	7.67
MS.147         	29.925         	7.652
MS.148         	29.865         	7.656
MS.149         	29.805         	7.678
MS.150         	29.745         	7.666
MS.151         	29.685         	7.648
MS.152         	29.625         	7.666
MS.153         	29.567         	7.662
MS.154         	29.507         	7.666
MS.155         	29.45          	7.692
MS.156         	29.39          	7.656
MS.157         	29.332         	7.65
MS.158         	29.272         	7.644
MS.159         	29.215         	7.662
MS.160         	29.155         	7.654
MS.161         	29.097         	7.65
MS.162         	29.04          	7.636
MS.163         	28.983         	7.664
MS.164         	28.922         	7.644
MS.165         	28.865         	7.634
MS.166         	28.807         	7.626
MS.167         	28.75          	7.654
MS.168         	28.692         	7.603
MS.169         	28.635         	7.599
MS.170         	28.577         	7.62
MS.171         	28.522         	7.585
MS.172         	28.465         	7.628
MS.173         	28.407         	7.583
MS.174         	28.35          	7.565
MS.175         	28.295         	7.607
MS.176         	28.237         	7.581
MS.177         	28.18          	7.529
MS.178         	28.125         	7.529
MS.179         	28.067         	7.537
MS.180         	28.012         	7.575
MS.181         	27.957         	7.589
MS.182         	27.9           	7.577
MS.183         	27.845         	7.569
MS.184         	27.79          	7.591
MS.185         	27.735         	7.515
MS.186         	27.677         	7.505
MS.187         	27.622         	7.485
MS.188         	27.567         	7.523
MS.189         	27.512         	7.487
MS.190         	27.457         	7.539
MS.191         	27.403         	7.517
MS.192         	27.347         	7.483
MS.193         	27.292         	7.452
MS.194         	27.24          	7.475
MS.195         	27.185         	7.458
MS.196         	27.13          	7.497
MS.197         	27.075         	7.458
MS.198         	27.022         	7.454
MS.199         	26.967         	7.46
MS.200         	26.915         	7.432
MS.201         	26.86          	7.422
MS.202         	26.807         	7.452
MS.203         	26.752         	7.424
MS.204         	26.7           	7.434
MS.205         	26.647         	7.424
MS.206         	26.592         	7.42
MS.207         	26.54          	7.462
MS.208         	26.487         	7.41
MS.209         	26.435         	7.426
MS.210         	26.382         	7.412
MS.211         	26.327         	7.404
MS.212         	26.275         	7.414
MS.213         	26.222         	7.362
MS.214         	26.17          	7.406
MS.215         	26.12          	7.396
MS.216         	26.067         	7.374
MS.217         	26.015         	7.398
MS.218         	25.962         	7.394
MS.219         	25.91          	7.384
MS.220         	25.86          	7.356
MS.221         	25.807         	7.384
MS.222         	25.755         	7.344
MS.223         	25.705         	7.356
MS.224         	25.653         	7.354
MS.225         	25.602         	7.344
MS.226         	25.55          	7.313
MS.227         	25.5           	7.338
MS.228         	25.448         	7.332
MS.229         	25.397         	7.334
MS.230         	25.347         	7.291
MS.231         	25.295         	7.257
MS.232         	25.245         	7.291
MS.233         	25.195         	7.309
MS.234         	25.145         	7.261
MS.235         	25.095         	7.285
MS.236         	25.045         	7.245
MS.237         	24.995         	7.299
MS.238         	24.945         	7.16
MS.239         	24.895         	7.257
MS.240         	24.845         	7.225
MS.241         	24.795         	7.168
MS.242         	24.745         	7.209
MS.243         	24.698         	7.142
MS.244         	24.647         	7.148
MS.245         	24.597         	7.203
MS.246         	24.547         	7.176
MS.247         	24.5           	7.17
MS.248         	24.45          	7.199
MS.249         	24.403         	7.122
MS.250         	24.352         	7.084
MS.251         	24.305         	7.146
MS.252         	24.255         	7.134
MS.253         	24.207         	7.108
MS.254         	24.16          	7.11
MS.255         	24.11          	7.044
MS.256         	24.062         	7.066
MS.257         	24.015         	7.056
MS.258         	23.967         	7.062
MS.259         	23.917         	7.072
MS.260         	23.87          	7.046
MS.261         	23.823         	7.048
MS.262         	23.775         	7.027
MS.263         	23.727         	7.007
MS.264         	23.68          	7.009
MS.265         	23.632         	7.005
MS.266         	23.585         	7.001
MS.267         	23.54          	6.947
MS.268         	23.493         	6.929
MS.269         	23.445         	6.959
MS.270         	23.397         	6.929
MS.271         	23.352         	6.979
MS.272         	23.305         	6.896
MS.273         	23.257         	6.894
MS.274         	23.212         	6.903
MS.275         	23.165         	6.896
MS.276         	23.12          	6.852
MS.277         	23.073         	6.88
MS.278         	23.028         	6.86
MS.279         	22.98          	6.876
MS.280         	22.935         	6.856
MS.281         	22.89          	6.838
MS.282         	22.842         	6.818
MS.283         	22.797         	6.886
MS.284         	22.752         	6.784
MS.285         	22.707         	6.794
MS.286         	22.66          	6.806
MS.287         	22.615         	6.794
MS.288         	22.57          	6.78
MS.289         	22.525         	6.804
MS.290         	22.48          	6.683
MS.291         	22.435         	6.786
MS.292         	22.39          	6.747
MS.293         	22.345         	6.709
MS.294         	22.302         	6.739
MS.295         	22.257         	6.784
MS.296         	22.212         	6.695
MS.297         	22.167         	6.695
MS.298         	22.125         	6.687
MS.299         	22.08          	6.711
MS.300         	22.035         	6.617
MS.301         	21.993         	6.548
MS.302         	21.948         	6.542
MS.303         	21.903         	6.586
MS.304         	21.86          	6.641
MS.305         	21.815         	6.558
MS.306         	21.772         	6.522
MS.307         	21.73          	6.544
MS.308         	21.685         	6.538
MS.309         	21.642         	6.532
MS.310         	21.6           	6.51
MS.311         	21.555         	6.463
MS.312         	21.512         	6.399
MS.313         	21.47          	6.482
MS.314         	21.427         	6.457
MS.315         	21.385         	6.391
MS.316         	21.342         	6.435
MS.317         	21.3           	6.411
MS.318         	21.257         	6.399
MS.319         	21.215         	6.399
MS.320         	21.172         	6.333
MS.321         	21.13          	6.351
MS.322         	21.087         	6.294
MS.323         	21.045         	6.133
MS.324         	21.002         	6.137
MS.325         	20.96          	6.284
MS.326         	20.92          	6.234
MS.327         	20.877         	6.284
MS.328         	20.835         	6.101
MS.329         	20.795         	6.079
MS.330         	20.752         	6.198
MS.331         	20.71          	6.071
MS.332         	20.67          	6.059
MS.333         	20.627         	6.044
MS.334         	20.587         	6.179
MS.335         	20.545         	6.042
MS.336         	20.505         	6.008
MS.337         	20.462         	6.012
MS.338         	20.422         	6.127
MS.339         	20.382         	5.994
MS.340         	20.342         	5.996
MS.341         	20.3           	5.97
MS.342         	20.26          	5.978
MS.343         	20.22          	5.978
MS.344         	20.18          	6.022
MS.345         	20.14          	5.934
MS.346         	20.097         	5.992
MS.347         	20.057         	5.867
MS.348         	20.017         	5.928
MS.349         	19.977         	5.813
MS.350         	19.938         	5.924
MS.351         	19.897         	5.863
MS.352         	19.86          	5.885
MS.353         	19.82          	5.863
MS.354         	19.78          	5.815
MS.355         	19.74          	5.849
MS.356         	19.7           	5.783
MS.357         	19.663         	5.801
MS.358         	19.622         	5.74
MS.359         	19.583         	5.769
MS.360         	19.542         	5.773
MS.361         	19.505         	5.686
MS.362         	19.465         	5.714
MS.363         	19.427         	5.752
MS.364         	19.387         	5.688
MS.365         	19.35          	5.644
MS.366         	19.31          	5.628
MS.367         	19.272         	5.638
MS.368         	19.233         	5.686
MS.369         	19.195         	5.62
MS.370         	19.157         	5.601
MS.371         	19.118         	5.648
MS.372         	19.08          	5.644
MS.373         	19.042         	5.609
MS.374         	19.005         	5.581
MS.375         	18.965         	5.529
MS.376         	18.927         	5.513
MS.377         	18.89          	5.501
MS.378         	18.852         	5.545
MS.379         	18.815         	5.497
MS.380         	18.778         	5.323
MS.381         	18.74          	5.454
MS.382         	18.702         	5.432
MS.383         	18.665         	5.356
MS.384         	18.628         	5.436
MS.385         	18.59          	5.438
MS.386         	18.552         	5.4
MS.387         	18.517         	5.372
MS.388         	18.48          	5.446
MS.389         	18.442         	5.376
MS.390         	18.405         	5.348
MS.391         	18.37          	5.325
MS.392         	18.333         	5.309
MS.393         	18.295         	5.315
MS.394         	18.26          	5.327
MS.395         	18.222         	5.297
MS.396         	18.185         	5.247
MS.397         	18.15          	5.241
MS.398         	18.112         	5.281
MS.399         	18.077         	5.164
MS.400         	18.04          	5.336
MS.401         	18.005         	5.195
MS.402         	17.97          	5.241
MS.403         	17.932         	5.054
MS.404         	17.897         	5.17
MS.405         	17.862         	5.253
MS.406         	17.825         	5.088
MS.407         	17.79          	5.11
MS.408         	17.755         	5.011
MS.409         	17.72          	4.894
MS.410         	17.685         	4.963
MS.411         	17.647         	4.933
MS.412         	17.612         	5.082
MS.413         	17.577         	4.735
MS.414         	17.542         	4.806
MS.415         	17.507         	4.862
MS.416         	17.472         	4.88
MS.417         	17.438         	4.625
MS.418         	17.403         	4.733
MS.419         	17.368         	4.812
MS.420         	17.333         	4.957
MS.421         	17.3           	4.673
MS.422         	17.265         	4.641
MS.423         	17.23          	4.711
MS.424         	17.195         	4.665
MS.425         	17.163         	4.598
MS.426         	17.128         	4.77
MS.427         	17.092         	4.633
MS.428         	17.057         	4.665
MS.429         	17.025         	4.546
MS.430         	16.99          	4.437
MS.431         	16.958         	4.546
MS.432         	16.922         	4.566
MS.433         	16.89          	4.61
MS.434         	16.855         	4.58
MS.435         	16.823         	4.395
MS.436         	16.788         	4.488
MS.437         	16.755         	4.602
MS.438         	16.72          	4.552
MS.439         	16.688         	4.439
MS.440         	16.655         	4.566
MS.441         	16.62          	4.572
MS.442         	16.587         	4.254
MS.443         	16.555         	4.208
MS.444         	16.522         	4.421
MS.445         	16.487         	4.355
MS.446         	16.455         	4.479
MS.447         	16.422         	4.26
MS.448         	16.39          	4.357
MS.449         	16.358         	4.206
MS.450         	16.325         	4.375
MS.451         	16.292         	4.278
MS.452         	16.26          	4.232
MS.453         	16.227         	4.246
MS.454         	16.195         	4.187
MS.455         	16.163         	4.143
MS.456         	16.13          	4.23
MS.457         	16.097         	4.23
MS.458         	16.065         	4.228
MS.459         	16.032         	4.183
MS.460         	16             	4.246
MS.461         	15.97          	3.97
MS.462         	15.938         	3.895
MS.463         	15.905         	4.177
MS.464         	15.872         	3.976
MS.465         	15.842         	3.914
MS.466         	15.81          	3.801
MS.467         	15.777         	3.827
MS.468         	15.747         	3.762
MS.469         	15.715         	4.002
MS.470         	15.685         	3.94
MS.471         	15.652         	3.811
MS.472         	15.622         	3.857
MS.473         	15.59          	3.617
MS.474         	15.56          	3.827
MS.475         	15.527         	3.666
MS.476         	15.497         	3.648
MS.477         	15.465         	3.783
MS.478         	15.435         	3.489
MS.479         	15.405         	3.613
MS.480         	15.372         	3.766
MS.481         	15.342         	3.408
MS.482         	15.312         	3.587
MS.483         	15.282         	3.579
MS.484         	15.25          	3.67
MS.485         	15.22          	3.674
MS.486         	15.19          	3.71
MS.487         	15.16          	3.513
MS.488         	15.13          	3.484
MS.489         	15.1           	3.609
MS.490         	15.07          	3.597
MS.491         	15.04          	3.462
MS.492         	15.01          	3.668
MS.493         	14.98          	3.666
MS.494         	14.95          	3.525
MS.495         	14.92          	3.595
MS.496         	14.89          	3.392
MS.497         	14.86          	3.499
MS.498         	14.83          	3.553
MS.499         	14.8           	3.422
MS.500         	14.77          	3.422
MS.501         	14.742         	3.329
