File:              	C:\Qtrac\Data\Daniel M Sørensen\MScan multicentre study\Data from centres\Oslo\IronKey\Oslo_NC_first examination\SZC00622C.QZD
Name:              	NO.OSL.NC.22.1
Protocol:          	MSCAN-R2
Date:              	22/6/20
Start time:        	16:50:49
Age:               	23
Sex:               	F
Temperature:       	32.2
S/R sites:         	Peroneal -TA
NC/disease:        	NC22
Operator:          	SZ
Comments:          	Test1
M-SCAN DATA (6.5-1.9m)
Scanpts: 53, 59, 489, 508
Stim. (mA)     	Amp. (mV)
MS.1           	35             	7.906
MS.2           	35             	7.956
MS.3           	35             	7.912
MS.4           	35             	7.847
MS.5           	35             	7.849
MS.6           	35             	7.867
MS.7           	35             	7.863
MS.8           	35             	7.827
MS.9           	35             	7.837
MS.10          	35             	7.833
MS.11          	35             	7.841
MS.12          	35             	7.835
MS.13          	35             	7.843
MS.14          	35             	7.843
MS.15          	35             	7.829
MS.16          	35             	7.845
MS.17          	35             	7.849
MS.18          	35             	7.833
MS.19          	35             	7.831
MS.20          	35             	7.821
MS.21          	35             	7.827
MS.22          	35             	7.827
MS.23          	35             	7.875
MS.24          	34.86          	7.883
MS.25          	34.79          	7.861
MS.26          	34.72          	7.853
MS.27          	34.653         	7.853
MS.28          	34.583         	7.859
MS.29          	34.513         	7.833
MS.30          	34.445         	7.841
MS.31          	34.375         	7.857
MS.32          	34.307         	7.857
MS.33          	34.237         	7.819
MS.34          	34.17          	7.839
MS.35          	34.103         	7.831
MS.36          	34.032         	7.825
MS.37          	33.965         	7.843
MS.38          	33.897         	7.843
MS.39          	33.83          	7.809
MS.40          	33.763         	7.811
MS.41          	33.695         	7.825
MS.42          	33.627         	7.829
MS.43          	33.56          	7.817
MS.44          	33.493         	7.831
MS.45          	33.427         	7.861
MS.46          	33.36          	7.847
MS.47          	33.292         	7.865
MS.48          	33.228         	7.837
MS.49          	33.16          	7.831
MS.50          	33.092         	7.865
MS.51          	33.028         	7.833
MS.52          	32.962         	7.871
MS.53          	32.895         	7.879
MS.54          	32.83          	7.847
MS.55          	32.765         	7.853
MS.56          	32.7           	7.863
MS.57          	32.632         	7.831
MS.58          	32.568         	7.869
MS.59          	32.502         	7.871
MS.60          	32.438         	7.857
MS.61          	32.372         	7.869
MS.62          	32.31          	7.873
MS.63          	32.245         	7.797
MS.64          	32.18          	7.823
MS.65          	32.115         	7.811
MS.66          	32.052         	7.803
MS.67          	31.987         	7.783
MS.68          	31.922         	7.823
MS.69          	31.86          	7.869
MS.70          	31.795         	7.763
MS.71          	31.733         	7.837
MS.72          	31.67          	7.793
MS.73          	31.605         	7.839
MS.74          	31.542         	7.767
MS.75          	31.48          	7.787
MS.76          	31.417         	7.831
MS.77          	31.355         	7.777
MS.78          	31.292         	7.759
MS.79          	31.23          	7.871
MS.80          	31.167         	7.847
MS.81          	31.105         	7.712
MS.82          	31.042         	7.678
MS.83          	30.98          	7.769
MS.84          	30.917         	7.779
MS.85          	30.858         	7.656
MS.86          	30.795         	7.622
MS.87          	30.733         	7.67
MS.88          	30.672         	7.734
MS.89          	30.61          	7.771
MS.90          	30.55          	7.67
MS.91          	30.487         	7.648
MS.92          	30.427         	7.682
MS.93          	30.367         	7.638
MS.94          	30.305         	7.672
MS.95          	30.245         	7.597
MS.96          	30.185         	7.636
MS.97          	30.125         	7.63
MS.98          	30.065         	7.664
MS.99          	30.005         	7.632
MS.100         	29.945         	7.658
MS.101         	29.885         	7.595
MS.102         	29.825         	7.507
MS.103         	29.765         	7.607
MS.104         	29.705         	7.595
MS.105         	29.647         	7.616
MS.106         	29.587         	7.563
MS.107         	29.528         	7.618
MS.108         	29.47          	7.622
MS.109         	29.41          	7.547
MS.110         	29.352         	7.607
MS.111         	29.292         	7.519
MS.112         	29.235         	7.567
MS.113         	29.175         	7.577
MS.114         	29.117         	7.491
MS.115         	29.06          	7.561
MS.116         	29.002         	7.495
MS.117         	28.942         	7.499
MS.118         	28.885         	7.513
MS.119         	28.827         	7.591
MS.120         	28.77          	7.471
MS.121         	28.712         	7.527
MS.122         	28.655         	7.481
MS.123         	28.597         	7.45
MS.124         	28.54          	7.466
MS.125         	28.485         	7.483
MS.126         	28.427         	7.499
MS.127         	28.37          	7.412
MS.128         	28.312         	7.42
MS.129         	28.257         	7.483
MS.130         	28.2           	7.493
MS.131         	28.145         	7.404
MS.132         	28.087         	7.342
MS.133         	28.032         	7.364
MS.134         	27.975         	7.396
MS.135         	27.92          	7.342
MS.136         	27.865         	7.374
MS.137         	27.807         	7.291
MS.138         	27.752         	7.255
MS.139         	27.698         	7.34
MS.140         	27.642         	7.271
MS.141         	27.587         	7.251
MS.142         	27.532         	7.271
MS.143         	27.477         	7.231
MS.144         	27.422         	7.227
MS.145         	27.368         	7.243
MS.146         	27.312         	7.259
MS.147         	27.257         	7.185
MS.148         	27.202         	7.255
MS.149         	27.15          	7.126
MS.150         	27.095         	7.241
MS.151         	27.04          	7.185
MS.152         	26.987         	7.114
MS.153         	26.932         	7.11
MS.154         	26.88          	7.074
MS.155         	26.825         	7.098
MS.156         	26.772         	7.096
MS.157         	26.717         	7.031
MS.158         	26.665         	7.011
MS.159         	26.612         	6.967
MS.160         	26.557         	6.971
MS.161         	26.505         	7.035
MS.162         	26.452         	6.903
MS.163         	26.4           	6.945
MS.164         	26.347         	6.874
MS.165         	26.295         	6.913
MS.166         	26.243         	6.888
MS.167         	26.19          	6.915
MS.168         	26.137         	6.77
MS.169         	26.085         	6.892
MS.170         	26.032         	6.83
MS.171         	25.98          	6.88
MS.172         	25.927         	6.78
MS.173         	25.877         	6.745
MS.174         	25.825         	6.808
MS.175         	25.772         	6.802
MS.176         	25.722         	6.76
MS.177         	25.67          	6.721
MS.178         	25.62          	6.751
MS.179         	25.567         	6.701
MS.180         	25.517         	6.623
MS.181         	25.465         	6.625
MS.182         	25.415         	6.667
MS.183         	25.365         	6.619
MS.184         	25.312         	6.606
MS.185         	25.262         	6.606
MS.186         	25.212         	6.526
MS.187         	25.163         	6.598
MS.188         	25.112         	6.578
MS.189         	25.062         	6.538
MS.190         	25.012         	6.59
MS.191         	24.962         	6.435
MS.192         	24.913         	6.447
MS.193         	24.862         	6.419
MS.194         	24.812         	6.427
MS.195         	24.762         	6.405
MS.196         	24.712         	6.387
MS.197         	24.665         	6.361
MS.198         	24.615         	6.421
MS.199         	24.565         	6.359
MS.200         	24.517         	6.367
MS.201         	24.467         	6.314
MS.202         	24.417         	6.159
MS.203         	24.37          	6.153
MS.204         	24.32          	6.242
MS.205         	24.272         	6.137
MS.206         	24.225         	5.944
MS.207         	24.175         	6.169
MS.208         	24.127         	6.141
MS.209         	24.08          	6.123
MS.210         	24.03          	6.129
MS.211         	23.983         	5.996
MS.212         	23.935         	5.869
MS.213         	23.887         	5.837
MS.214         	23.84          	5.94
MS.215         	23.792         	5.791
MS.216         	23.745         	5.765
MS.217         	23.698         	5.626
MS.218         	23.65          	5.787
MS.219         	23.602         	5.746
MS.220         	23.555         	5.69
MS.221         	23.507         	5.509
MS.222         	23.46          	5.424
MS.223         	23.415         	5.575
MS.224         	23.368         	5.483
MS.225         	23.32          	5.632
MS.226         	23.275         	5.297
MS.227         	23.227         	5.43
MS.228         	23.18          	5.346
MS.229         	23.135         	5.382
MS.230         	23.087         	5.331
MS.231         	23.042         	5.251
MS.232         	22.997         	5.166
MS.233         	22.95          	5.203
MS.234         	22.905         	5.138
MS.235         	22.86          	5.209
MS.236         	22.812         	5.104
MS.237         	22.767         	5.001
MS.238         	22.722         	5.058
MS.239         	22.677         	4.961
MS.240         	22.632         	4.943
MS.241         	22.587         	4.892
MS.242         	22.54          	4.818
MS.243         	22.495         	4.852
MS.244         	22.45          	4.858
MS.245         	22.407         	4.766
MS.246         	22.362         	4.721
MS.247         	22.317         	4.735
MS.248         	22.272         	4.645
MS.249         	22.227         	4.761
MS.250         	22.182         	4.528
MS.251         	22.14          	4.508
MS.252         	22.095         	4.639
MS.253         	22.05          	4.606
MS.254         	22.007         	4.524
MS.255         	21.962         	4.445
MS.256         	21.92          	4.534
MS.257         	21.875         	4.508
MS.258         	21.833         	4.441
MS.259         	21.788         	4.443
MS.260         	21.745         	4.336
MS.261         	21.7           	4.302
MS.262         	21.657         	4.407
MS.263         	21.615         	4.266
MS.264         	21.57          	4.234
MS.265         	21.528         	4.355
MS.266         	21.485         	4.222
MS.267         	21.442         	4.228
MS.268         	21.4           	4.216
MS.269         	21.355         	4.159
MS.270         	21.312         	4.113
MS.271         	21.27          	4.048
MS.272         	21.227         	4.149
MS.273         	21.185         	4.034
MS.274         	21.142         	4.042
MS.275         	21.102         	3.986
MS.276         	21.06          	3.95
MS.277         	21.017         	4.067
MS.278         	20.975         	3.938
MS.279         	20.932         	3.914
MS.280         	20.892         	3.899
MS.281         	20.85          	3.887
MS.282         	20.807         	3.861
MS.283         	20.767         	3.718
MS.284         	20.725         	3.887
MS.285         	20.682         	3.694
MS.286         	20.642         	3.762
MS.287         	20.6           	3.64
MS.288         	20.56          	3.789
MS.289         	20.52          	3.605
MS.290         	20.477         	3.48
MS.291         	20.438         	3.507
MS.292         	20.395         	3.533
MS.293         	20.355         	3.533
MS.294         	20.315         	3.454
MS.295         	20.275         	3.559
MS.296         	20.233         	3.4
MS.297         	20.192         	3.446
MS.298         	20.153         	3.394
MS.299         	20.112         	3.289
MS.300         	20.073         	3.462
MS.301         	20.032         	3.412
MS.302         	19.993         	3.219
MS.303         	19.952         	3.291
MS.304         	19.913         	3.043
MS.305         	19.872         	2.995
MS.306         	19.833         	2.955
MS.307         	19.792         	2.965
MS.308         	19.755         	2.971
MS.309         	19.715         	3.086
MS.310         	19.675         	3.039
MS.311         	19.635         	2.945
MS.312         	19.597         	2.87
MS.313         	19.557         	2.921
MS.314         	19.517         	2.776
MS.315         	19.48          	2.737
MS.316         	19.44          	2.85
MS.317         	19.403         	2.713
MS.318         	19.362         	2.56
MS.319         	19.325         	2.733
MS.320         	19.285         	2.608
MS.321         	19.247         	2.548
MS.322         	19.208         	2.496
MS.323         	19.17          	2.433
MS.324         	19.132         	2.562
MS.325         	19.092         	2.49
MS.326         	19.055         	2.389
MS.327         	19.017         	2.469
MS.328         	18.98          	2.264
MS.329         	18.942         	2.332
MS.330         	18.903         	2.296
MS.331         	18.865         	2.34
MS.332         	18.827         	2.222
MS.333         	18.79          	2.135
MS.334         	18.753         	2.3
MS.335         	18.715         	2.141
MS.336         	18.677         	1.992
MS.337         	18.64          	2.115
MS.338         	18.602         	2.115
MS.339         	18.565         	2.006
MS.340         	18.53          	1.948
MS.341         	18.493         	2.028
MS.342         	18.455         	1.97
MS.343         	18.417         	1.97
MS.344         	18.382         	1.847
MS.345         	18.345         	1.887
MS.346         	18.307         	1.861
MS.347         	18.272         	1.837
MS.348         	18.235         	1.724
MS.349         	18.198         	1.724
MS.350         	18.163         	1.762
MS.351         	18.125         	1.712
MS.352         	18.09          	1.627
MS.353         	18.052         	1.766
MS.354         	18.017         	1.631
MS.355         	17.983         	1.64
MS.356         	17.945         	1.563
MS.357         	17.91          	1.424
MS.358         	17.875         	1.555
MS.359         	17.837         	1.573
MS.360         	17.802         	1.478
MS.361         	17.767         	1.539
MS.362         	17.733         	1.402
MS.363         	17.695         	1.529
MS.364         	17.66          	1.527
MS.365         	17.625         	1.386
MS.366         	17.59          	1.44
MS.367         	17.555         	1.337
MS.368         	17.52          	1.291
MS.369         	17.485         	1.311
MS.370         	17.45          	1.219
MS.371         	17.415         	1.257
MS.372         	17.38          	1.172
MS.373         	17.345         	1.164
MS.374         	17.31          	1.283
MS.375         	17.278         	1.11
MS.376         	17.243         	1.188
MS.377         	17.208         	0.961
MS.378         	17.172         	1.023
MS.379         	17.14          	1.11
MS.380         	17.105         	1.057
MS.381         	17.07          	0.975
MS.382         	17.038         	1.096
MS.383         	17.003         	1.039
MS.384         	16.967         	0.961
MS.385         	16.935         	0.848
MS.386         	16.9           	0.878
MS.387         	16.868         	0.878
MS.388         	16.833         	0.788
MS.389         	16.8           	0.767
MS.390         	16.765         	0.949
MS.391         	16.733         	0.882
MS.392         	16.7           	0.721
MS.393         	16.665         	0.796
MS.394         	16.632         	0.729
MS.395         	16.6           	0.826
MS.396         	16.565         	0.659
MS.397         	16.532         	0.767
MS.398         	16.5           	0.731
MS.399         	16.467         	0.711
MS.400         	16.435         	0.681
MS.401         	16.4           	0.679
MS.402         	16.368         	0.626
MS.403         	16.335         	0.556
MS.404         	16.302         	0.705
MS.405         	16.27          	0.634
MS.406         	16.237         	0.622
MS.407         	16.205         	0.647
MS.408         	16.172         	0.586
MS.409         	16.14          	0.506
MS.410         	16.108         	0.586
MS.411         	16.077         	0.524
MS.412         	16.045         	0.471
MS.413         	16.012         	0.435
MS.414         	15.98          	0.518
MS.415         	15.947         	0.576
MS.416         	15.917         	0.467
MS.417         	15.885         	0.518
MS.418         	15.852         	0.417
MS.419         	15.82          	0.487
MS.420         	15.79          	0.453
MS.421         	15.757         	0.387
MS.422         	15.727         	0.455
MS.423         	15.695         	0.292
MS.424         	15.662         	0.348
MS.425         	15.632         	0.373
MS.426         	15.6           	0.361
MS.427         	15.57          	0.288
MS.428         	15.54          	0.258
MS.429         	15.507         	0.359
MS.430         	15.477         	0.268
MS.431         	15.445         	0.226
MS.432         	15.415         	0.191
MS.433         	15.385         	0.232
MS.434         	15.352         	0.157
MS.435         	15.322         	0.197
MS.436         	15.292         	0.26
MS.437         	15.262         	0.205
MS.438         	15.23          	0.197
MS.439         	15.2           	0.193
MS.440         	15.17          	0.179
MS.441         	15.14          	0.205
MS.442         	15.11          	0.185
MS.443         	15.08          	0.153
MS.444         	15.05          	0.159
MS.445         	15.02          	0.077
MS.446         	14.99          	0.129
MS.447         	14.96          	0.129
MS.448         	14.93          	0.097
MS.449         	14.9           	0.079
MS.450         	14.87          	0.079
MS.451         	14.84          	0.046
MS.452         	14.81          	0.077
MS.453         	14.78          	0.089
MS.454         	14.752         	0.103
MS.455         	14.722         	0.058
MS.456         	14.693         	-0.004
MS.457         	14.662         	0.056
MS.458         	14.635         	0.052
MS.459         	14.605         	0.081
MS.460         	14.575         	0.058
MS.461         	14.547         	0.036
MS.462         	14.517         	0.024
MS.463         	14.487         	0.028
MS.464         	14.46          	0.052
MS.465         	14.43          	0.093
MS.466         	14.403         	0.036
MS.467         	14.372         	-0.018
MS.468         	14.345         	0.058
MS.469         	14.315         	-0.014
MS.470         	14.287         	-0.018
MS.471         	14.257         	-0.022
MS.472         	14.23          	-0.026
MS.473         	14.202         	0.02
MS.474         	14.172         	-0.014
MS.475         	14.145         	-0.014
MS.476         	14.117         	-0.014
MS.477         	14.087         	0.03
MS.478         	14.06          	-0.02
MS.479         	14.032         	0.032
MS.480         	14.005         	0.028
MS.481         	13.975         	-0.012
MS.482         	13.947         	-0.012
MS.483         	13.92          	-0.016
MS.484         	13.892         	-0.01
MS.485         	13.865         	-0.016
MS.486         	13.837         	-0.012
MS.487         	13.81          	-0.012
MS.488         	13.782         	-0.01
MS.489         	13.755         	0.000
MS.490         	13.727         	-0.018
MS.491         	13.7           	-0.022
MS.492         	13.672         	-0.016
MS.493         	13.645         	-0.018
MS.494         	13.617         	-0.01
MS.495         	13.59          	-0.02
MS.496         	13.562         	-0.016
MS.497         	13.535         	-0.01
MS.498         	13.51          	-0.012
MS.499         	13.483         	-0.016
