File:              	C:\Qtrac\Data\Daniel M Sørensen\MScan multicentre study\Data from centres\Oslo\Processed data\SZC00714F.QZD
Name:              	NO.OSL.NC.24.2
Protocol:          	MSCAN-R2
Date:              	14/7/20
Start time:        	17:07:34
Age:               	24
Sex:               	M
Temperature:       	34.2
S/R sites:         	ADM
NC/disease:        	NC24
Operator:          	SZ
Comments:          	Test2
M-SCAN DATA (8.2-4.8m)
Scanpts: 67, 76, 352, 366
Stim. (mA)     	Amp. (mV)
MS.1           	20             	10.816
MS.2           	20             	10.866
MS.3           	20             	11.251
MS.4           	20             	11.396
MS.5           	20             	11.438
MS.6           	20             	11.561
MS.7           	20             	11.487
MS.8           	20             	11.485
MS.9           	20             	11.626
MS.10          	20             	11.674
MS.11          	20             	11.656
MS.12          	20             	11.676
MS.13          	20             	11.71
MS.14          	20             	11.809
MS.15          	20             	12.006
MS.16          	20             	11.732
MS.17          	20             	11.908
MS.18          	20             	11.839
MS.19          	20             	11.982
MS.20          	20             	11.982
MS.21          	20             	12.039
MS.22          	20             	11.853
MS.23          	20             	11.976
MS.24          	19.92          	11.898
MS.25          	19.88          	11.888
MS.26          	19.84          	11.93
MS.27          	19.8           	11.958
MS.28          	19.762         	11.966
MS.29          	19.722         	11.962
MS.30          	19.682         	11.962
MS.31          	19.642         	12.023
MS.32          	19.605         	12.047
MS.33          	19.565         	12
MS.34          	19.525         	11.984
MS.35          	19.487         	12.016
MS.36          	19.448         	12.065
MS.37          	19.41          	12.079
MS.38          	19.37          	12.067
MS.39          	19.333         	12.067
MS.40          	19.292         	12.089
MS.41          	19.255         	12.099
MS.42          	19.215         	12.119
MS.43          	19.177         	12.067
MS.44          	19.14          	12.115
MS.45          	19.1           	12.139
MS.46          	19.062         	12.17
MS.47          	19.025         	12.178
MS.48          	18.987         	12.198
MS.49          	18.948         	12.218
MS.50          	18.91          	12.222
MS.51          	18.872         	12.17
MS.52          	18.835         	12.151
MS.53          	18.797         	12.059
MS.54          	18.76          	12.234
MS.55          	18.722         	12.143
MS.56          	18.685         	12.111
MS.57          	18.647         	12.186
MS.58          	18.61          	12.178
MS.59          	18.573         	12.089
MS.60          	18.535         	12.107
MS.61          	18.5           	12.085
MS.62          	18.462         	12.186
MS.63          	18.425         	12.161
MS.64          	18.387         	12.125
MS.65          	18.352         	12.166
MS.66          	18.315         	12.188
MS.67          	18.278         	12.214
MS.68          	18.243         	12.182
MS.69          	18.205         	12.166
MS.70          	18.17          	12.184
MS.71          	18.132         	12.216
MS.72          	18.097         	12.153
MS.73          	18.06          	12.206
MS.74          	18.025         	12.125
MS.75          	17.987         	12.115
MS.76          	17.952         	12.182
MS.77          	17.917         	12.216
MS.78          	17.88          	12.246
MS.79          	17.845         	12.208
MS.80          	17.81          	12.196
MS.81          	17.775         	12.194
MS.82          	17.737         	12.218
MS.83          	17.702         	12.24
MS.84          	17.667         	12.329
MS.85          	17.632         	12.182
MS.86          	17.597         	12.278
MS.87          	17.562         	12.157
MS.88          	17.528         	12.236
MS.89          	17.493         	12.174
MS.90          	17.458         	12.039
MS.91          	17.422         	12.234
MS.92          	17.387         	12.226
MS.93          	17.352         	12.305
MS.94          	17.317         	12.276
MS.95          	17.282         	12.184
MS.96          	17.247         	12.127
MS.97          	17.215         	12.025
MS.98          	17.18          	12.143
MS.99          	17.145         	12.047
MS.100         	17.11          	12.343
MS.101         	17.077         	12.26
MS.102         	17.042         	12.309
MS.103         	17.01          	12.101
MS.104         	16.975         	11.829
MS.105         	16.94          	12.075
MS.106         	16.907         	12.057
MS.107         	16.872         	12.224
MS.108         	16.84          	12.121
MS.109         	16.805         	11.922
MS.110         	16.772         	12.018
MS.111         	16.74          	12.031
MS.112         	16.705         	12.025
MS.113         	16.672         	11.837
MS.114         	16.637         	11.829
MS.115         	16.605         	11.986
MS.116         	16.573         	12.147
MS.117         	16.54          	11.843
MS.118         	16.505         	11.807
MS.119         	16.472         	11.902
MS.120         	16.44          	11.795
MS.121         	16.407         	11.918
MS.122         	16.375         	11.928
MS.123         	16.342         	11.811
MS.124         	16.31          	11.761
MS.125         	16.278         	11.867
MS.126         	16.245         	11.658
MS.127         	16.212         	11.658
MS.128         	16.18          	11.596
MS.129         	16.147         	11.555
MS.130         	16.115         	11.781
MS.131         	16.083         	11.164
MS.132         	16.05          	11.295
MS.133         	16.017         	11.539
MS.134         	15.985         	11.344
MS.135         	15.955         	11.412
MS.136         	15.922         	11.37
MS.137         	15.89          	11.442
MS.138         	15.86          	11.316
MS.139         	15.827         	11.118
MS.140         	15.795         	10.786
MS.141         	15.765         	10.864
MS.142         	15.733         	10.705
MS.143         	15.7           	10.5
MS.144         	15.67          	10.566
MS.145         	15.637         	10.375
MS.146         	15.608         	10.268
MS.147         	15.575         	10.627
MS.148         	15.545         	10.236
MS.149         	15.515         	9.978
MS.150         	15.483         	9.936
MS.151         	15.452         	10.016
MS.152         	15.42          	9.914
MS.153         	15.39          	10.059
MS.154         	15.36          	10.026
MS.155         	15.327         	9.412
MS.156         	15.297         	9.535
MS.157         	15.267         	9.483
MS.158         	15.237         	9.604
MS.159         	15.207         	9.434
MS.160         	15.175         	9.273
MS.161         	15.145         	9.309
MS.162         	15.115         	9.076
MS.163         	15.085         	9.245
MS.164         	15.055         	8.893
MS.165         	15.025         	9.092
MS.166         	14.995         	8.764
MS.167         	14.965         	9.247
MS.168         	14.935         	8.596
MS.169         	14.905         	8.617
MS.170         	14.875         	8.576
MS.171         	14.845         	8.296
MS.172         	14.818         	8.584
MS.173         	14.787         	8.327
MS.174         	14.757         	8.216
MS.175         	14.727         	8.437
MS.176         	14.697         	7.996
MS.177         	14.67          	8.121
MS.178         	14.64          	8.053
MS.179         	14.61          	7.513
MS.180         	14.58          	7.587
MS.181         	14.552         	7.172
MS.182         	14.523         	7.215
MS.183         	14.495         	7.44
MS.184         	14.465         	7.255
MS.185         	14.435         	6.764
MS.186         	14.407         	6.794
MS.187         	14.377         	6.78
MS.188         	14.35          	6.768
MS.189         	14.32          	6.463
MS.190         	14.292         	6.669
MS.191         	14.265         	6.262
MS.192         	14.235         	6.433
MS.193         	14.207         	6.296
MS.194         	14.177         	6.292
MS.195         	14.15          	6.185
MS.196         	14.122         	6.067
MS.197         	14.092         	6.405
MS.198         	14.065         	6.123
MS.199         	14.037         	5.99
MS.200         	14.01          	5.831
MS.201         	13.983         	6.008
MS.202         	13.952         	5.563
MS.203         	13.925         	5.728
MS.204         	13.898         	5.63
MS.205         	13.87          	5.521
MS.206         	13.842         	5.327
MS.207         	13.815         	5.209
MS.208         	13.787         	5.058
MS.209         	13.76          	5.122
MS.210         	13.733         	5.368
MS.211         	13.705         	5.128
MS.212         	13.677         	5.319
MS.213         	13.65          	4.711
MS.214         	13.622         	4.866
MS.215         	13.595         	4.502
MS.216         	13.568         	4.925
MS.217         	13.54          	4.3
MS.218         	13.515         	4.02
MS.219         	13.487         	4.216
MS.220         	13.46          	4.455
MS.221         	13.432         	3.811
MS.222         	13.407         	3.434
MS.223         	13.38          	3.938
MS.224         	13.352         	3.376
MS.225         	13.325         	3.472
MS.226         	13.3           	3.609
MS.227         	13.273         	3.404
MS.228         	13.247         	3.053
MS.229         	13.22          	3.281
MS.230         	13.193         	3.045
MS.231         	13.167         	3.251
MS.232         	13.14          	2.929
MS.233         	13.115         	3.162
MS.234         	13.087         	3.237
MS.235         	13.062         	3.128
MS.236         	13.035         	3.053
MS.237         	13.01          	2.836
MS.238         	12.985         	2.862
MS.239         	12.957         	3.078
MS.240         	12.932         	2.679
MS.241         	12.907         	2.838
MS.242         	12.88          	2.504
MS.243         	12.855         	2.757
MS.244         	12.83          	2.373
MS.245         	12.802         	2.369
MS.246         	12.778         	2.306
MS.247         	12.752         	2.767
MS.248         	12.727         	2.369
MS.249         	12.702         	2.318
MS.250         	12.675         	2.31
MS.251         	12.65          	2.161
MS.252         	12.625         	2.222
MS.253         	12.6           	1.875
MS.254         	12.575         	1.716
MS.255         	12.55          	2.262
MS.256         	12.525         	2.224
MS.257         	12.5           	1.966
MS.258         	12.475         	1.72
MS.259         	12.45          	2.111
MS.260         	12.425         	1.484
MS.261         	12.4           	1.259
MS.262         	12.375         	1.257
MS.263         	12.35          	1.112
MS.264         	12.325         	1.162
MS.265         	12.302         	1.186
MS.266         	12.278         	1.049
MS.267         	12.252         	1.221
MS.268         	12.227         	1.211
MS.269         	12.202         	0.896
MS.270         	12.18          	0.924
MS.271         	12.155         	0.943
MS.272         	12.13          	0.935
MS.273         	12.108         	1.547
MS.274         	12.082         	0.914
MS.275         	12.057         	1.255
MS.276         	12.035         	1.023
MS.277         	12.01          	1.057
MS.278         	11.985         	0.773
MS.279         	11.962         	0.757
MS.280         	11.938         	0.89
MS.281         	11.915         	0.749
MS.282         	11.89          	0.689
MS.283         	11.867         	0.602
MS.284         	11.842         	0.767
MS.285         	11.82          	0.753
MS.286         	11.795         	0.643
MS.287         	11.773         	0.699
MS.288         	11.747         	0.524
MS.289         	11.725         	0.874
MS.290         	11.702         	0.61
MS.291         	11.677         	0.57
MS.292         	11.655         	0.546
MS.293         	11.632         	0.504
MS.294         	11.608         	0.481
MS.295         	11.585         	0.344
MS.296         	11.562         	0.506
MS.297         	11.54          	0.395
MS.298         	11.515         	0.288
MS.299         	11.492         	0.359
MS.300         	11.47          	0.59
MS.301         	11.447         	0.421
MS.302         	11.425         	0.417
MS.303         	11.403         	0.453
MS.304         	11.377         	0.379
MS.305         	11.355         	0.338
MS.306         	11.332         	0.375
MS.307         	11.31          	0.379
MS.308         	11.287         	0.296
MS.309         	11.265         	0.383
MS.310         	11.242         	0.131
MS.311         	11.22          	0.189
MS.312         	11.197         	0.312
MS.313         	11.175         	0.25
MS.314         	11.153         	0.189
MS.315         	11.13          	0.181
MS.316         	11.108         	0.169
MS.317         	11.087         	0.165
MS.318         	11.065         	0.236
MS.319         	11.042         	0.167
MS.320         	11.02          	0.218
MS.321         	10.997         	0.185
MS.322         	10.975         	0.228
MS.323         	10.955         	0.141
MS.324         	10.932         	0.113
MS.325         	10.91          	0.203
MS.326         	10.887         	0.127
MS.327         	10.867         	0.073
MS.328         	10.845         	0.127
MS.329         	10.823         	0.187
MS.330         	10.802         	0.105
MS.331         	10.78          	0.163
MS.332         	10.76          	0.23
MS.333         	10.738         	0.159
MS.334         	10.715         	0.185
MS.335         	10.695         	0.24
MS.336         	10.672         	0.149
MS.337         	10.653         	0.125
MS.338         	10.63          	0.127
MS.339         	10.61          	0.121
MS.340         	10.587         	0.169
MS.341         	10.568         	0.131
MS.342         	10.545         	0.26
MS.343         	10.525         	0.089
MS.344         	10.502         	0.205
MS.345         	10.483         	0.137
MS.346         	10.462         	0.161
MS.347         	10.44          	0.137
MS.348         	10.42          	0.145
MS.349         	10.4           	0.093
MS.350         	10.377         	0.165
MS.351         	10.358         	0.149
MS.352         	10.337         	0.167
MS.353         	10.318         	0.191
MS.354         	10.295         	0.139
MS.355         	10.275         	0.145
MS.356         	10.255         	0.133
MS.357         	10.235         	0.127
MS.358         	10.212         	0.163
MS.359         	10.193         	0.145
MS.360         	10.172         	0.137
MS.361         	10.153         	0.201
MS.362         	10.132         	0.121
MS.363         	10.113         	0.157
MS.364         	10.092         	0.159
MS.365         	10.073         	0.207
MS.366         	10.052         	0.129
MS.367         	10.032         	0.101
MS.368         	10.012         	0.203
MS.369         	9.992          	0.203
MS.370         	9.972          	0.085
MS.371         	9.952          	0.099
MS.372         	9.932          	0.133
MS.373         	9.912          	0.262
MS.374         	9.892          	0.121
MS.375         	9.872          	0.058
MS.376         	9.852          	0.038
MS.377         	9.832          	0.131
MS.378         	9.812          	0.185
MS.379         	9.792          	0.171
MS.380         	9.775          	0.169
MS.381         	9.755          	0.068
MS.382         	9.735          	0.149
MS.383         	9.715          	0.012
MS.384         	9.695          	0.04
MS.385         	9.677          	0.119
DERIVED EXCITABILITY VARIABLES
Program = QTracP 3/4/2020
Threshold method = 6 (optimised for CAP, using data for present condition only)
SR method = 1 (using actual data values)
6.                 	0.000               	Peak response\(mV)
9.                 	34.2                	Temperature ( C)
17.                	24                  	Age (years)
18.                	1                   	Sex (M=1, F=2)

EXTRA VARIABLES

MScPeak(mV) = 11.5
MScS5(mA) = 11.62
MScS50(mA) = 13.97
MScS95(mA) = 17.9
MScNSteps = 4
MScSteps(%) = 11.7
MScStepMax(%) = 3.6
MScD50 = 36
MScSlope = 7.14
MSFPeakAmp(mV) = 12
MSFNUnits = 144
MSFMeanUnitAmp(uV) = 83.5
MSFHuntTime(m) = 2.05
MSFError(%) = 10
MSFNLarge = 46.5
MSFMedianAmp(%) = 0.594
MSFMedianAmp(mV) = 0.0714
MSFHalfAmpAmp(%) = 0.706
MSFHalfAmpAmp(mV) = 0.0848
MSFLargestAmp(%) = 2.06
MSFLargestAmp(mV) = 0.248
MSFMeanRS(%) = 2
MSFOpts = 10106121
MScDuration(min) = 3.4
MSFTraces = 300
MSFSizeLimit(uV) = 30
MSFLimitType = 1
MSFSmallestAmp(uV) = 34.9

EXTRA WAVEFORMS


!MScan Model
!144
	1	11.15	0.55	2
	2	11.26	0.49	2
	3	11.46	0.91	2
	4	11.62	1.02	2
	5	11.75	0.91	2
	6	11.87	1.46	2
	7	12.15	2.06	2
	8	12.28	1.79	2
	9	12.33	0.46	2
	10	12.38	1.04	2
	11	12.42	1.19	2
	12	12.46	0.7	2
	13	12.5	1.5	2
	14	12.58	1.71	2
	15	12.66	1.52	2
	16	12.74	1.51	2
	17	12.79	0.72	2
	18	12.82	0.68	2
	19	12.86	0.71	2
	20	12.92	0.94	2
	21	12.98	0.57	2
	22	13.05	1.09	2
	23	13.12	1.52	2
	24	13.18	0.89	2
	25	13.24	1.21	2
	26	13.28	0.91	2
	27	13.31	0.53	2
	28	13.34	0.58	2
	29	13.36	0.74	2
	30	13.39	0.85	2
	31	13.42	0.84	2
	32	13.44	0.82	2
	33	13.47	0.81	2
	34	13.49	0.83	2
	35	13.52	0.88	2
	36	13.55	0.94	2
	37	13.58	1.19	2
	38	13.62	1.25	2
	39	13.65	1.03	2
	40	13.68	0.88	2
	41	13.71	0.76	2
	42	13.74	0.61	2
	43	13.76	0.64	2
	44	13.79	0.76	2
	45	13.81	0.64	2
	46	13.83	0.61	2
	47	13.85	0.52	2
	48	13.87	0.47	2
	49	13.89	0.45	2
	50	13.91	0.33	2
	51	13.93	0.29	2
	52	13.95	0.39	2
	53	13.97	0.42	2
	54	13.99	0.44	2
	55	14.01	0.52	2
	56	14.03	0.53	2
	57	14.05	0.54	2
	58	14.08	0.49	2
	59	14.1	0.44	2
	60	14.12	0.44	2
	61	14.15	0.45	2
	62	14.17	0.46	2
	63	14.19	0.54	2
	64	14.21	0.56	2
	65	14.24	0.52	2
	66	14.26	0.5	2
	67	14.28	0.38	2
	68	14.29	0.36	2
	69	14.31	0.34	2
	70	14.33	0.35	2
	71	14.34	0.37	2
	72	14.36	0.44	2
	73	14.38	0.48	2
	74	14.39	0.48	2
	75	14.41	0.47	2
	76	14.42	0.41	2
	77	14.44	0.41	2
	78	14.45	0.4	2
	79	14.46	0.4	2
	80	14.48	0.4	2
	81	14.49	0.4	2
	82	14.51	0.45	2
	83	14.52	0.46	2
	84	14.53	0.47	2
	85	14.55	0.47	2
	86	14.57	0.61	2
	87	14.59	0.67	2
	88	14.61	0.65	2
	89	14.63	0.5	2
	90	14.65	0.5	2
	91	14.67	0.6	2
	92	14.69	0.62	2
	93	14.71	0.74	2
	94	14.74	0.87	2
	95	14.76	0.85	2
	96	14.79	0.75	2
	97	14.82	0.65	2
	98	14.85	0.66	2
	99	14.88	0.68	2
	100	14.9	0.71	2
	101	14.93	0.75	2
	102	14.96	0.61	2
	103	14.99	0.59	2
	104	15.02	0.59	2
	105	15.05	0.6	2
	106	15.08	0.61	2
	107	15.11	0.61	2
	108	15.13	0.6	2
	109	15.16	0.53	2
	110	15.18	0.48	2
	111	15.21	0.48	2
	112	15.23	0.43	2
	113	15.25	0.47	2
	114	15.28	0.48	2
	115	15.3	0.49	2
	116	15.32	0.52	2
	117	15.35	0.51	2
	118	15.37	0.45	2
	119	15.4	0.43	2
	120	15.42	0.49	2
	121	15.45	0.5	2
	122	15.47	0.51	2
	123	15.5	0.52	2
	124	15.52	0.57	2
	125	15.55	0.67	2
	126	15.57	0.63	2
	127	15.6	0.6	2
	128	15.62	0.56	2
	129	15.64	0.52	2
	130	15.66	0.49	2
	131	15.69	0.35	2
	132	15.71	0.38	2
	133	15.73	0.49	2
	134	15.75	0.52	2
	135	15.78	0.69	2
	136	15.82	0.91	2
	137	15.86	0.59	2
	138	15.9	0.65	2
	139	15.96	1.11	2
	140	16.05	1.64	2
	141	16.15	1.08	2
	142	16.25	0.74	2
	143	16.48	1.73	2
	144	16.82	1.3	2

