File:              	C:\Qtrac\Data\Daniel M Sørensen\MScan multicentre study\Data from centres\Oslo\IronKey\Oslo_NC_first examination\SZC00514B.QZD
Name:              	NO.OSL.NC.11.1
Protocol:          	MSCAN-R2
Date:              	14/5/20
Start time:        	16:56:58
Age:               	44
Sex:               	M
Temperature:       	34.1
S/R sites:         	Ulnar Wr-ADM
NC/disease:        	NC11
Operator:          	SZ
Comments:          	Test1
M-SCAN DATA (9.2-4.1m)
Scanpts: 12, 18, 509, 517
Stim. (mA)     	Amp. (mV)
MS.1           	34             	11.217
MS.2           	34             	11.197
MS.3           	34             	11.191
MS.4           	34             	11.277
MS.5           	34             	11.211
MS.6           	34             	11.189
MS.7           	34             	11.16
MS.8           	34             	11.191
MS.9           	34             	11.146
MS.10          	34             	11.245
MS.11          	34             	11.207
MS.12          	34             	11.191
MS.13          	34             	11.201
MS.14          	34             	11.177
MS.15          	34             	11.183
MS.16          	34             	11.158
MS.17          	34             	11.187
MS.18          	34             	11.179
MS.19          	34             	11.167
MS.20          	34             	11.199
MS.21          	34             	11.205
MS.22          	34             	11.171
MS.23          	34             	11.197
MS.24          	33.865         	11.189
MS.25          	33.798         	11.16
MS.26          	33.73          	11.16
MS.27          	33.662         	11.136
MS.28          	33.595         	11.173
MS.29          	33.528         	11.138
MS.30          	33.46          	11.124
MS.31          	33.392         	11.126
MS.32          	33.327         	11.136
MS.33          	33.26          	11.16
MS.34          	33.193         	11.108
MS.35          	33.127         	11.108
MS.36          	33.06          	11.124
MS.37          	32.995         	11.136
MS.38          	32.93          	11.106
MS.39          	32.862         	11.134
MS.40          	32.798         	11.038
MS.41          	32.732         	11.072
MS.42          	32.667         	11.034
MS.43          	32.603         	11.092
MS.44          	32.537         	11.036
MS.45          	32.472         	11.096
MS.46          	32.407         	11.128
MS.47          	32.342         	11.11
MS.48          	32.278         	11.108
MS.49          	32.212         	11.126
MS.50          	32.147         	11.08
MS.51          	32.085         	11.118
MS.52          	32.02          	11.082
MS.53          	31.955         	11.054
MS.54          	31.892         	11.038
MS.55          	31.827         	11.084
MS.56          	31.765         	11.015
MS.57          	31.702         	11.015
MS.58          	31.637         	11.019
MS.59          	31.575         	10.997
MS.60          	31.512         	11.021
MS.61          	31.448         	10.955
MS.62          	31.385         	10.963
MS.63          	31.323         	11.005
MS.64          	31.26          	10.957
MS.65          	31.198         	10.951
MS.66          	31.135         	11.001
MS.67          	31.073         	10.977
MS.68          	31.012         	10.965
MS.69          	30.95          	10.989
MS.70          	30.887         	10.919
MS.71          	30.825         	10.969
MS.72          	30.765         	10.885
MS.73          	30.702         	10.925
MS.74          	30.642         	10.917
MS.75          	30.58          	10.935
MS.76          	30.52          	10.911
MS.77          	30.457         	10.794
MS.78          	30.397         	10.901
MS.79          	30.337         	10.715
MS.80          	30.275         	10.864
MS.81          	30.215         	10.852
MS.82          	30.155         	10.889
MS.83          	30.095         	10.85
MS.84          	30.035         	10.693
MS.85          	29.975         	10.878
MS.86          	29.915         	10.832
MS.87          	29.855         	10.85
MS.88          	29.795         	10.856
MS.89          	29.735         	10.74
MS.90          	29.677         	10.776
MS.91          	29.617         	10.748
MS.92          	29.557         	10.798
MS.93          	29.5           	10.766
MS.94          	29.44          	10.635
MS.95          	29.382         	10.693
MS.96          	29.323         	10.731
MS.97          	29.265         	10.631
MS.98          	29.205         	10.699
MS.99          	29.147         	10.683
MS.100         	29.09          	10.578
MS.101         	29.03          	10.532
MS.102         	28.972         	10.556
MS.103         	28.915         	10.55
MS.104         	28.858         	10.437
MS.105         	28.8           	10.53
MS.106         	28.743         	10.55
MS.107         	28.685         	10.451
MS.108         	28.627         	10.46
MS.109         	28.57          	10.528
MS.110         	28.512         	10.447
MS.111         	28.455         	10.518
MS.112         	28.4           	10.512
MS.113         	28.342         	10.361
MS.114         	28.285         	10.405
MS.115         	28.23          	10.413
MS.116         	28.172         	10.433
MS.117         	28.118         	10.466
MS.118         	28.06          	10.369
MS.119         	28.005         	10.347
MS.120         	27.948         	10.333
MS.121         	27.892         	10.31
MS.122         	27.837         	10.238
MS.123         	27.78          	10.256
MS.124         	27.725         	10.294
MS.125         	27.67          	10.121
MS.126         	27.615         	10.272
MS.127         	27.56          	10.214
MS.128         	27.505         	10.26
MS.129         	27.45          	10.196
MS.130         	27.395         	10.27
MS.131         	27.34          	10.286
MS.132         	27.285         	10.272
MS.133         	27.23          	10.198
MS.134         	27.177         	10.2
MS.135         	27.122         	10.19
MS.136         	27.067         	10.18
MS.137         	27.015         	10.262
MS.138         	26.96          	10.192
MS.139         	26.905         	10.198
MS.140         	26.852         	10.099
MS.141         	26.8           	10.165
MS.142         	26.745         	10.172
MS.143         	26.692         	10.129
MS.144         	26.637         	10.113
MS.145         	26.585         	10.049
MS.146         	26.532         	10.085
MS.147         	26.48          	10.145
MS.148         	26.425         	10.129
MS.149         	26.372         	10.067
MS.150         	26.32          	10.21
MS.151         	26.267         	10.129
MS.152         	26.215         	10.095
MS.153         	26.162         	10.194
MS.154         	26.11          	10.095
MS.155         	26.06          	9.982
MS.156         	26.007         	9.938
MS.157         	25.955         	10.045
MS.158         	25.903         	10.109
MS.159         	25.85          	10.004
MS.160         	25.8           	9.964
MS.161         	25.747         	9.696
MS.162         	25.698         	9.865
MS.163         	25.645         	9.96
MS.164         	25.595         	9.573
MS.165         	25.542         	9.714
MS.166         	25.493         	9.43
MS.167         	25.44          	9.698
MS.168         	25.39          	9.591
MS.169         	25.34          	9.618
MS.170         	25.288         	9.604
MS.171         	25.237         	9.608
MS.172         	25.188         	9.458
MS.173         	25.137         	9.591
MS.174         	25.087         	9.257
MS.175         	25.038         	9.446
MS.176         	24.987         	9.604
MS.177         	24.938         	9.485
MS.178         	24.887         	9.309
MS.179         	24.837         	9.428
MS.180         	24.788         	9.444
MS.181         	24.737         	9.467
MS.182         	24.69          	9.146
MS.183         	24.64          	9.386
MS.184         	24.59          	9.164
MS.185         	24.542         	9.338
MS.186         	24.493         	8.973
MS.187         	24.442         	9.291
MS.188         	24.395         	9.082
MS.189         	24.345         	9.09
MS.190         	24.297         	9.36
MS.191         	24.247         	9.156
MS.192         	24.2           	9.259
MS.193         	24.153         	9.263
MS.194         	24.102         	9.072
MS.195         	24.055         	8.655
MS.196         	24.007         	8.983
MS.197         	23.96          	8.941
MS.198         	23.913         	8.997
MS.199         	23.862         	8.647
MS.200         	23.815         	8.943
MS.201         	23.767         	8.351
MS.202         	23.72          	8.979
MS.203         	23.672         	9.005
MS.204         	23.625         	8.961
MS.205         	23.58          	8.909
MS.206         	23.532         	9.005
MS.207         	23.485         	9.017
MS.208         	23.438         	8.6
MS.209         	23.39          	8.939
MS.210         	23.345         	9.07
MS.211         	23.297         	8.552
MS.212         	23.25          	9.015
MS.213         	23.205         	9.128
MS.214         	23.157         	8.602
MS.215         	23.112         	8.556
MS.216         	23.065         	8.679
MS.217         	23.02          	8.538
MS.218         	22.975         	8.516
MS.219         	22.927         	8.482
MS.220         	22.882         	8.516
MS.221         	22.837         	8.393
MS.222         	22.79          	8.381
MS.223         	22.745         	8.393
MS.224         	22.7           	8.27
MS.225         	22.655         	8.32
MS.226         	22.61          	8.298
MS.227         	22.565         	8.405
MS.228         	22.52          	8.24
MS.229         	22.475         	8.208
MS.230         	22.43          	8.103
MS.231         	22.385         	7.958
MS.232         	22.34          	8.135
MS.233         	22.295         	8.008
MS.234         	22.25          	7.912
MS.235         	22.205         	8.016
MS.236         	22.163         	7.73
MS.237         	22.118         	8.105
MS.238         	22.073         	7.978
MS.239         	22.03          	7.72
MS.240         	21.985         	7.875
MS.241         	21.94          	7.765
MS.242         	21.897         	7.789
MS.243         	21.852         	7.74
MS.244         	21.81          	7.436
MS.245         	21.765         	7.271
MS.246         	21.722         	7.424
MS.247         	21.68          	7.605
MS.248         	21.635         	7.442
MS.249         	21.592         	7.74
MS.250         	21.55          	7.166
MS.251         	21.507         	7.285
MS.252         	21.462         	6.957
MS.253         	21.42          	7.243
MS.254         	21.377         	6.8
MS.255         	21.335         	7.273
MS.256         	21.292         	7.017
MS.257         	21.25          	6.985
MS.258         	21.208         	6.86
MS.259         	21.165         	6.411
MS.260         	21.122         	6.314
MS.261         	21.08          	6.079
MS.262         	21.038         	6.137
MS.263         	20.997         	6.373
MS.264         	20.955         	6.5
MS.265         	20.913         	6.502
MS.266         	20.87          	6.107
MS.267         	20.83          	6.069
MS.268         	20.788         	6.56
MS.269         	20.745         	10.055
MS.270         	20.705         	5.718
MS.271         	20.663         	4.218
MS.272         	20.622         	5.045
MS.273         	20.58          	4.282
MS.274         	20.54          	4.953
MS.275         	20.497         	4.508
MS.276         	20.458         	4.56
MS.277         	20.417         	5.201
MS.278         	20.375         	4.343
MS.279         	20.335         	3.835
MS.280         	20.295         	4.351
MS.281         	20.255         	4.389
MS.282         	20.212         	3.466
MS.283         	20.172         	3.537
MS.284         	20.132         	3.732
MS.285         	20.092         	4.208
MS.286         	20.052         	4.189
MS.287         	20.012         	3.426
MS.288         	19.972         	3.315
MS.289         	19.932         	3.754
MS.290         	19.892         	3.281
MS.291         	19.852         	3.597
MS.292         	19.812         	3.354
MS.293         	19.775         	3.297
MS.294         	19.735         	3.277
MS.295         	19.695         	3.341
MS.296         	19.655         	3.132
MS.297         	19.615         	3.118
MS.298         	19.577         	3.287
MS.299         	19.538         	3.295
MS.300         	19.5           	3.356
MS.301         	19.46          	2.904
MS.302         	19.42          	3.142
MS.303         	19.382         	3.035
MS.304         	19.342         	2.834
MS.305         	19.305         	3.092
MS.306         	19.267         	2.753
MS.307         	19.227         	3.106
MS.308         	19.19          	3.011
MS.309         	19.15          	2.721
MS.310         	19.112         	3.029
MS.311         	19.075         	2.502
MS.312         	19.038         	2.971
MS.313         	18.997         	3.06
MS.314         	18.96          	2.657
MS.315         	18.922         	3.039
MS.316         	18.885         	2.725
MS.317         	18.847         	2.413
MS.318         	18.81          	2.693
MS.319         	18.772         	2.544
MS.320         	18.735         	2.431
MS.321         	18.698         	2.487
MS.322         	18.66          	2.173
MS.323         	18.622         	2.216
MS.324         	18.585         	2.032
MS.325         	18.547         	2.459
MS.326         	18.51          	2.03
MS.327         	18.475         	2.453
MS.328         	18.438         	2.439
MS.329         	18.4           	2.01
MS.330         	18.362         	1.885
MS.331         	18.327         	1.754
MS.332         	18.29          	1.946
MS.333         	18.253         	1.77
MS.334         	18.217         	1.817
MS.335         	18.18          	1.535
MS.336         	18.145         	1.869
MS.337         	18.108         	1.664
MS.338         	18.073         	1.859
MS.339         	18.035         	1.672
MS.340         	18             	1.696
MS.341         	17.965         	1.74
MS.342         	17.927         	1.656
MS.343         	17.892         	1.49
MS.344         	17.858         	1.416
MS.345         	17.82          	1.511
MS.346         	17.785         	1.629
MS.347         	17.75          	1.535
MS.348         	17.715         	1.75
MS.349         	17.677         	1.271
MS.350         	17.642         	1.458
MS.351         	17.608         	1.17
MS.352         	17.573         	1.541
MS.353         	17.538         	1.122
MS.354         	17.503         	1.037
MS.355         	17.467         	1.12
MS.356         	17.432         	1.333
MS.357         	17.397         	1.084
MS.358         	17.362         	1.198
MS.359         	17.327         	1.384
MS.360         	17.295         	1.44
MS.361         	17.26          	1.263
MS.362         	17.225         	0.677
MS.363         	17.19          	1.223
MS.364         	17.155         	0.751
MS.365         	17.122         	1.144
MS.366         	17.087         	1.126
MS.367         	17.052         	0.626
MS.368         	17.02          	0.931
MS.369         	16.985         	1.003
MS.370         	16.952         	0.975
MS.371         	16.917         	1.13
MS.372         	16.885         	0.655
MS.373         	16.85          	0.596
MS.374         	16.817         	0.671
MS.375         	16.782         	0.461
MS.376         	16.75          	0.616
MS.377         	16.715         	0.449
MS.378         	16.682         	0.477
MS.379         	16.65          	0.467
MS.380         	16.615         	0.437
MS.381         	16.583         	0.405
MS.382         	16.55          	0.429
MS.383         	16.517         	0.421
MS.384         	16.483         	0.459
MS.385         	16.45          	0.471
MS.386         	16.417         	0.383
MS.387         	16.385         	0.32
MS.388         	16.352         	0.346
MS.389         	16.32          	0.443
MS.390         	16.288         	0.371
MS.391         	16.255         	0.411
MS.392         	16.222         	0.361
MS.393         	16.19          	0.332
MS.394         	16.157         	0.407
MS.395         	16.125         	0.435
MS.396         	16.092         	0.32
MS.397         	16.06          	0.328
MS.398         	16.028         	0.334
MS.399         	15.997         	0.318
MS.400         	15.965         	0.328
MS.401         	15.932         	0.33
MS.402         	15.9           	0.33
MS.403         	15.87          	2.834
MS.404         	15.837         	0.361
MS.405         	15.805         	0.379
MS.406         	15.775         	0.286
MS.407         	15.742         	0.467
MS.408         	15.71          	0.252
MS.409         	15.68          	0.274
MS.410         	15.648         	0.238
MS.411         	15.617         	0.234
MS.412         	15.585         	0.33
MS.413         	15.555         	0.23
MS.414         	15.523         	0.258
MS.415         	15.492         	0.24
MS.416         	15.462         	0.304
MS.417         	15.43          	0.252
MS.418         	15.4           	0.211
MS.419         	15.37          	0.266
MS.420         	15.337         	0.234
MS.421         	15.307         	0.187
MS.422         	15.277         	0.161
MS.423         	15.247         	0.256
MS.424         	15.215         	0.181
MS.425         	15.185         	0.252
MS.426         	15.155         	0.244
MS.427         	15.125         	0.22
MS.428         	15.095         	0.185
MS.429         	15.065         	0.175
MS.430         	15.035         	0.129
MS.431         	15.005         	0.254
MS.432         	14.975         	0.079
MS.433         	14.945         	0.113
MS.434         	14.915         	0.097
MS.435         	14.885         	0.183
MS.436         	14.855         	0.099
MS.437         	14.825         	0.143
MS.438         	14.795         	0.129
MS.439         	14.767         	0.129
MS.440         	14.737         	0.111
MS.441         	14.707         	0.099
MS.442         	14.677         	0.107
MS.443         	14.65          	0.137
MS.444         	14.62          	0.145
MS.445         	14.59          	0.111
MS.446         	14.56          	0.109
MS.447         	14.532         	0.109
MS.448         	14.502         	0.103
MS.449         	14.475         	0.089
MS.450         	14.445         	0.107
MS.451         	14.417         	0.107
MS.452         	14.387         	0.101
MS.453         	14.358         	0.105
MS.454         	14.33          	0.101
MS.455         	14.302         	0.101
MS.456         	14.273         	0.107
MS.457         	14.245         	0.085
MS.458         	14.215         	0.087
MS.459         	14.188         	0.089
MS.460         	14.16          	0.101
MS.461         	14.13          	0.105
MS.462         	14.102         	0.087
MS.463         	14.075         	0.103
MS.464         	14.047         	0.087
MS.465         	14.017         	0.111
MS.466         	13.99          	0.093
MS.467         	13.962         	0.087
MS.468         	13.935         	0.075
MS.469         	13.907         	0.091
MS.470         	13.877         	0.103
MS.471         	13.85          	0.079
MS.472         	13.822         	0.089
MS.473         	13.795         	0.095
MS.474         	13.767         	0.087
MS.475         	13.74          	0.091
MS.476         	13.712         	0.085
MS.477         	13.685         	0.085
MS.478         	13.657         	0.085
MS.479         	13.63          	0.085
MS.480         	13.605         	0.085
MS.481         	13.577         	0.083
MS.482         	13.55          	0.083
MS.483         	13.523         	0.083
MS.484         	13.495         	0.089
MS.485         	13.467         	0.085
MS.486         	13.443         	0.093
MS.487         	13.415         	0.087
MS.488         	13.387         	0.091
MS.489         	13.36          	0.095
MS.490         	13.335         	0.089
MS.491         	13.307         	0.085
MS.492         	13.282         	0.095
MS.493         	13.255         	0.087
MS.494         	13.227         	0.085
MS.495         	13.202         	0.087
MS.496         	13.175         	0.083
