File:              	C:\Qtrac\Data\Daniel M Sørensen\MScan multicentre study\Data from centres\Oslo\IronKey\Oslo_NC_first examination\SZC00701B.QZD
Name:              	NO.OSL.NC.23.1
Protocol:          	MSCAN-R2
Date:              	1/7/20
Start time:        	15:46:03
Age:               	35
Sex:               	F
Temperature:       	28.4
S/R sites:         	Ulnar Wr-ADM
NC/disease:        	NC23
Operator:          	SZ
Comments:          	Test1
M-SCAN DATA (11.9-4.4m)
Scanpts: 140, 153, 770, 792
Stim. (mA)     	Amp. (mV)
MS.1           	18.5           	10.016
MS.2           	18.5           	10.002
MS.3           	18.5           	10.043
MS.4           	18.5           	9.978
MS.5           	18.5           	9.968
MS.6           	18.5           	9.996
MS.7           	18.5           	9.988
MS.8           	18.5           	9.99
MS.9           	18.5           	10.012
MS.10          	18.5           	10.01
MS.11          	18.5           	9.972
MS.12          	18.5           	9.996
MS.13          	18.5           	9.968
MS.14          	18.5           	9.956
MS.15          	18.5           	9.97
MS.16          	18.5           	9.946
MS.17          	18.5           	9.952
MS.18          	18.5           	9.988
MS.19          	18.5           	9.984
MS.20          	18.5           	9.974
MS.21          	18.5           	9.958
MS.22          	18.5           	9.948
MS.23          	18.5           	9.984
MS.24          	18.425         	9.928
MS.25          	18.39          	9.9
MS.26          	18.352         	9.944
MS.27          	18.315         	9.954
MS.28          	18.28          	9.966
MS.29          	18.243         	9.972
MS.30          	18.208         	10.151
MS.31          	18.17          	10.031
MS.32          	18.132         	9.988
MS.33          	18.097         	9.978
MS.34          	18.06          	10.014
MS.35          	18.025         	10.014
MS.36          	17.99          	10.002
MS.37          	17.952         	10.014
MS.38          	17.917         	9.998
MS.39          	17.882         	9.988
MS.40          	17.845         	9.988
MS.41          	17.81          	10.012
MS.42          	17.775         	9.988
MS.43          	17.74          	9.956
MS.44          	17.702         	9.974
MS.45          	17.667         	9.978
MS.46          	17.632         	9.998
MS.47          	17.597         	9.946
MS.48          	17.562         	9.958
MS.49          	17.528         	9.966
MS.50          	17.493         	9.948
MS.51          	17.458         	9.972
MS.52          	17.422         	9.974
MS.53          	17.387         	10.024
MS.54          	17.352         	9.912
MS.55          	17.317         	9.934
MS.56          	17.285         	9.954
MS.57          	17.25          	9.948
MS.58          	17.215         	9.936
MS.59          	17.18          	9.956
MS.60          	17.145         	9.956
MS.61          	17.112         	9.936
MS.62          	17.077         	9.948
MS.63          	17.042         	9.934
MS.64          	17.01          	9.936
MS.65          	16.975         	9.93
MS.66          	16.942         	9.95
MS.67          	16.907         	9.976
MS.68          	16.875         	9.962
MS.69          	16.84          	9.976
MS.70          	16.807         	9.952
MS.71          	16.772         	9.954
MS.72          	16.74          	9.958
MS.73          	16.705         	9.936
MS.74          	16.672         	9.942
MS.75          	16.64          	9.966
MS.76          	16.605         	9.972
MS.77          	16.573         	9.954
MS.78          	16.54          	9.96
MS.79          	16.507         	9.952
MS.80          	16.472         	9.94
MS.81          	16.44          	9.93
MS.82          	16.407         	9.976
MS.83          	16.375         	9.944
MS.84          	16.342         	9.94
MS.85          	16.31          	9.934
MS.86          	16.278         	9.972
MS.87          	16.245         	9.928
MS.88          	16.212         	9.94
MS.89          	16.18          	9.89
MS.90          	16.147         	9.908
MS.91          	16.115         	9.94
MS.92          	16.083         	9.906
MS.93          	16.05          	9.908
MS.94          	16.02          	9.928
MS.95          	15.987         	9.883
MS.96          	15.955         	9.932
MS.97          	15.922         	9.922
MS.98          	15.89          	9.916
MS.99          	15.86          	9.896
MS.100         	15.827         	9.908
MS.101         	15.795         	9.912
MS.102         	15.765         	9.918
MS.103         	15.733         	9.892
MS.104         	15.702         	9.92
MS.105         	15.67          	9.924
MS.106         	15.64          	9.881
MS.107         	15.608         	9.892
MS.108         	15.577         	9.892
MS.109         	15.545         	9.885
MS.110         	15.515         	9.896
MS.111         	15.483         	9.896
MS.112         	15.452         	9.898
MS.113         	15.422         	9.912
MS.114         	15.39          	9.904
MS.115         	15.36          	9.892
MS.116         	15.33          	9.881
MS.117         	15.297         	9.89
MS.118         	15.267         	9.938
MS.119         	15.237         	9.916
MS.120         	15.207         	9.892
MS.121         	15.177         	9.91
MS.122         	15.148         	9.869
MS.123         	15.115         	9.894
MS.124         	15.085         	9.906
MS.125         	15.055         	9.9
MS.126         	15.025         	9.898
MS.127         	14.995         	9.918
MS.128         	14.965         	9.888
MS.129         	14.935         	9.914
MS.130         	14.905         	9.91
MS.131         	14.877         	9.914
MS.132         	14.847         	9.93
MS.133         	14.818         	9.873
MS.134         	14.787         	9.914
MS.135         	14.757         	9.898
MS.136         	14.727         	9.924
MS.137         	14.7           	9.9
MS.138         	14.67          	9.9
MS.139         	14.64          	9.926
MS.140         	14.61          	9.902
MS.141         	14.582         	9.914
MS.142         	14.552         	9.928
MS.143         	14.523         	9.92
MS.144         	14.495         	9.902
MS.145         	14.465         	9.926
MS.146         	14.438         	9.902
MS.147         	14.407         	9.942
MS.148         	14.38          	9.914
MS.149         	14.35          	9.91
MS.150         	14.322         	9.904
MS.151         	14.292         	9.914
MS.152         	14.265         	9.93
MS.153         	14.235         	9.898
MS.154         	14.207         	9.924
MS.155         	14.18          	9.914
MS.156         	14.15          	9.912
MS.157         	14.122         	9.908
MS.158         	14.095         	9.902
MS.159         	14.065         	9.92
MS.160         	14.037         	9.934
MS.161         	14.01          	9.9
MS.162         	13.983         	9.916
MS.163         	13.955         	9.962
MS.164         	13.925         	9.89
MS.165         	13.898         	9.938
MS.166         	13.87          	9.934
MS.167         	13.842         	9.906
MS.168         	13.815         	9.932
MS.169         	13.787         	9.918
MS.170         	13.76          	9.904
MS.171         	13.733         	9.879
MS.172         	13.705         	9.912
MS.173         	13.677         	9.916
MS.174         	13.65          	9.95
MS.175         	13.622         	9.916
MS.176         	13.595         	9.885
MS.177         	13.568         	9.894
MS.178         	13.542         	9.877
MS.179         	13.515         	9.918
MS.180         	13.487         	9.91
MS.181         	13.46          	9.847
MS.182         	13.432         	9.867
MS.183         	13.407         	9.871
MS.184         	13.38          	9.877
MS.185         	13.352         	9.861
MS.186         	13.327         	9.835
MS.187         	13.3           	9.861
MS.188         	13.273         	9.821
MS.189         	13.247         	9.875
MS.190         	13.22          	9.801
MS.191         	13.195         	9.857
MS.192         	13.167         	9.849
MS.193         	13.142         	9.809
MS.194         	13.115         	9.831
MS.195         	13.09          	9.851
MS.196         	13.062         	9.837
MS.197         	13.037         	9.801
MS.198         	13.01          	9.821
MS.199         	12.985         	9.851
MS.200         	12.957         	9.861
MS.201         	12.932         	9.801
MS.202         	12.907         	9.795
MS.203         	12.88          	9.789
MS.204         	12.855         	9.815
MS.205         	12.83          	9.803
MS.206         	12.805         	9.821
MS.207         	12.778         	9.745
MS.208         	12.752         	9.827
MS.209         	12.727         	9.823
MS.210         	12.702         	9.765
MS.211         	12.677         	9.753
MS.212         	12.653         	9.906
MS.213         	12.625         	9.934
MS.214         	12.6           	9.829
MS.215         	12.575         	9.93
MS.216         	12.55          	9.755
MS.217         	12.525         	9.831
MS.218         	12.5           	9.73
MS.219         	12.475         	9.875
MS.220         	12.45          	9.819
MS.221         	12.425         	9.73
MS.222         	12.4           	9.823
MS.223         	12.375         	9.841
MS.224         	12.352         	9.861
MS.225         	12.327         	9.775
MS.226         	12.302         	9.775
MS.227         	12.278         	9.753
MS.228         	12.252         	9.765
MS.229         	12.227         	9.718
MS.230         	12.205         	9.688
MS.231         	12.18          	9.742
MS.232         	12.155         	9.674
MS.233         	12.13          	9.66
MS.234         	12.108         	9.678
MS.235         	12.082         	9.636
MS.236         	12.057         	9.678
MS.237         	12.035         	9.696
MS.238         	12.01          	9.773
MS.239         	11.988         	9.755
MS.240         	11.962         	9.708
MS.241         	11.938         	9.755
MS.242         	11.915         	9.759
MS.243         	11.89          	9.62
MS.244         	11.867         	9.634
MS.245         	11.842         	9.656
MS.246         	11.82          	9.72
MS.247         	11.795         	9.662
MS.248         	11.773         	9.62
MS.249         	11.75          	9.646
MS.250         	11.725         	9.561
MS.251         	11.702         	9.763
MS.252         	11.677         	9.583
MS.253         	11.655         	9.63
MS.254         	11.632         	9.692
MS.255         	11.61          	9.593
MS.256         	11.585         	9.668
MS.257         	11.562         	9.557
MS.258         	11.54          	9.662
MS.259         	11.517         	9.569
MS.260         	11.492         	9.531
MS.261         	11.47          	9.388
MS.262         	11.447         	9.513
MS.263         	11.425         	9.436
MS.264         	11.403         	9.362
MS.265         	11.38          	9.509
MS.266         	11.355         	9.507
MS.267         	11.332         	9.412
MS.268         	11.31          	9.404
MS.269         	11.287         	9.491
MS.270         	11.265         	9.416
MS.271         	11.242         	9.322
MS.272         	11.22          	9.346
MS.273         	11.197         	9.313
MS.274         	11.175         	9.37
MS.275         	11.153         	9.223
MS.276         	11.132         	9.247
MS.277         	11.11          	9.211
MS.278         	11.087         	9.211
MS.279         	11.065         	9.189
MS.280         	11.042         	9.322
MS.281         	11.02          	9.181
MS.282         	10.997         	9.029
MS.283         	10.977         	9.076
MS.284         	10.955         	9.005
MS.285         	10.932         	9.213
MS.286         	10.91          	9.052
MS.287         	10.89          	9.255
MS.288         	10.867         	9.07
MS.289         	10.845         	9.003
MS.290         	10.825         	9.094
MS.291         	10.802         	9.108
MS.292         	10.78          	9.036
MS.293         	10.76          	8.953
MS.294         	10.738         	8.874
MS.295         	10.717         	8.969
MS.296         	10.695         	8.959
MS.297         	10.672         	8.828
MS.298         	10.653         	8.754
MS.299         	10.63          	8.901
MS.300         	10.61          	8.758
MS.301         	10.587         	8.886
MS.302         	10.568         	8.75
MS.303         	10.545         	8.754
MS.304         	10.525         	8.613
MS.305         	10.505         	8.754
MS.306         	10.483         	8.774
MS.307         	10.462         	8.727
MS.308         	10.443         	8.782
MS.309         	10.42          	8.782
MS.310         	10.4           	8.846
MS.311         	10.38          	8.735
MS.312         	10.358         	8.689
MS.313         	10.337         	8.669
MS.314         	10.318         	8.705
MS.315         	10.295         	8.639
MS.316         	10.275         	8.725
MS.317         	10.255         	8.586
MS.318         	10.235         	8.619
MS.319         	10.215         	8.683
MS.320         	10.193         	8.671
MS.321         	10.172         	8.723
MS.322         	10.153         	8.711
MS.323         	10.132         	8.683
MS.324         	10.113         	8.228
MS.325         	10.092         	8.657
MS.326         	10.073         	8.609
MS.327         	10.052         	8.669
MS.328         	10.032         	8.687
MS.329         	10.012         	8.743
MS.330         	9.992          	8.641
MS.331         	9.972          	8.276
MS.332         	9.952          	8.721
MS.333         	9.932          	8.772
MS.334         	9.912          	8.391
MS.335         	9.892          	8.304
MS.336         	9.872          	8.752
MS.337         	9.852          	8.611
MS.338         	9.832          	8.735
MS.339         	9.812          	8.333
MS.340         	9.795          	8.353
MS.341         	9.775          	8.345
MS.342         	9.755          	8.318
MS.343         	9.735          	8.347
MS.344         	9.715          	8.421
MS.345         	9.698          	8.399
MS.346         	9.677          	8.262
MS.347         	9.657          	8.323
MS.348         	9.637          	8.258
MS.349         	9.62           	8.234
MS.350         	9.6            	8.226
MS.351         	9.58           	8.171
MS.352         	9.562          	8.234
MS.353         	9.542          	8.248
MS.354         	9.523          	8.23
MS.355         	9.505          	8.23
MS.356         	9.485          	8.228
MS.357         	9.467          	8.188
MS.358         	9.448          	8.246
MS.359         	9.43           	8.234
MS.360         	9.41           	8.198
MS.361         	9.39           	8.202
MS.362         	9.372          	8.194
MS.363         	9.352          	8.292
MS.364         	9.335          	8.266
MS.365         	9.318          	8.2
MS.366         	9.297          	8.222
MS.367         	9.28           	8.258
MS.368         	9.26           	8.292
MS.369         	9.242          	8.24
MS.370         	9.222          	8.27
MS.371         	9.205          	8.22
MS.372         	9.188          	8.26
MS.373         	9.167          	8.24
MS.374         	9.15           	8.268
MS.375         	9.132          	8.224
MS.376         	9.113          	8.288
MS.377         	9.095          	8.278
MS.378         	9.077          	8.272
MS.379         	9.06           	8.272
MS.380         	9.04           	8.196
MS.381         	9.023          	8.296
MS.382         	9.005          	8.246
MS.383         	8.988          	8.19
MS.384         	8.97           	8.27
MS.385         	8.95           	8.216
MS.386         	8.932          	8.3
MS.387         	8.915          	8.21
MS.388         	8.898          	8.171
MS.389         	8.88           	8.244
MS.390         	8.863          	8.186
MS.391         	8.845          	8.236
MS.392         	8.827          	8.304
MS.393         	8.81           	8.308
MS.394         	8.792          	8.266
MS.395         	8.775          	8.254
MS.396         	8.755          	8.258
MS.397         	8.74           	8.206
MS.398         	8.722          	8.2
MS.399         	8.705          	8.194
MS.400         	8.688          	8.202
MS.401         	8.67           	8.206
MS.402         	8.653          	8.188
MS.403         	8.635          	8.23
MS.404         	8.617          	8.24
MS.405         	8.6            	8.212
MS.406         	8.582          	8.266
MS.407         	8.565          	8.22
MS.408         	8.547          	8.2
MS.409         	8.533          	8.157
MS.410         	8.515          	8.169
MS.411         	8.497          	8.21
MS.412         	8.48           	8.22
MS.413         	8.462          	8.2
MS.414         	8.448          	8.194
MS.415         	8.43           	8.196
MS.416         	8.412          	8.202
MS.417         	8.395          	8.173
MS.418         	8.38           	8.182
MS.419         	8.363          	8.218
MS.420         	8.345          	8.24
MS.421         	8.33           	8.226
MS.422         	8.312          	8.226
MS.423         	8.295          	8.26
MS.424         	8.28           	8.222
MS.425         	8.262          	8.274
MS.426         	8.247          	8.002
MS.427         	8.23           	8.278
MS.428         	8.212          	7.785
MS.429         	8.198          	7.95
MS.430         	8.18           	8.224
MS.431         	8.165          	7.974
MS.432         	8.148          	8.045
MS.433         	8.132          	8.234
MS.434         	8.115          	7.734
MS.435         	8.1            	7.843
MS.436         	8.082          	8.331
MS.437         	8.068          	7.744
MS.438         	8.05           	7.994
MS.439         	8.035          	7.785
MS.440         	8.017          	7.976
MS.441         	8.002          	7.763
MS.442         	7.987          	7.583
MS.443         	7.97           	7.609
MS.444         	7.955          	7.575
MS.445         	7.94           	7.624
MS.446         	7.922          	7.406
MS.447         	7.907          	7.702
MS.448         	7.892          	7.841
MS.449         	7.875          	7.607
MS.450         	7.86           	7.434
MS.451         	7.845          	7.428
MS.452         	7.827          	7.287
MS.453         	7.812          	7.319
MS.454         	7.797          	7.315
MS.455         	7.782          	7.096
MS.456         	7.765          	6.925
MS.457         	7.75           	7.245
MS.458         	7.735          	7.082
MS.459         	7.72           	7.182
MS.460         	7.705          	6.967
MS.461         	7.69           	6.741
MS.462         	7.672          	7.124
MS.463         	7.657          	6.824
MS.464         	7.642          	6.933
MS.465         	7.628          	6.478
MS.466         	7.612          	6.576
MS.467         	7.597          	6.78
MS.468         	7.582          	6.764
MS.469         	7.567          	6.347
MS.470         	7.552          	6.314
MS.471         	7.537          	6.351
MS.472         	7.523          	6.48
MS.473         	7.507          	6.135
MS.474         	7.492          	6.433
MS.475         	7.477          	6.465
MS.476         	7.462          	6.536
MS.477         	7.447          	6.359
MS.478         	7.432          	6.075
MS.479         	7.418          	5.946
MS.480         	7.402          	6.057
MS.481         	7.387          	5.952
MS.482         	7.372          	5.98
MS.483         	7.357          	5.994
MS.484         	7.342          	5.924
MS.485         	7.327          	5.97
MS.486         	7.315          	5.932
MS.487         	7.3            	5.815
MS.488         	7.285          	5.849
MS.489         	7.27           	5.454
MS.490         	7.255          	5.918
MS.491         	7.24           	5.875
MS.492         	7.227          	5.628
MS.493         	7.212          	5.76
MS.494         	7.197          	5.652
MS.495         	7.182          	5.789
MS.496         	7.17           	5.275
MS.497         	7.155          	5.327
MS.498         	7.14           	5.454
MS.499         	7.125          	5.273
MS.500         	7.112          	5.531
