File:              	C:\Qtrac\Data\Daniel M Sørensen\MScan multicentre study\Data from centres\Bucharest\Processed data\TDLC10107A.QZD
Name:              	RO.BU.NC.9.2
Protocol:          	MSCAN-R2
Date:              	7/1/21
Start time:        	10:40:33
Age:               	35
Sex:               	M
Temperature:       	36.3
S/R sites:         	APB
NC/disease:        	NC9
Operator:          	TL
Comments:          	RO.NC.9.2.
M-SCAN DATA (9.6-2.2m)
Scanpts: 220, 228, 762, 784
Stim. (mA)     	Amp. (mV)
MS.1           	18             	8.86
MS.2           	18             	8.88
MS.3           	18             	8.872
MS.4           	18             	8.848
MS.5           	18             	8.836
MS.6           	18             	8.868
MS.7           	18             	8.864
MS.8           	18             	8.826
MS.9           	18             	8.868
MS.10          	18             	8.862
MS.11          	18             	8.858
MS.12          	18             	8.87
MS.13          	18             	8.868
MS.14          	18             	8.901
MS.15          	18             	8.876
MS.16          	18             	8.848
MS.17          	18             	8.86
MS.18          	18             	8.858
MS.19          	18             	8.854
MS.20          	18             	8.856
MS.21          	18             	8.864
MS.22          	18             	8.874
MS.23          	18             	8.87
MS.24          	17.927         	8.874
MS.25          	17.892         	8.88
MS.26          	17.858         	8.891
MS.27          	17.82          	8.893
MS.28          	17.785         	8.891
MS.29          	17.75          	8.893
MS.30          	17.715         	8.913
MS.31          	17.68          	8.907
MS.32          	17.642         	8.895
MS.33          	17.608         	8.88
MS.34          	17.573         	8.888
MS.35          	17.538         	8.899
MS.36          	17.503         	8.965
MS.37          	17.467         	8.941
MS.38          	17.432         	8.915
MS.39          	17.397         	8.888
MS.40          	17.362         	8.899
MS.41          	17.33          	8.895
MS.42          	17.295         	8.893
MS.43          	17.26          	8.905
MS.44          	17.225         	8.913
MS.45          	17.19          	8.899
MS.46          	17.157         	8.909
MS.47          	17.122         	8.915
MS.48          	17.087         	8.911
MS.49          	17.052         	8.907
MS.50          	17.02          	8.901
MS.51          	16.985         	8.895
MS.52          	16.952         	8.909
MS.53          	16.917         	8.903
MS.54          	16.885         	8.913
MS.55          	16.85          	8.921
MS.56          	16.817         	8.911
MS.57          	16.782         	8.911
MS.58          	16.75          	8.913
MS.59          	16.715         	8.905
MS.60          	16.682         	8.907
MS.61          	16.65          	8.905
MS.62          	16.615         	8.909
MS.63          	16.583         	8.907
MS.64          	16.55          	8.911
MS.65          	16.517         	8.909
MS.66          	16.483         	8.911
MS.67          	16.45          	8.907
MS.68          	16.417         	8.901
MS.69          	16.385         	8.909
MS.70          	16.352         	8.911
MS.71          	16.32          	8.915
MS.72          	16.288         	8.915
MS.73          	16.255         	8.917
MS.74          	16.222         	8.915
MS.75          	16.19          	8.923
MS.76          	16.157         	8.901
MS.77          	16.125         	8.925
MS.78          	16.092         	8.917
MS.79          	16.06          	8.903
MS.80          	16.028         	8.913
MS.81          	15.997         	8.923
MS.82          	15.965         	8.925
MS.83          	15.932         	8.923
MS.84          	15.9           	8.929
MS.85          	15.87          	8.931
MS.86          	15.837         	8.925
MS.87          	15.805         	8.933
MS.88          	15.775         	8.927
MS.89          	15.742         	8.939
MS.90          	15.71          	8.939
MS.91          	15.68          	8.947
MS.92          	15.648         	8.937
MS.93          	15.617         	8.943
MS.94          	15.585         	8.957
MS.95          	15.555         	8.949
MS.96          	15.523         	8.979
MS.97          	15.492         	8.969
MS.98          	15.462         	8.979
MS.99          	15.43          	8.975
MS.100         	15.4           	8.987
MS.101         	15.37          	8.995
MS.102         	15.337         	8.989
MS.103         	15.307         	8.993
MS.104         	15.277         	8.973
MS.105         	15.247         	8.969
MS.106         	15.217         	8.995
MS.107         	15.185         	8.969
MS.108         	15.155         	8.993
MS.109         	15.125         	8.977
MS.110         	15.095         	8.971
MS.111         	15.065         	8.991
MS.112         	15.035         	8.993
MS.113         	15.005         	8.985
MS.114         	14.975         	8.995
MS.115         	14.945         	8.977
MS.116         	14.915         	8.989
MS.117         	14.885         	8.975
MS.118         	14.855         	8.999
MS.119         	14.825         	8.985
MS.120         	14.795         	8.971
MS.121         	14.767         	8.989
MS.122         	14.737         	9.009
MS.123         	14.707         	8.973
MS.124         	14.677         	8.991
MS.125         	14.65          	8.997
MS.126         	14.62          	9.021
MS.127         	14.59          	8.997
MS.128         	14.562         	9.042
MS.129         	14.532         	8.999
MS.130         	14.502         	8.995
MS.131         	14.475         	9.013
MS.132         	14.445         	8.979
MS.133         	14.417         	8.999
MS.134         	14.387         	9.029
MS.135         	14.36          	8.965
MS.136         	14.33          	9.005
MS.137         	14.302         	8.997
MS.138         	14.273         	8.995
MS.139         	14.245         	9.05
MS.140         	14.215         	9.025
MS.141         	14.188         	9.001
MS.142         	14.16          	9.021
MS.143         	14.13          	9.007
MS.144         	14.102         	8.981
MS.145         	14.075         	9.021
MS.146         	14.047         	9.005
MS.147         	14.017         	9.052
MS.148         	13.99          	9.04
MS.149         	13.962         	9.029
MS.150         	13.935         	9.017
MS.151         	13.907         	9.042
MS.152         	13.88          	9.034
MS.153         	13.85          	9.019
MS.154         	13.822         	9.042
MS.155         	13.795         	8.989
MS.156         	13.767         	9.003
MS.157         	13.74          	9.001
MS.158         	13.712         	8.997
MS.159         	13.685         	8.999
MS.160         	13.657         	8.957
MS.161         	13.632         	8.957
MS.162         	13.605         	9.001
MS.163         	13.577         	8.933
MS.164         	13.55          	8.943
MS.165         	13.523         	9.009
MS.166         	13.495         	8.995
MS.167         	13.467         	9.009
MS.168         	13.443         	8.987
MS.169         	13.415         	9.056
MS.170         	13.387         	8.993
MS.171         	13.362         	9.007
MS.172         	13.335         	9.019
MS.173         	13.307         	8.999
MS.174         	13.282         	8.993
MS.175         	13.255         	9.011
MS.176         	13.227         	9.04
MS.177         	13.202         	9.068
MS.178         	13.175         	9.023
MS.179         	13.15          	8.917
MS.180         	13.122         	9.017
MS.181         	13.097         	9.015
MS.182         	13.07          	9.007
MS.183         	13.045         	9.003
MS.184         	13.017         	9.013
MS.185         	12.992         	9.003
MS.186         	12.967         	9.001
MS.187         	12.94          	9.021
MS.188         	12.915         	9.06
MS.189         	12.89          	8.971
MS.190         	12.862         	9.001
MS.191         	12.837         	8.985
MS.192         	12.812         	8.979
MS.193         	12.785         	8.957
MS.194         	12.76          	8.991
MS.195         	12.735         	8.993
MS.196         	12.71          	8.985
MS.197         	12.685         	8.995
MS.198         	12.66          	8.997
MS.199         	12.632         	8.995
MS.200         	12.608         	8.983
MS.201         	12.582         	8.989
MS.202         	12.557         	8.993
MS.203         	12.532         	8.991
MS.204         	12.507         	8.993
MS.205         	12.483         	8.979
MS.206         	12.457         	8.977
MS.207         	12.432         	8.975
MS.208         	12.407         	8.959
MS.209         	12.382         	8.959
MS.210         	12.36          	8.985
MS.211         	12.335         	8.981
MS.212         	12.31          	8.945
MS.213         	12.285         	8.955
MS.214         	12.26          	8.953
MS.215         	12.235         	8.949
MS.216         	12.212         	8.965
MS.217         	12.188         	8.953
MS.218         	12.162         	8.955
MS.219         	12.137         	8.951
MS.220         	12.115         	8.955
MS.221         	12.09          	8.963
MS.222         	12.065         	8.967
MS.223         	12.042         	8.969
MS.224         	12.017         	8.955
MS.225         	11.992         	8.963
MS.226         	11.97          	8.967
MS.227         	11.945         	8.969
MS.228         	11.922         	8.969
MS.229         	11.898         	8.957
MS.230         	11.875         	8.959
MS.231         	11.85          	8.965
MS.232         	11.827         	8.959
MS.233         	11.802         	8.955
MS.234         	11.78          	8.961
MS.235         	11.755         	8.965
MS.236         	11.733         	8.967
MS.237         	11.71          	8.973
MS.238         	11.685         	8.959
MS.239         	11.662         	8.951
MS.240         	11.64          	8.947
MS.241         	11.615         	8.939
MS.242         	11.592         	8.973
MS.243         	11.57          	8.953
MS.244         	11.547         	8.959
MS.245         	11.523         	8.947
MS.246         	11.5           	8.953
MS.247         	11.477         	8.959
MS.248         	11.455         	8.977
MS.249         	11.432         	8.949
MS.250         	11.407         	8.953
MS.251         	11.385         	8.983
MS.252         	11.363         	8.919
MS.253         	11.34          	8.915
MS.254         	11.318         	8.949
MS.255         	11.295         	8.895
MS.256         	11.273         	8.945
MS.257         	11.25          	9.011
MS.258         	11.227         	8.987
MS.259         	11.205         	8.941
MS.260         	11.182         	8.961
MS.261         	11.16          	8.945
MS.262         	11.137         	8.931
MS.263         	11.115         	8.945
MS.264         	11.092         	8.957
MS.265         	11.073         	8.953
MS.266         	11.05          	8.957
MS.267         	11.028         	8.955
MS.268         	11.005         	8.941
MS.269         	10.983         	8.931
MS.270         	10.962         	8.969
MS.271         	10.94          	8.959
MS.272         	10.917         	8.949
MS.273         	10.895         	8.929
MS.274         	10.875         	8.945
MS.275         	10.852         	8.955
MS.276         	10.83          	8.957
MS.277         	10.81          	8.955
MS.278         	10.787         	8.965
MS.279         	10.765         	8.945
MS.280         	10.745         	8.903
MS.281         	10.722         	8.945
MS.282         	10.702         	8.961
MS.283         	10.68          	8.923
MS.284         	10.657         	8.927
MS.285         	10.637         	8.933
MS.286         	10.615         	8.927
MS.287         	10.595         	8.933
MS.288         	10.573         	8.955
MS.289         	10.552         	8.929
MS.290         	10.532         	8.919
MS.291         	10.51          	8.909
MS.292         	10.49          	8.925
MS.293         	10.467         	8.939
MS.294         	10.448         	8.888
MS.295         	10.427         	8.911
MS.296         	10.405         	8.933
MS.297         	10.385         	8.919
MS.298         	10.365         	8.927
MS.299         	10.342         	8.943
MS.300         	10.323         	8.921
MS.301         	10.302         	8.891
MS.302         	10.282         	8.891
MS.303         	10.26          	8.923
MS.304         	10.24          	8.882
MS.305         	10.22          	8.882
MS.306         	10.2           	8.901
MS.307         	10.18          	8.878
MS.308         	10.16          	8.88
MS.309         	10.14          	8.897
MS.310         	10.117         	8.895
MS.311         	10.097         	8.884
MS.312         	10.077         	8.864
MS.313         	10.057         	8.88
MS.314         	10.037         	8.925
MS.315         	10.017         	8.893
MS.316         	9.997          	8.893
MS.317         	9.977          	8.884
MS.318         	9.957          	8.878
MS.319         	9.938          	8.882
MS.320         	9.917          	8.86
MS.321         	9.898          	8.86
MS.322         	9.877          	8.868
MS.323         	9.86           	8.88
MS.324         	9.84           	8.882
MS.325         	9.82           	8.874
MS.326         	9.8            	8.862
MS.327         	9.78           	8.868
MS.328         	9.76           	8.856
MS.329         	9.74           	8.858
MS.330         	9.722          	8.598
MS.331         	9.702          	8.866
MS.332         	9.682          	8.854
MS.333         	9.662          	8.735
MS.334         	9.645          	8.86
MS.335         	9.625          	8.826
MS.336         	9.605          	8.429
MS.337         	9.587          	8.439
MS.338         	9.568          	8.717
MS.339         	9.547          	8.389
MS.340         	9.53           	8.538
MS.341         	9.51           	8.236
MS.342         	9.49           	8.115
MS.343         	9.472          	8.268
MS.344         	9.452          	8.443
MS.345         	9.435          	8.155
MS.346         	9.415          	8.169
MS.347         	9.398          	8.488
MS.348         	9.377          	8.093
MS.349         	9.36           	7.889
MS.350         	9.34           	8.582
MS.351         	9.323          	8.137
MS.352         	9.302          	8.228
MS.353         	9.285          	8.103
MS.354         	9.265          	7.934
MS.355         	9.247          	7.954
MS.356         	9.23           	8.133
MS.357         	9.21           	7.902
MS.358         	9.193          	8.123
MS.359         	9.175          	7.857
MS.360         	9.155          	7.662
MS.361         	9.137          	8.03
MS.362         	9.12           	7.841
MS.363         	9.1            	8.034
MS.364         	9.082          	7.805
MS.365         	9.065          	7.845
MS.366         	9.047          	8.022
MS.367         	9.028          	7.851
MS.368         	9.01           	7.817
MS.369         	8.992          	7.382
MS.370         	8.975          	7.469
MS.371         	8.957          	7.557
MS.372         	8.938          	7.334
MS.373         	8.92           	7.497
MS.374         	8.903          	7.567
MS.375         	8.885          	7.513
MS.376         	8.867          	7.489
MS.377         	8.85           	7.241
MS.378         	8.832          	7.243
MS.379         	8.815          	7.118
MS.380         	8.797          	7.029
MS.381         	8.78           	7.315
MS.382         	8.762          	7.271
MS.383         	8.745          	7.104
MS.384         	8.727          	7.031
MS.385         	8.71           	6.939
MS.386         	8.693          	6.846
MS.387         	8.675          	7.015
MS.388         	8.658          	6.78
MS.389         	8.64           	7.08
MS.390         	8.622          	7.044
MS.391         	8.605          	6.772
MS.392         	8.587          	6.882
MS.393         	8.57           	6.606
MS.394         	8.552          	6.685
MS.395         	8.537          	6.743
MS.396         	8.52           	6.685
MS.397         	8.502          	6.735
MS.398         	8.485          	6.695
MS.399         	8.467          	6.695
MS.400         	8.452          	6.617
MS.401         	8.435          	6.794
MS.402         	8.417          	6.61
MS.403         	8.4            	6.574
MS.404         	8.385          	6.649
MS.405         	8.367          	6.534
MS.406         	8.35           	6.451
MS.407         	8.335          	6.415
MS.408         	8.318          	6.345
MS.409         	8.3            	6.413
MS.410         	8.285          	6.272
MS.411         	8.267          	6.385
MS.412         	8.252          	6.23
MS.413         	8.235          	6.21
MS.414         	8.217          	6.036
MS.415         	8.202          	6.347
MS.416         	8.185          	6.002
MS.417         	8.17           	6.073
MS.418         	8.153          	5.904
MS.419         	8.137          	5.76
MS.420         	8.12           	5.849
MS.421         	8.105          	5.62
MS.422         	8.087          	5.664
MS.423         	8.073          	5.581
MS.424         	8.055          	5.829
MS.425         	8.04           	5.674
MS.426         	8.023          	5.628
MS.427         	8.007          	5.368
MS.428         	7.992          	5.291
MS.429         	7.975          	5.327
MS.430         	7.96           	5.052
MS.431         	7.942          	5.309
MS.432         	7.927          	4.987
MS.433         	7.912          	5.416
MS.434         	7.895          	5.021
MS.435         	7.88           	4.997
MS.436         	7.865          	4.979
MS.437         	7.85           	4.717
MS.438         	7.832          	4.979
MS.439         	7.817          	4.755
MS.440         	7.802          	4.62
MS.441         	7.787          	4.62
MS.442         	7.77           	4.79
MS.443         	7.755          	4.405
MS.444         	7.74           	4.455
MS.445         	7.725          	4.544
MS.446         	7.71           	4.582
MS.447         	7.692          	4.58
MS.448         	7.677          	4.641
MS.449         	7.662          	4.425
MS.450         	7.648          	4.492
MS.451         	7.632          	4.389
MS.452         	7.617          	4.324
MS.453         	7.602          	4.286
MS.454         	7.587          	4.314
MS.455         	7.572          	4.272
MS.456         	7.555          	4.28
MS.457         	7.54           	4.214
MS.458         	7.525          	3.893
MS.459         	7.51           	3.93
MS.460         	7.495          	3.944
MS.461         	7.48           	4.125
MS.462         	7.465          	4.159
MS.463         	7.45           	3.899
MS.464         	7.438          	4.006
MS.465         	7.422          	3.64
MS.466         	7.407          	3.849
MS.467         	7.392          	3.748
MS.468         	7.378          	3.746
MS.469         	7.362          	3.881
MS.470         	7.347          	3.537
MS.471         	7.332          	3.567
MS.472         	7.317          	3.64
MS.473         	7.302          	3.482
MS.474         	7.29           	3.094
MS.475         	7.275          	3.39
MS.476         	7.26           	3.436
MS.477         	7.245          	3.738
MS.478         	7.23           	3.38
MS.479         	7.217          	3.442
MS.480         	7.202          	3.13
MS.481         	7.188          	3.426
MS.482         	7.172          	3.241
MS.483         	7.16           	3.027
MS.484         	7.145          	2.989
MS.485         	7.13           	2.923
MS.486         	7.115          	3.186
MS.487         	7.102          	3.112
MS.488         	7.087          	3.001
MS.489         	7.072          	2.864
MS.490         	7.06           	3.047
MS.491         	7.045          	2.844
MS.492         	7.032          	2.586
MS.493         	7.017          	2.727
MS.494         	7.003          	2.516
MS.495         	6.99           	2.512
MS.496         	6.975          	2.413
MS.497         	6.962          	2.475
MS.498         	6.947          	2.556
MS.499         	6.932          	2.502
MS.500         	6.92           	2.298
