File:              	C:\Qtrac\Data\Daniel M Sørensen\MScan multicentre study\Data from centres\Bucharest\TDLC00129A.QZD
Name:              	RO.BU.NC.1.2
Protocol:          	MSCAN-R2
Date:              	29/1/20
Start time:        	11:01:58
Age:               	30
Sex:               	M
Temperature:       	36.4
S/R sites:         	APB
NC/disease:        	RONC1.2
Operator:
Comments:
M-SCAN DATA (20-12.5m)
Scanpts: 422, 427, 749, 754
Stim. (mA)     	Amp. (mV)
MS.1           	27.5           	9.007
MS.2           	27.5           	8.987
MS.3           	27.5           	8.987
MS.4           	27.5           	8.963
MS.5           	27.5           	8.959
MS.6           	27.5           	8.969
MS.7           	27.5           	8.965
MS.8           	27.5           	8.951
MS.9           	27.5           	8.981
MS.10          	27.5           	8.941
MS.11          	27.5           	8.911
MS.12          	27.5           	8.903
MS.13          	27.5           	8.927
MS.14          	27.5           	8.947
MS.15          	27.5           	8.957
MS.16          	27.5           	8.945
MS.17          	27.5           	8.939
MS.18          	27.5           	8.957
MS.19          	27.5           	8.943
MS.20          	27.5           	8.953
MS.21          	27.5           	8.929
MS.22          	27.5           	8.943
MS.23          	27.5           	8.949
MS.24          	27.39          	8.945
MS.25          	27.335         	8.957
MS.26          	27.28          	8.961
MS.27          	27.227         	8.943
MS.28          	27.172         	8.953
MS.29          	27.118         	8.943
MS.30          	27.062         	8.965
MS.31          	27.01          	8.987
MS.32          	26.955         	8.981
MS.33          	26.903         	8.963
MS.34          	26.847         	8.953
MS.35          	26.795         	8.961
MS.36          	26.74          	8.995
MS.37          	26.688         	9.015
MS.38          	26.635         	9.015
MS.39          	26.58          	9.019
MS.40          	26.528         	9.046
MS.41          	26.475         	9.058
MS.42          	26.422         	9.042
MS.43          	26.37          	9.052
MS.44          	26.315         	9.048
MS.45          	26.262         	9.07
MS.46          	26.21          	9.054
MS.47          	26.157         	9.031
MS.48          	26.108         	9.023
MS.49          	26.055         	9.036
MS.50          	26.002         	9.042
MS.51          	25.95          	9.031
MS.52          	25.897         	9.017
MS.53          	25.847         	8.997
MS.54          	25.795         	9.013
MS.55          	25.743         	9.052
MS.56          	25.692         	9.031
MS.57          	25.64          	9.013
MS.58          	25.59          	9.029
MS.59          	25.538         	9.003
MS.60          	25.487         	9.009
MS.61          	25.438         	9.031
MS.62          	25.385         	9.038
MS.63          	25.335         	9.054
MS.64          	25.285         	9.062
MS.65          	25.233         	9.056
MS.66          	25.182         	9.074
MS.67          	25.132         	9.076
MS.68          	25.082         	9.082
MS.69          	25.032         	9.09
MS.70          	24.983         	9.084
MS.71          	24.932         	9.08
MS.72          	24.882         	9.048
MS.73          	24.832         	9.034
MS.74          	24.782         	9.031
MS.75          	24.735         	9.021
MS.76          	24.685         	9.021
MS.77          	24.635         	9.034
MS.78          	24.585         	9.08
MS.79          	24.538         	9.078
MS.80          	24.487         	9.072
MS.81          	24.44          	9.058
MS.82          	24.39          	9.068
MS.83          	24.342         	9.05
MS.84          	24.292         	9.064
MS.85          	24.245         	9.042
MS.86          	24.195         	9.023
MS.87          	24.147         	9.05
MS.88          	24.1           	9.05
MS.89          	24.05          	9.094
MS.90          	24.002         	9.078
MS.91          	23.955         	9.12
MS.92          	23.907         	9.102
MS.93          	23.86          	9.08
MS.94          	23.812         	9.09
MS.95          	23.765         	9.104
MS.96          	23.717         	9.13
MS.97          	23.67          	9.124
MS.98          	23.622         	9.148
MS.99          	23.575         	9.13
MS.100         	23.528         	9.154
MS.101         	23.48          	9.136
MS.102         	23.435         	9.096
MS.103         	23.387         	9.118
MS.104         	23.34          	9.124
MS.105         	23.292         	9.138
MS.106         	23.247         	9.114
MS.107         	23.2           	9.114
MS.108         	23.155         	9.148
MS.109         	23.108         	9.13
MS.110         	23.062         	9.136
MS.111         	23.015         	9.13
MS.112         	22.97          	9.122
MS.113         	22.925         	9.126
MS.114         	22.877         	9.136
MS.115         	22.832         	9.132
MS.116         	22.788         	9.146
MS.117         	22.743         	9.132
MS.118         	22.695         	9.156
MS.119         	22.65          	9.158
MS.120         	22.605         	9.128
MS.121         	22.56          	9.14
MS.122         	22.515         	9.146
MS.123         	22.47          	9.15
MS.124         	22.425         	9.14
MS.125         	22.38          	9.142
MS.126         	22.335         	9.14
MS.127         	22.29          	9.148
MS.128         	22.247         	9.136
MS.129         	22.202         	9.12
MS.130         	22.157         	9.122
MS.131         	22.112         	9.082
MS.132         	22.07          	9.1
MS.133         	22.025         	9.106
MS.134         	21.98          	9.096
MS.135         	21.938         	9.106
MS.136         	21.892         	9.11
MS.137         	21.85          	9.116
MS.138         	21.805         	9.12
MS.139         	21.762         	9.12
MS.140         	21.72          	9.128
MS.141         	21.675         	9.148
MS.142         	21.632         	9.122
MS.143         	21.59          	9.118
MS.144         	21.545         	9.086
MS.145         	21.502         	9.088
MS.146         	21.46          	9.052
MS.147         	21.417         	9.058
MS.148         	21.375         	9.072
MS.149         	21.333         	9.06
MS.150         	21.29          	9.015
MS.151         	21.247         	9.003
MS.152         	21.205         	9.017
MS.153         	21.163         	9.052
MS.154         	21.12          	9.068
MS.155         	21.077         	9.078
MS.156         	21.035         	9.106
MS.157         	20.993         	9.088
MS.158         	20.95          	9.112
MS.159         	20.91          	9.14
MS.160         	20.868         	9.168
MS.161         	20.825         	9.168
MS.162         	20.785         	9.116
MS.163         	20.743         	9.14
MS.164         	20.7           	9.154
MS.165         	20.66          	9.15
MS.166         	20.618         	9.156
MS.167         	20.577         	9.148
MS.168         	20.535         	9.152
MS.169         	20.495         	9.156
MS.170         	20.455         	9.156
MS.171         	20.413         	9.172
MS.172         	20.372         	9.181
MS.173         	20.333         	9.17
MS.174         	20.29          	9.16
MS.175         	20.25          	9.211
MS.176         	20.21          	9.185
MS.177         	20.17          	9.207
MS.178         	20.13          	9.183
MS.179         	20.09          	9.187
MS.180         	20.05          	9.193
MS.181         	20.01          	9.201
MS.182         	19.97          	9.209
MS.183         	19.93          	9.174
MS.184         	19.89          	9.174
MS.185         	19.85          	9.181
MS.186         	19.81          	9.174
MS.187         	19.77          	9.183
MS.188         	19.73          	9.185
MS.189         	19.692         	9.199
MS.190         	19.653         	9.156
MS.191         	19.612         	9.138
MS.192         	19.573         	9.12
MS.193         	19.535         	9.126
MS.194         	19.495         	9.074
MS.195         	19.458         	9.076
MS.196         	19.417         	9.06
MS.197         	19.38          	9.036
MS.198         	19.34          	9.048
MS.199         	19.302         	9.082
MS.200         	19.262         	9.074
MS.201         	19.225         	9.092
MS.202         	19.185         	9.1
MS.203         	19.147         	9.122
MS.204         	19.11          	9.14
MS.205         	19.07          	9.156
MS.206         	19.032         	9.146
MS.207         	18.995         	9.174
MS.208         	18.958         	9.148
MS.209         	18.92          	9.158
MS.210         	18.882         	9.197
MS.211         	18.845         	9.17
MS.212         	18.805         	9.187
MS.213         	18.767         	9.189
MS.214         	18.73          	9.181
MS.215         	18.692         	9.185
MS.216         	18.657         	9.201
MS.217         	18.62          	9.181
MS.218         	18.583         	9.181
MS.219         	18.545         	9.166
MS.220         	18.507         	9.207
MS.221         	18.47          	9.191
MS.222         	18.432         	9.201
MS.223         	18.397         	9.201
MS.224         	18.36          	9.223
MS.225         	18.323         	9.189
MS.226         	18.288         	9.124
MS.227         	18.25          	9.146
MS.228         	18.215         	9.132
MS.229         	18.177         	9.134
MS.230         	18.14          	9.134
MS.231         	18.105         	9.102
MS.232         	18.067         	9.116
MS.233         	18.032         	9.12
MS.234         	17.997         	9.168
MS.235         	17.96          	9.17
MS.236         	17.925         	9.193
MS.237         	17.89          	9.201
MS.238         	17.852         	9.189
MS.239         	17.817         	9.185
MS.240         	17.782         	9.187
MS.241         	17.747         	9.185
MS.242         	17.71          	9.181
MS.243         	17.675         	9.187
MS.244         	17.64          	9.193
MS.245         	17.605         	9.193
MS.246         	17.57          	9.191
MS.247         	17.535         	9.14
MS.248         	17.5           	9.148
MS.249         	17.465         	9.168
MS.250         	17.43          	9.183
MS.251         	17.395         	9.193
MS.252         	17.36          	9.195
MS.253         	17.325         	9.164
MS.254         	17.29          	9.124
MS.255         	17.257         	9.148
MS.256         	17.222         	9.168
MS.257         	17.188         	9.152
MS.258         	17.153         	9.191
MS.259         	17.12          	9.177
MS.260         	17.085         	9.168
MS.261         	17.05          	9.209
MS.262         	17.017         	9.166
MS.263         	16.983         	9.189
MS.264         	16.948         	9.213
MS.265         	16.915         	9.181
MS.266         	16.88          	9.166
MS.267         	16.847         	9.174
MS.268         	16.812         	9.126
MS.269         	16.78          	9.162
MS.270         	16.747         	9.166
MS.271         	16.712         	9.168
MS.272         	16.68          	9.166
MS.273         	16.645         	9.172
MS.274         	16.612         	9.203
MS.275         	16.58          	9.191
MS.276         	16.547         	9.199
MS.277         	16.512         	9.187
MS.278         	16.48          	9.201
MS.279         	16.448         	9.193
MS.280         	16.415         	9.136
MS.281         	16.382         	9.146
MS.282         	16.35          	9.13
MS.283         	16.317         	9.132
MS.284         	16.285         	9.122
MS.285         	16.253         	9.156
MS.286         	16.22          	9.179
MS.287         	16.188         	9.181
MS.288         	16.155         	9.215
MS.289         	16.122         	9.225
MS.290         	16.09          	9.235
MS.291         	16.057         	9.225
MS.292         	16.025         	9.233
MS.293         	15.992         	9.231
MS.294         	15.962         	9.233
MS.295         	15.93          	9.253
MS.296         	15.898         	9.217
MS.297         	15.865         	9.255
MS.298         	15.835         	9.219
MS.299         	15.802         	9.229
MS.300         	15.77          	9.233
MS.301         	15.74          	9.251
MS.302         	15.707         	9.225
MS.303         	15.677         	9.241
MS.304         	15.645         	9.237
MS.305         	15.615         	9.211
MS.306         	15.582         	9.205
MS.307         	15.552         	9.223
MS.308         	15.52          	9.217
MS.309         	15.49          	9.221
MS.310         	15.46          	9.223
MS.311         	15.427         	9.191
MS.312         	15.398         	9.203
MS.313         	15.367         	9.166
MS.314         	15.335         	9.183
MS.315         	15.305         	9.191
MS.316         	15.275         	9.203
MS.317         	15.245         	9.191
MS.318         	15.212         	9.225
MS.319         	15.182         	9.197
MS.320         	15.152         	9.199
MS.321         	15.122         	9.193
MS.322         	15.092         	9.205
MS.323         	15.062         	9.201
MS.324         	15.032         	9.213
MS.325         	15.002         	9.203
MS.326         	14.972         	9.207
MS.327         	14.943         	9.199
MS.328         	14.912         	9.185
MS.329         	14.882         	9.193
MS.330         	14.852         	9.199
MS.331         	14.822         	9.199
MS.332         	14.792         	9.189
MS.333         	14.765         	9.203
MS.334         	14.735         	9.201
MS.335         	14.705         	9.189
MS.336         	14.675         	9.209
MS.337         	14.645         	9.179
MS.338         	14.617         	9.183
MS.339         	14.587         	9.191
MS.340         	14.557         	9.211
MS.341         	14.53          	9.199
MS.342         	14.5           	9.205
MS.343         	14.472         	9.183
MS.344         	14.443         	9.195
MS.345         	14.412         	9.213
MS.346         	14.385         	9.193
MS.347         	14.355         	9.207
MS.348         	14.327         	9.197
MS.349         	14.3           	9.197
MS.350         	14.27          	9.187
MS.351         	14.242         	9.187
MS.352         	14.212         	9.179
MS.353         	14.185         	9.17
MS.354         	14.157         	9.156
MS.355         	14.127         	9.185
MS.356         	14.1           	9.154
MS.357         	14.072         	9.154
MS.358         	14.045         	9.16
MS.359         	14.015         	9.16
MS.360         	13.987         	9.154
MS.361         	13.96          	9.146
MS.362         	13.932         	9.14
MS.363         	13.905         	9.148
MS.364         	13.877         	9.142
MS.365         	13.847         	9.144
MS.366         	13.82          	9.134
MS.367         	13.792         	9.134
MS.368         	13.765         	9.142
MS.369         	13.737         	9.128
MS.370         	13.71          	9.11
MS.371         	13.682         	9.112
MS.372         	13.655         	9.108
MS.373         	13.63          	9.104
MS.374         	13.602         	9.096
MS.375         	13.575         	9.094
MS.376         	13.547         	9.092
MS.377         	13.52          	9.1
MS.378         	13.492         	9.076
MS.379         	13.465         	9.066
MS.380         	13.44          	9.046
MS.381         	13.412         	9.036
MS.382         	13.385         	9.019
MS.383         	13.36          	9.029
MS.384         	13.332         	9.001
MS.385         	13.305         	8.975
MS.386         	13.28          	8.985
MS.387         	13.252         	8.983
MS.388         	13.225         	8.999
MS.389         	13.2           	9.046
MS.390         	13.172         	9.078
MS.391         	13.148         	9.132
MS.392         	13.12          	9.124
MS.393         	13.095         	9.158
MS.394         	13.068         	9.201
MS.395         	13.042         	9.207
MS.396         	13.015         	9.223
MS.397         	12.99          	9.259
MS.398         	12.965         	9.259
MS.399         	12.938         	9.249
MS.400         	12.912         	9.271
MS.401         	12.887         	9.273
MS.402         	12.86          	9.271
MS.403         	12.835         	9.315
MS.404         	12.81          	9.245
MS.405         	12.785         	9.223
MS.406         	12.757         	9.235
MS.407         	12.733         	9.233
MS.408         	12.707         	9.253
MS.409         	12.682         	9.269
MS.410         	12.657         	9.247
MS.411         	12.632         	9.243
MS.412         	12.605         	9.291
MS.413         	12.58          	9.305
MS.414         	12.555         	9.263
MS.415         	12.53          	9.261
MS.416         	12.505         	9.257
MS.417         	12.48          	9.239
MS.418         	12.455         	9.164
MS.419         	12.43          	9.207
MS.420         	12.405         	9.138
MS.421         	12.38          	9.152
MS.422         	12.358         	9.156
MS.423         	12.332         	9.15
MS.424         	12.307         	9.177
MS.425         	12.282         	9.179
MS.426         	12.257         	9.14
MS.427         	12.233         	9.168
MS.428         	12.21          	9.174
MS.429         	12.185         	9.168
MS.430         	12.16          	9.17
MS.431         	12.135         	9.183
MS.432         	12.113         	9.158
MS.433         	12.087         	9.082
MS.434         	12.062         	9.17
MS.435         	12.04          	9.013
MS.436         	12.015         	9.162
MS.437         	11.992         	9.16
MS.438         	11.967         	9.166
MS.439         	11.943         	9.052
MS.440         	11.92          	9.04
MS.441         	11.895         	9.076
MS.442         	11.872         	9.181
MS.443         	11.847         	9.031
MS.444         	11.825         	9.048
MS.445         	11.8           	9.07
MS.446         	11.778         	9.023
MS.447         	11.755         	8.977
MS.448         	11.73          	8.985
MS.449         	11.707         	9.05
MS.450         	11.682         	9.034
MS.451         	11.66          	9.066
MS.452         	11.637         	9.013
MS.453         	11.613         	9.017
MS.454         	11.59          	9.036
MS.455         	11.568         	9.021
MS.456         	11.545         	8.846
MS.457         	11.52          	8.834
MS.458         	11.497         	9.058
MS.459         	11.475         	9.094
MS.460         	11.452         	9.108
MS.461         	11.43          	9.106
MS.462         	11.407         	9.104
MS.463         	11.382         	9.09
MS.464         	11.36          	9.092
MS.465         	11.337         	9.096
MS.466         	11.315         	8.858
MS.467         	11.292         	8.852
MS.468         	11.27          	9.108
MS.469         	11.247         	8.846
MS.470         	11.225         	8.876
MS.471         	11.202         	9.108
MS.472         	11.18          	8.903
MS.473         	11.157         	8.854
MS.474         	11.135         	8.864
MS.475         	11.113         	9.116
MS.476         	11.092         	8.85
MS.477         	11.07          	8.671
MS.478         	11.047         	8.609
MS.479         	11.025         	8.623
MS.480         	11.002         	8.598
MS.481         	10.98          	8.52
MS.482         	10.96          	8.762
MS.483         	10.938         	8.655
MS.484         	10.915         	8.588
MS.485         	10.892         	8.596
MS.486         	10.872         	8.669
MS.487         	10.85          	8.512
MS.488         	10.827         	8.572
MS.489         	10.807         	8.568
MS.490         	10.785         	8.594
MS.491         	10.762         	8.441
MS.492         	10.742         	8.57
MS.493         	10.72          	8.546
MS.494         	10.7           	8.508
MS.495         	10.677         	8.31
MS.496         	10.657         	8.345
MS.497         	10.635         	8.379
MS.498         	10.615         	8.576
MS.499         	10.592         	8.421
MS.500         	10.573         	8.459
MS.501         	10.55          	8.248
MS.502         	10.53          	8.351
