File:              	C:\Qtrac\Data\Daniel M Sørensen\MScan multicentre study\Data from centres\Bucharest\Processed data\TDLC00130A.QZD
Name:              	RO.BU.NC.3.1
Protocol:          	MSCAN-R2
Date:              	30/1/20
Start time:        	13:59:53
Age:               	31
Sex:               	M
Temperature:       	37.5
S/R sites:         	APB
NC/disease:        	RONC3.1
Operator:          	TL
Comments:
M-SCAN DATA (7-1.5m)
Scanpts: 96, 101, 580, 601
Stim. (mA)     	Amp. (mV)
MS.1           	24.5           	8.576
MS.2           	24.5           	8.564
MS.3           	24.5           	8.538
MS.4           	24.5           	8.55
MS.5           	24.5           	8.544
MS.6           	24.5           	8.528
MS.7           	24.5           	8.552
MS.8           	24.5           	8.558
MS.9           	24.5           	8.546
MS.10          	24.5           	8.55
MS.11          	24.5           	8.554
MS.12          	24.5           	8.546
MS.13          	24.5           	8.55
MS.14          	24.5           	8.558
MS.15          	24.5           	8.546
MS.16          	24.5           	8.558
MS.17          	24.5           	8.552
MS.18          	24.5           	8.552
MS.19          	24.5           	8.57
MS.20          	24.5           	8.572
MS.21          	24.5           	8.566
MS.22          	24.5           	8.572
MS.23          	24.403         	8.572
MS.24          	24.352         	8.564
MS.25          	24.305         	8.564
MS.26          	24.255         	8.568
MS.27          	24.207         	8.57
MS.28          	24.16          	8.576
MS.29          	24.11          	8.586
MS.30          	24.062         	8.596
MS.31          	24.015         	8.57
MS.32          	23.967         	8.576
MS.33          	23.92          	8.582
MS.34          	23.87          	8.58
MS.35          	23.823         	8.58
MS.36          	23.775         	8.594
MS.37          	23.727         	8.578
MS.38          	23.68          	8.576
MS.39          	23.632         	8.584
MS.40          	23.587         	8.58
MS.41          	23.54          	8.586
MS.42          	23.493         	8.596
MS.43          	23.445         	8.594
MS.44          	23.397         	8.586
MS.45          	23.352         	8.58
MS.46          	23.305         	8.59
MS.47          	23.257         	8.602
MS.48          	23.212         	8.596
MS.49          	23.165         	8.602
MS.50          	23.12          	8.609
MS.51          	23.073         	8.588
MS.52          	23.028         	8.586
MS.53          	22.98          	8.594
MS.54          	22.935         	8.592
MS.55          	22.89          	8.588
MS.56          	22.842         	8.6
MS.57          	22.797         	8.619
MS.58          	22.752         	8.625
MS.59          	22.707         	8.631
MS.60          	22.663         	8.631
MS.61          	22.618         	8.607
MS.62          	22.57          	8.615
MS.63          	22.525         	8.623
MS.64          	22.48          	8.631
MS.65          	22.435         	8.635
MS.66          	22.39          	8.617
MS.67          	22.347         	8.627
MS.68          	22.302         	8.625
MS.69          	22.257         	8.607
MS.70          	22.212         	8.631
MS.71          	22.167         	8.627
MS.72          	22.125         	8.619
MS.73          	22.08          	8.625
MS.74          	22.035         	8.629
MS.75          	21.993         	8.623
MS.76          	21.948         	8.607
MS.77          	21.905         	8.631
MS.78          	21.86          	8.621
MS.79          	21.817         	8.627
MS.80          	21.772         	8.629
MS.81          	21.73          	8.627
MS.82          	21.685         	8.627
MS.83          	21.642         	8.623
MS.84          	21.6           	8.625
MS.85          	21.557         	8.607
MS.86          	21.512         	8.619
MS.87          	21.47          	8.615
MS.88          	21.427         	8.609
MS.89          	21.385         	8.635
MS.90          	21.342         	8.659
MS.91          	21.3           	8.665
MS.92          	21.257         	8.671
MS.93          	21.215         	8.661
MS.94          	21.172         	8.661
MS.95          	21.13          	8.637
MS.96          	21.087         	8.647
MS.97          	21.045         	8.671
MS.98          	21.002         	8.677
MS.99          	20.96          	8.669
MS.100         	20.92          	8.647
MS.101         	20.877         	8.677
MS.102         	20.835         	8.659
MS.103         	20.795         	8.669
MS.104         	20.752         	8.695
MS.105         	20.71          	8.685
MS.106         	20.67          	8.476
MS.107         	20.627         	8.661
MS.108         	20.587         	8.677
MS.109         	20.545         	8.663
MS.110         	20.505         	8.673
MS.111         	20.465         	8.514
MS.112         	20.422         	8.685
MS.113         	20.382         	8.532
MS.114         	20.342         	8.673
MS.115         	20.3           	8.534
MS.116         	20.26          	8.492
MS.117         	20.22          	8.514
MS.118         	20.18          	8.693
MS.119         	20.14          	8.54
MS.120         	20.1           	8.522
MS.121         	20.06          	8.536
MS.122         	20.017         	8.514
MS.123         	19.977         	8.691
MS.124         	19.94          	8.544
MS.125         	19.9           	8.502
MS.126         	19.86          	8.536
MS.127         	19.82          	8.51
MS.128         	19.78          	8.51
MS.129         	19.74          	8.506
MS.130         	19.7           	8.514
MS.131         	19.663         	8.516
MS.132         	19.622         	8.518
MS.133         	19.583         	8.552
MS.134         	19.545         	8.556
MS.135         	19.505         	8.538
MS.136         	19.465         	8.552
MS.137         	19.427         	8.558
MS.138         	19.387         	8.546
MS.139         	19.35          	8.542
MS.140         	19.31          	8.562
MS.141         	19.272         	8.544
MS.142         	19.235         	8.566
MS.143         	19.195         	8.546
MS.144         	19.157         	8.572
MS.145         	19.118         	8.556
MS.146         	19.08          	8.562
MS.147         	19.042         	8.584
MS.148         	19.005         	8.548
MS.149         	18.967         	8.558
MS.150         	18.927         	8.576
MS.151         	18.89          	8.566
MS.152         	18.852         	8.55
MS.153         	18.815         	8.57
MS.154         	18.778         	8.554
MS.155         	18.74          	8.574
MS.156         	18.702         	8.566
MS.157         	18.665         	8.58
MS.158         	18.628         	8.578
MS.159         	18.59          	8.582
MS.160         	18.552         	8.556
MS.161         	18.517         	8.584
MS.162         	18.48          	8.578
MS.163         	18.442         	8.59
MS.164         	18.405         	8.576
MS.165         	18.37          	8.574
MS.166         	18.333         	8.564
MS.167         	18.295         	8.564
MS.168         	18.26          	8.592
MS.169         	18.222         	8.58
MS.170         	18.188         	8.556
MS.171         	18.15          	8.576
MS.172         	18.112         	8.598
MS.173         	18.077         	8.586
MS.174         	18.042         	8.586
MS.175         	18.005         	8.568
MS.176         	17.97          	8.564
MS.177         	17.932         	8.562
MS.178         	17.897         	8.57
MS.179         	17.862         	8.604
MS.180         	17.825         	8.578
MS.181         	17.79          	8.57
MS.182         	17.755         	8.586
MS.183         	17.72          	8.578
MS.184         	17.685         	8.6
MS.185         	17.65          	8.556
MS.186         	17.612         	8.594
MS.187         	17.577         	8.598
MS.188         	17.542         	8.592
MS.189         	17.507         	8.568
MS.190         	17.472         	8.602
MS.191         	17.438         	8.566
MS.192         	17.403         	8.58
MS.193         	17.368         	8.598
MS.194         	17.335         	8.6
MS.195         	17.3           	8.18
MS.196         	17.265         	8.468
MS.197         	17.23          	8.496
MS.198         	17.195         	8.627
MS.199         	17.163         	8.611
MS.200         	17.128         	8.56
MS.201         	17.092         	8.538
MS.202         	17.06          	7.998
MS.203         	17.025         	8.129
MS.204         	16.99          	8.57
MS.205         	16.958         	8.478
MS.206         	16.922         	7.996
MS.207         	16.89          	8.419
MS.208         	16.855         	7.984
MS.209         	16.823         	8.043
MS.210         	16.788         	8.22
MS.211         	16.755         	8.016
MS.212         	16.72          	7.96
MS.213         	16.688         	7.996
MS.214         	16.655         	7.902
MS.215         	16.62          	7.982
MS.216         	16.587         	8.012
MS.217         	16.555         	7.873
MS.218         	16.522         	8.018
MS.219         	16.487         	7.847
MS.220         	16.455         	7.614
MS.221         	16.422         	7.646
MS.222         	16.39          	7.992
MS.223         	16.358         	7.96
MS.224         	16.325         	7.757
MS.225         	16.292         	7.964
MS.226         	16.26          	7.853
MS.227         	16.227         	7.787
MS.228         	16.195         	7.777
MS.229         	16.163         	7.801
MS.230         	16.13          	7.787
MS.231         	16.097         	7.736
MS.232         	16.065         	7.555
MS.233         	16.032         	7.616
MS.234         	16.003         	7.543
MS.235         	15.97          	7.513
MS.236         	15.938         	7.656
MS.237         	15.905         	7.489
MS.238         	15.875         	7.529
MS.239         	15.842         	7.527
MS.240         	15.81          	7.62
MS.241         	15.78          	7.519
MS.242         	15.747         	7.511
MS.243         	15.715         	7.507
MS.244         	15.685         	7.529
MS.245         	15.652         	7.458
MS.246         	15.622         	7.517
MS.247         	15.59          	7.521
MS.248         	15.56          	7.519
MS.249         	15.527         	7.541
MS.250         	15.497         	7.436
MS.251         	15.467         	7.469
MS.252         	15.435         	7.422
MS.253         	15.405         	7.481
MS.254         	15.375         	7.36
MS.255         	15.342         	7.471
MS.256         	15.312         	7.438
MS.257         	15.282         	7.45
MS.258         	15.252         	7.378
MS.259         	15.22          	7.297
MS.260         	15.19          	7.495
MS.261         	15.16          	7.485
MS.262         	15.13          	7.265
MS.263         	15.1           	7.334
MS.264         	15.07          	7.221
MS.265         	15.04          	7.243
MS.266         	15.01          	7.303
MS.267         	14.98          	7.168
MS.268         	14.95          	7.271
MS.269         	14.92          	7.207
MS.270         	14.89          	7.313
MS.271         	14.86          	7.255
MS.272         	14.83          	7.146
MS.273         	14.8           	6.955
MS.274         	14.77          	7.215
MS.275         	14.742         	7.114
MS.276         	14.712         	7.251
MS.277         	14.682         	7.154
MS.278         	14.652         	7.104
MS.279         	14.625         	6.814
MS.280         	14.595         	6.753
MS.281         	14.565         	7.06
MS.282         	14.537         	6.826
MS.283         	14.507         	6.782
MS.284         	14.477         	7.126
MS.285         	14.45          	6.566
MS.286         	14.42          	7.124
MS.287         	14.392         	6.645
MS.288         	14.362         	6.846
MS.289         	14.335         	7.074
MS.290         	14.305         	6.415
MS.291         	14.278         	6.459
MS.292         	14.247         	6.623
MS.293         	14.22          	6.667
MS.294         	14.193         	6.308
MS.295         	14.162         	6.61
MS.296         	14.135         	5.954
MS.297         	14.108         	5.95
MS.298         	14.08          	6.278
MS.299         	14.05          	6.034
MS.300         	14.023         	5.885
MS.301         	13.995         	6.375
MS.302         	13.967         	5.916
MS.303         	13.938         	6.173
MS.304         	13.91          	6.173
MS.305         	13.882         	6.282
MS.306         	13.855         	5.859
MS.307         	13.827         	5.908
MS.308         	13.8           	5.787
MS.309         	13.773         	5.769
MS.310         	13.745         	5.867
MS.311         	13.717         	6.04
MS.312         	13.69          	5.668
MS.313         	13.662         	5.601
MS.314         	13.635         	5.545
MS.315         	13.608         	5.444
MS.316         	13.58          	5.779
MS.317         	13.555         	5.521
MS.318         	13.528         	5.819
MS.319         	13.5           	5.007
MS.320         	13.472         	5.539
MS.321         	13.445         	4.969
MS.322         	13.42          	5.247
MS.323         	13.392         	5.386
MS.324         	13.365         	5.058
MS.325         	13.337         	5.331
MS.326         	13.312         	5.348
MS.327         	13.285         	5.049
MS.328         	13.26          	4.947
MS.329         	13.233         	4.81
MS.330         	13.205         	4.739
MS.331         	13.18          	4.788
MS.332         	13.153         	4.84
MS.333         	13.127         	4.808
MS.334         	13.1           	4.745
MS.335         	13.075         	4.61
MS.336         	13.047         	4.804
MS.337         	13.023         	4.77
MS.338         	12.997         	4.631
MS.339         	12.97          	4.508
MS.340         	12.945         	4.477
MS.341         	12.917         	4.298
MS.342         	12.892         	4.677
MS.343         	12.867         	4.548
MS.344         	12.842         	4.54
MS.345         	12.815         	4.075
MS.346         	12.79          	4.357
MS.347         	12.765         	4.345
MS.348         	12.74          	4.173
MS.349         	12.712         	4.278
MS.350         	12.688         	4.171
MS.351         	12.662         	4.069
MS.352         	12.637         	4.226
MS.353         	12.613         	3.871
MS.354         	12.587         	4.073
MS.355         	12.562         	3.869
MS.356         	12.537         	3.704
MS.357         	12.512         	4.155
MS.358         	12.488         	3.499
MS.359         	12.462         	3.178
MS.360         	12.438         	3.827
MS.361         	12.412         	3.569
MS.362         	12.387         	3.376
MS.363         	12.363         	3.06
MS.364         	12.337         	3.476
MS.365         	12.312         	2.997
MS.366         	12.287         	3.039
MS.367         	12.265         	3.178
MS.368         	12.24          	2.939
MS.369         	12.215         	2.641
MS.370         	12.19          	2.967
MS.371         	12.167         	2.969
MS.372         	12.142         	3.031
MS.373         	12.117         	2.435
MS.374         	12.092         	2.496
MS.375         	12.07          	2.564
MS.376         	12.045         	2.471
MS.377         	12.02          	2.405
MS.378         	11.997         	2.145
MS.379         	11.972         	2.342
MS.380         	11.95          	2.344
MS.381         	11.925         	2.469
MS.382         	11.903         	2.195
MS.383         	11.877         	2.33
MS.384         	11.855         	2.228
MS.385         	11.83          	2.409
MS.386         	11.807         	2.091
MS.387         	11.782         	2.153
MS.388         	11.76          	2.226
MS.389         	11.735         	1.982
MS.390         	11.712         	1.847
MS.391         	11.69          	1.879
MS.392         	11.665         	1.899
MS.393         	11.642         	1.855
MS.394         	11.62          	2.111
MS.395         	11.595         	1.996
MS.396         	11.572         	1.686
MS.397         	11.55          	1.682
MS.398         	11.528         	1.648
MS.399         	11.502         	1.672
MS.400         	11.48          	1.603
MS.401         	11.457         	1.754
MS.402         	11.435         	1.561
MS.403         	11.412         	1.333
MS.404         	11.39          	1.438
MS.405         	11.367         	1.567
MS.406         	11.345         	1.472
MS.407         	11.32          	1.464
MS.408         	11.297         	1.378
MS.409         	11.275         	1.368
MS.410         	11.252         	1.472
MS.411         	11.23          	1.404
MS.412         	11.207         	1.12
MS.413         	11.185         	1.345
MS.414         	11.162         	1.15
MS.415         	11.142         	1.043
MS.416         	11.12          	1.198
MS.417         	11.097         	1.17
MS.418         	11.075         	0.961
MS.419         	11.052         	1.122
MS.420         	11.03          	1.108
MS.421         	11.007         	1.027
MS.422         	10.988         	1.096
MS.423         	10.965         	1.068
MS.424         	10.943         	0.777
MS.425         	10.92          	0.91
MS.426         	10.9           	0.812
MS.427         	10.877         	0.733
MS.428         	10.855         	0.876
MS.429         	10.835         	0.906
MS.430         	10.812         	0.673
MS.431         	10.79          	0.771
MS.432         	10.77          	0.9
MS.433         	10.747         	0.761
MS.434         	10.725         	0.532
MS.435         	10.705         	0.749
MS.436         	10.682         	0.433
MS.437         	10.662         	0.55
MS.438         	10.64          	0.681
MS.439         	10.62          	0.411
MS.440         	10.597         	0.506
MS.441         	10.577         	0.413
MS.442         	10.555         	0.836
MS.443         	10.535         	0.532
MS.444         	10.512         	0.512
MS.445         	10.492         	0.518
MS.446         	10.472         	0.348
MS.447         	10.45          	0.278
MS.448         	10.43          	0.284
MS.449         	10.41          	0.244
MS.450         	10.387         	0.403
MS.451         	10.367         	0.429
MS.452         	10.347         	0.395
MS.453         	10.325         	0.165
MS.454         	10.305         	0.361
MS.455         	10.285         	0.23
MS.456         	10.265         	0.268
MS.457         	10.245         	0.175
MS.458         	10.222         	0.393
MS.459         	10.202         	0.123
MS.460         	10.182         	0.153
MS.461         	10.162         	0.141
MS.462         	10.142         	0.093
MS.463         	10.122         	0.135
MS.464         	10.102         	0.201
MS.465         	10.08          	0.147
MS.466         	10.06          	0.145
MS.467         	10.04          	0.095
MS.468         	10.02          	0.105
MS.469         	10             	0.099
MS.470         	9.98           	0.119
MS.471         	9.96           	0.109
MS.472         	9.94           	0.151
MS.473         	9.92           	0.135
MS.474         	9.903          	0.169
MS.475         	9.882          	0.093
MS.476         	9.863          	0.06
MS.477         	9.842          	0.095
MS.478         	9.823          	0.087
MS.479         	9.802          	0.046
MS.480         	9.782          	0.079
MS.481         	9.762          	0.081
MS.482         	9.745          	0.052
MS.483         	9.725          	0.135
MS.484         	9.705          	0.06
MS.485         	9.685          	0.129
MS.486         	9.667          	0.091
MS.487         	9.648          	0.091
MS.488         	9.627          	0.105
MS.489         	9.608          	0.103
MS.490         	9.59           	0.052
MS.491         	9.57           	0.085
MS.492         	9.55           	0.073
MS.493         	9.532          	0.032
MS.494         	9.512          	0.087
MS.495         	9.495          	0.05
MS.496         	9.475          	0.044
MS.497         	9.455          	0.04
MS.498         	9.438          	0.079
MS.499         	9.417          	0.022
MS.500         	9.4            	0.03
MS.501         	9.38           	0.079
