File:              	C:\Qtrac\Data\Daniel M Sørensen\MScan multicentre study\Data from centres\Bucharest\TDLC00129C.QZD
Name:              	RO.BU.NC.1.2
Protocol:          	MSCAN-R2
Date:              	29/1/20
Start time:        	11:52:31
Age:               	30
Sex:               	M
Temperature:       	36.8
S/R sites:         	TA
NC/disease:        	RONC1.2
Operator:
Comments:
M-SCAN DATA (12.3-1.8m)
Scanpts: 326, 335, 1018, 1027
Stim. (mA)     	Amp. (mV)
MS.1           	25             	6.949
MS.2           	25             	6.975
MS.3           	25             	6.941
MS.4           	25             	6.919
MS.5           	25             	6.911
MS.6           	25             	6.903
MS.7           	25             	6.894
MS.8           	25             	6.89
MS.9           	25             	6.901
MS.10          	25             	6.894
MS.11          	25             	6.884
MS.12          	25             	6.894
MS.13          	25             	6.89
MS.14          	25             	6.894
MS.15          	25             	6.886
MS.16          	25             	6.888
MS.17          	25             	6.886
MS.18          	25             	6.886
MS.19          	25             	6.896
MS.20          	25             	6.884
MS.21          	25             	6.896
MS.22          	25             	6.89
MS.23          	25             	6.892
MS.24          	24.9           	6.882
MS.25          	24.85          	6.882
MS.26          	24.8           	6.88
MS.27          	24.75          	6.876
MS.28          	24.702         	6.882
MS.29          	24.653         	6.874
MS.30          	24.602         	6.89
MS.31          	24.555         	6.876
MS.32          	24.505         	6.876
MS.33          	24.455         	6.874
MS.34          	24.407         	6.88
MS.35          	24.358         	6.886
MS.36          	24.31          	6.87
MS.37          	24.26          	6.894
MS.38          	24.212         	6.878
MS.39          	24.165         	6.874
MS.40          	24.115         	6.876
MS.41          	24.067         	6.876
MS.42          	24.02          	6.878
MS.43          	23.972         	6.864
MS.44          	23.925         	6.876
MS.45          	23.875         	6.876
MS.46          	23.827         	6.874
MS.47          	23.78          	6.852
MS.48          	23.733         	6.858
MS.49          	23.685         	6.852
MS.50          	23.637         	6.862
MS.51          	23.59          	6.854
MS.52          	23.545         	6.854
MS.53          	23.497         	6.844
MS.54          	23.45          	6.856
MS.55          	23.403         	6.864
MS.56          	23.358         	6.864
MS.57          	23.31          	6.872
MS.58          	23.262         	6.866
MS.59          	23.217         	6.858
MS.60          	23.17          	6.864
MS.61          	23.125         	6.85
MS.62          	23.077         	6.852
MS.63          	23.032         	6.856
MS.64          	22.985         	6.842
MS.65          	22.94          	6.852
MS.66          	22.895         	6.852
MS.67          	22.847         	6.844
MS.68          	22.802         	6.842
MS.69          	22.757         	6.834
MS.70          	22.712         	6.848
MS.71          	22.665         	6.84
MS.72          	22.62          	6.834
MS.73          	22.575         	6.85
MS.74          	22.53          	6.84
MS.75          	22.485         	6.842
MS.76          	22.44          	6.834
MS.77          	22.395         	6.83
MS.78          	22.35          	6.832
MS.79          	22.307         	6.84
MS.80          	22.262         	6.826
MS.81          	22.217         	6.828
MS.82          	22.172         	6.816
MS.83          	22.127         	6.828
MS.84          	22.085         	6.842
MS.85          	22.04          	6.832
MS.86          	21.995         	6.834
MS.87          	21.952         	6.83
MS.88          	21.907         	6.834
MS.89          	21.865         	6.826
MS.90          	21.82          	6.834
MS.91          	21.778         	6.824
MS.92          	21.735         	6.832
MS.93          	21.69          	6.824
MS.94          	21.647         	6.836
MS.95          	21.605         	6.82
MS.96          	21.56          	6.822
MS.97          	21.517         	6.83
MS.98          	21.475         	6.828
MS.99          	21.432         	6.816
MS.100         	21.39          	6.84
MS.101         	21.345         	6.812
MS.102         	21.302         	6.826
MS.103         	21.26          	6.834
MS.104         	21.217         	6.818
MS.105         	21.175         	6.828
MS.106         	21.135         	6.84
MS.107         	21.092         	6.818
MS.108         	21.05          	6.814
MS.109         	21.007         	6.812
MS.110         	20.965         	6.82
MS.111         	20.922         	6.816
MS.112         	20.882         	6.812
MS.113         	20.84          	6.82
MS.114         	20.797         	6.82
MS.115         	20.757         	6.812
MS.116         	20.715         	6.82
MS.117         	20.675         	6.822
MS.118         	20.632         	6.81
MS.119         	20.592         	6.824
MS.120         	20.55          	6.826
MS.121         	20.51          	6.818
MS.122         	20.467         	6.814
MS.123         	20.427         	6.814
MS.124         	20.387         	6.804
MS.125         	20.345         	6.818
MS.126         	20.305         	6.824
MS.127         	20.265         	6.814
MS.128         	20.225         	6.822
MS.129         	20.182         	6.806
MS.130         	20.142         	6.804
MS.131         	20.102         	6.82
MS.132         	20.062         	6.798
MS.133         	20.022         	6.812
MS.134         	19.983         	6.8
MS.135         	19.942         	6.802
MS.136         	19.903         	6.812
MS.137         	19.862         	6.8
MS.138         	19.823         	6.812
MS.139         	19.785         	6.796
MS.140         	19.745         	6.786
MS.141         	19.705         	6.798
MS.142         	19.665         	6.796
MS.143         	19.627         	6.79
MS.144         	19.587         	6.804
MS.145         	19.547         	6.792
MS.146         	19.51          	6.792
MS.147         	19.47          	6.814
MS.148         	19.43          	6.796
MS.149         	19.392         	6.798
MS.150         	19.352         	6.796
MS.151         	19.315         	6.798
MS.152         	19.275         	6.8
MS.153         	19.237         	6.808
MS.154         	19.2           	6.806
MS.155         	19.16          	6.796
MS.156         	19.122         	6.802
MS.157         	19.085         	6.79
MS.158         	19.047         	6.794
MS.159         	19.007         	6.79
MS.160         	18.97          	6.786
MS.161         	18.932         	6.802
MS.162         	18.895         	6.794
MS.163         	18.858         	6.792
MS.164         	18.82          	6.796
MS.165         	18.782         	6.794
MS.166         	18.745         	6.794
MS.167         	18.708         	6.802
MS.168         	18.67          	6.784
MS.169         	18.632         	6.802
MS.170         	18.595         	6.794
MS.171         	18.557         	6.778
MS.172         	18.52          	6.8
MS.173         	18.483         	6.784
MS.174         	18.448         	6.772
MS.175         	18.41          	6.776
MS.176         	18.372         	6.77
MS.177         	18.335         	6.786
MS.178         	18.3           	6.784
MS.179         	18.262         	6.78
MS.180         	18.227         	6.786
MS.181         	18.19          	6.772
MS.182         	18.153         	6.774
MS.183         	18.118         	6.77
MS.184         	18.08          	6.784
MS.185         	18.045         	6.778
MS.186         	18.01          	6.772
MS.187         	17.972         	6.774
MS.188         	17.938         	6.772
MS.189         	17.903         	6.76
MS.190         	17.865         	6.774
MS.191         	17.83          	6.766
MS.192         	17.795         	6.774
MS.193         	17.757         	6.794
MS.194         	17.722         	6.764
MS.195         	17.688         	6.776
MS.196         	17.653         	6.766
MS.197         	17.618         	6.764
MS.198         	17.583         	6.772
MS.199         	17.547         	6.76
MS.200         	17.512         	6.76
MS.201         	17.477         	6.778
MS.202         	17.442         	6.762
MS.203         	17.407         	6.768
MS.204         	17.372         	6.77
MS.205         	17.337         	6.76
MS.206         	17.302         	6.774
MS.207         	17.267         	6.772
MS.208         	17.235         	6.76
MS.209         	17.2           	6.782
MS.210         	17.165         	6.76
MS.211         	17.13          	6.76
MS.212         	17.097         	6.764
MS.213         	17.062         	6.76
MS.214         	17.028         	6.778
MS.215         	16.995         	6.76
MS.216         	16.96          	6.758
MS.217         	16.927         	6.766
MS.218         	16.892         	6.745
MS.219         	16.86          	6.774
MS.220         	16.825         	6.762
MS.221         	16.792         	6.762
MS.222         	16.757         	6.778
MS.223         	16.725         	6.758
MS.224         	16.69          	6.76
MS.225         	16.657         	6.76
MS.226         	16.625         	6.758
MS.227         	16.59          	6.76
MS.228         	16.557         	6.762
MS.229         	16.525         	6.739
MS.230         	16.493         	6.749
MS.231         	16.46          	6.747
MS.232         	16.425         	6.764
MS.233         	16.392         	6.739
MS.234         	16.36          	6.755
MS.235         	16.327         	6.766
MS.236         	16.295         	6.737
MS.237         	16.262         	6.739
MS.238         	16.23          	6.758
MS.239         	16.198         	6.745
MS.240         	16.165         	6.755
MS.241         	16.132         	6.76
MS.242         	16.1           	6.753
MS.243         	16.067         	6.768
MS.244         	16.038         	6.776
MS.245         	16.005         	6.751
MS.246         	15.972         	6.741
MS.247         	15.94          	6.755
MS.248         	15.91          	6.76
MS.249         	15.877         	6.745
MS.250         	15.845         	6.753
MS.251         	15.812         	6.741
MS.252         	15.782         	6.772
MS.253         	15.75          	6.755
MS.254         	15.72          	6.76
MS.255         	15.688         	6.749
MS.256         	15.657         	6.747
MS.257         	15.625         	6.741
MS.258         	15.595         	6.737
MS.259         	15.562         	6.745
MS.260         	15.532         	6.766
MS.261         	15.5           	6.747
MS.262         	15.47          	6.758
MS.263         	15.438         	6.745
MS.264         	15.407         	6.735
MS.265         	15.377         	6.764
MS.266         	15.347         	6.741
MS.267         	15.315         	6.745
MS.268         	15.285         	6.755
MS.269         	15.255         	6.758
MS.270         	15.225         	6.751
MS.271         	15.193         	6.755
MS.272         	15.162         	6.747
MS.273         	15.132         	6.758
MS.274         	15.102         	6.758
MS.275         	15.072         	6.76
MS.276         	15.042         	6.749
MS.277         	15.012         	6.739
MS.278         	14.983         	6.753
MS.279         	14.952         	6.774
MS.280         	14.922         	6.755
MS.281         	14.892         	6.753
MS.282         	14.862         	6.77
MS.283         	14.832         	6.762
MS.284         	14.802         	6.766
MS.285         	14.775         	6.753
MS.286         	14.745         	6.739
MS.287         	14.715         	6.753
MS.288         	14.685         	6.77
MS.289         	14.657         	6.749
MS.290         	14.627         	6.755
MS.291         	14.597         	6.76
MS.292         	14.568         	6.747
MS.293         	14.54          	6.762
MS.294         	14.51          	6.747
MS.295         	14.483         	6.753
MS.296         	14.452         	6.741
MS.297         	14.422         	6.758
MS.298         	14.395         	6.762
MS.299         	14.365         	6.753
MS.300         	14.337         	6.735
MS.301         	14.31          	6.755
MS.302         	14.28          	6.764
MS.303         	14.252         	6.76
MS.304         	14.222         	6.743
MS.305         	14.195         	6.764
MS.306         	14.167         	6.758
MS.307         	14.137         	6.749
MS.308         	14.11          	6.753
MS.309         	14.082         	6.758
MS.310         	14.052         	6.772
MS.311         	14.025         	6.755
MS.312         	13.997         	6.755
MS.313         	13.97          	6.758
MS.314         	13.943         	6.747
MS.315         	13.912         	6.764
MS.316         	13.885         	6.747
MS.317         	13.858         	6.741
MS.318         	13.83          	6.735
MS.319         	13.802         	6.745
MS.320         	13.775         	6.743
MS.321         	13.747         	6.739
MS.322         	13.72          	6.749
MS.323         	13.693         	6.768
MS.324         	13.665         	6.743
MS.325         	13.637         	6.749
MS.326         	13.61          	6.745
MS.327         	13.582         	6.751
MS.328         	13.557         	6.768
MS.329         	13.53          	6.741
MS.330         	13.502         	6.747
MS.331         	13.475         	6.758
MS.332         	13.447         	6.755
MS.333         	13.422         	6.753
MS.334         	13.395         	6.745
MS.335         	13.367         	6.755
MS.336         	13.342         	6.77
MS.337         	13.315         	6.745
MS.338         	13.287         	6.745
MS.339         	13.262         	6.764
MS.340         	13.235         	6.751
MS.341         	13.207         	6.758
MS.342         	13.182         	6.76
MS.343         	13.155         	6.774
MS.344         	13.13          	6.76
MS.345         	13.102         	6.747
MS.346         	13.077         	6.745
MS.347         	13.05          	6.758
MS.348         	13.025         	6.764
MS.349         	13             	6.762
MS.350         	12.972         	6.751
MS.351         	12.947         	6.739
MS.352         	12.92          	6.749
MS.353         	12.895         	6.751
MS.354         	12.87          	6.755
MS.355         	12.845         	6.758
MS.356         	12.818         	6.747
MS.357         	12.792         	6.772
MS.358         	12.767         	6.747
MS.359         	12.742         	6.764
MS.360         	12.715         	6.753
MS.361         	12.69          	6.762
MS.362         	12.665         	6.745
MS.363         	12.64          	6.741
MS.364         	12.615         	6.772
MS.365         	12.59          	6.753
MS.366         	12.565         	6.753
MS.367         	12.54          	6.709
MS.368         	12.515         	6.711
MS.369         	12.49          	6.77
MS.370         	12.465         	6.709
MS.371         	12.44          	6.707
MS.372         	12.415         	6.709
MS.373         	12.39          	6.707
MS.374         	12.365         	6.715
MS.375         	12.34          	6.711
MS.376         	12.315         	6.721
MS.377         	12.29          	6.731
MS.378         	12.267         	6.713
MS.379         	12.242         	6.719
MS.380         	12.217         	6.715
MS.381         	12.193         	6.707
MS.382         	12.17          	6.715
MS.383         	12.145         	6.721
MS.384         	12.12          	6.719
MS.385         	12.095         	6.721
MS.386         	12.072         	6.717
MS.387         	12.047         	6.687
MS.388         	12.023         	6.697
MS.389         	12             	6.721
MS.390         	11.975         	6.723
MS.391         	11.952         	6.675
MS.392         	11.927         	6.711
MS.393         	11.905         	6.703
MS.394         	11.88          	6.681
MS.395         	11.858         	6.713
MS.396         	11.832         	6.751
MS.397         	11.81          	6.727
MS.398         	11.785         	6.681
MS.399         	11.762         	6.659
MS.400         	11.738         	6.701
MS.401         	11.715         	6.661
MS.402         	11.693         	6.697
MS.403         	11.667         	6.717
MS.404         	11.645         	6.651
MS.405         	11.622         	6.711
MS.406         	11.597         	6.61
MS.407         	11.575         	6.661
MS.408         	11.552         	6.663
MS.409         	11.53          	6.721
MS.410         	11.505         	6.707
MS.411         	11.483         	6.592
MS.412         	11.46          	6.802
MS.413         	11.438         	6.733
MS.414         	11.415         	6.727
MS.415         	11.392         	6.655
MS.416         	11.37          	6.621
MS.417         	11.345         	6.749
MS.418         	11.322         	6.598
MS.419         	11.3           	6.739
MS.420         	11.278         	6.681
MS.421         	11.255         	6.641
MS.422         	11.233         	6.743
MS.423         	11.21          	6.691
MS.424         	11.188         	6.703
MS.425         	11.165         	6.731
MS.426         	11.142         	6.697
MS.427         	11.122         	6.727
MS.428         	11.1           	6.633
MS.429         	11.077         	6.733
MS.430         	11.055         	6.663
MS.431         	11.032         	6.649
MS.432         	11.01          	6.671
MS.433         	10.988         	6.731
MS.434         	10.967         	6.681
MS.435         	10.945         	6.637
MS.436         	10.922         	6.655
MS.437         	10.9           	6.693
MS.438         	10.88          	6.58
MS.439         	10.858         	6.637
MS.440         	10.835         	6.643
MS.441         	10.815         	6.631
MS.442         	10.792         	6.675
MS.443         	10.77          	6.619
MS.444         	10.75          	6.574
MS.445         	10.727         	6.645
MS.446         	10.707         	6.504
MS.447         	10.685         	6.484
MS.448         	10.665         	6.608
MS.449         	10.642         	6.494
MS.450         	10.622         	6.437
MS.451         	10.6           	6.516
MS.452         	10.58          	6.463
MS.453         	10.557         	6.449
MS.454         	10.537         	6.492
MS.455         	10.515         	6.419
MS.456         	10.495         	6.455
MS.457         	10.472         	6.552
MS.458         	10.452         	6.52
MS.459         	10.432         	6.415
MS.460         	10.41          	6.379
MS.461         	10.39          	6.331
MS.462         	10.37          	6.328
MS.463         	10.35          	6.371
MS.464         	10.327         	6.369
MS.465         	10.307         	6.417
MS.466         	10.287         	6.316
MS.467         	10.267         	6.349
MS.468         	10.245         	6.3
MS.469         	10.225         	6.266
MS.470         	10.205         	6.264
MS.471         	10.185         	6.276
MS.472         	10.165         	6.29
MS.473         	10.145         	6.248
MS.474         	10.122         	6.242
MS.475         	10.102         	6.272
MS.476         	10.082         	6.339
MS.477         	10.062         	6.322
MS.478         	10.042         	6.314
MS.479         	10.023         	6.331
MS.480         	10.002         	6.26
MS.481         	9.983          	6.341
MS.482         	9.962          	6.268
MS.483         	9.943          	6.226
MS.484         	9.922          	6.254
MS.485         	9.903          	6.256
MS.486         	9.882          	6.226
MS.487         	9.865          	6.208
MS.488         	9.845          	6.22
MS.489         	9.825          	6.258
MS.490         	9.805          	6.212
MS.491         	9.785          	6.218
MS.492         	9.765          	6.194
MS.493         	9.745          	6.198
MS.494         	9.727          	6.226
MS.495         	9.707          	6.188
MS.496         	9.688          	6.185
MS.497         	9.667          	6.19
MS.498         	9.65           	6.127
MS.499         	9.63           	6.185
MS.500         	9.61           	6.226
MS.501         	9.592          	6.177
MS.502         	9.573          	6.179
