File:              	C:\Qtrac\Data\Daniel M Sørensen\MScan multicentre study\Data from centres\Bucharest\Processed data\TDLC00206D.QZD
Name:              	RO.BU.NC.2.2
Protocol:          	MSCAN-R2
Date:              	6/2/20
Start time:        	14:48:08
Age:               	57
Sex:               	M
Temperature:       	36.8
S/R sites:         	TA
NC/disease:        	RONC2.2
Operator:          	TL
Comments:
M-SCAN DATA (9.1-1.1m)
Scanpts: 72, 79, 762, 776
Stim. (mA)     	Amp. (mV)
MS.1           	27.5           	6.316
MS.2           	27.5           	6.326
MS.3           	27.5           	6.318
MS.4           	27.5           	6.314
MS.5           	27.5           	6.302
MS.6           	27.5           	6.298
MS.7           	27.5           	6.29
MS.8           	27.5           	6.288
MS.9           	27.5           	6.292
MS.10          	27.5           	6.284
MS.11          	27.5           	6.296
MS.12          	27.5           	6.284
MS.13          	27.5           	6.294
MS.14          	27.5           	6.284
MS.15          	27.5           	6.274
MS.16          	27.5           	6.274
MS.17          	27.5           	6.272
MS.18          	27.5           	6.254
MS.19          	27.5           	6.294
MS.20          	27.5           	6.288
MS.21          	27.5           	6.288
MS.22          	27.5           	6.288
MS.23          	27.5           	6.286
MS.24          	27.39          	6.286
MS.25          	27.335         	6.294
MS.26          	27.28          	6.294
MS.27          	27.227         	6.28
MS.28          	27.172         	6.282
MS.29          	27.118         	6.258
MS.30          	27.062         	6.302
MS.31          	27.01          	6.26
MS.32          	26.955         	6.294
MS.33          	26.903         	6.298
MS.34          	26.847         	6.3
MS.35          	26.795         	6.276
MS.36          	26.74          	6.268
MS.37          	26.688         	6.274
MS.38          	26.635         	6.31
MS.39          	26.58          	6.278
MS.40          	26.528         	6.262
MS.41          	26.475         	6.308
MS.42          	26.422         	6.316
MS.43          	26.37          	6.288
MS.44          	26.315         	6.274
MS.45          	26.262         	6.278
MS.46          	26.21          	6.288
MS.47          	26.157         	6.288
MS.48          	26.108         	6.288
MS.49          	26.055         	6.339
MS.50          	26.002         	6.294
MS.51          	25.95          	6.292
MS.52          	25.897         	6.294
MS.53          	25.847         	6.294
MS.54          	25.795         	6.282
MS.55          	25.743         	6.3
MS.56          	25.692         	6.349
MS.57          	25.64          	6.343
MS.58          	25.59          	6.3
MS.59          	25.538         	6.302
MS.60          	25.487         	6.314
MS.61          	25.438         	6.282
MS.62          	25.385         	6.351
MS.63          	25.335         	6.304
MS.64          	25.285         	6.314
MS.65          	25.233         	6.318
MS.66          	25.182         	6.306
MS.67          	25.132         	6.304
MS.68          	25.082         	6.296
MS.69          	25.032         	6.292
MS.70          	24.983         	6.29
MS.71          	24.932         	6.29
MS.72          	24.882         	6.28
MS.73          	24.832         	6.304
MS.74          	24.782         	6.292
MS.75          	24.735         	6.292
MS.76          	24.685         	6.302
MS.77          	24.635         	6.29
MS.78          	24.585         	6.304
MS.79          	24.538         	6.31
MS.80          	24.487         	6.304
MS.81          	24.44          	6.302
MS.82          	24.39          	6.308
MS.83          	24.342         	6.308
MS.84          	24.292         	6.288
MS.85          	24.245         	6.292
MS.86          	24.195         	6.304
MS.87          	24.147         	6.272
MS.88          	24.1           	6.272
MS.89          	24.05          	6.244
MS.90          	24.002         	6.254
MS.91          	23.955         	6.262
MS.92          	23.907         	6.282
MS.93          	23.86          	6.288
MS.94          	23.812         	6.288
MS.95          	23.765         	6.272
MS.96          	23.717         	6.258
MS.97          	23.67          	6.306
MS.98          	23.622         	6.314
MS.99          	23.575         	6.274
MS.100         	23.528         	6.258
MS.101         	23.48          	6.282
MS.102         	23.435         	6.304
MS.103         	23.387         	6.24
MS.104         	23.34          	6.248
MS.105         	23.292         	6.296
MS.106         	23.247         	6.26
MS.107         	23.2           	6.244
MS.108         	23.155         	6.292
MS.109         	23.108         	6.246
MS.110         	23.062         	6.25
MS.111         	23.015         	6.232
MS.112         	22.97          	6.242
MS.113         	22.925         	6.248
MS.114         	22.877         	6.242
MS.115         	22.832         	6.242
MS.116         	22.788         	6.234
MS.117         	22.743         	6.236
MS.118         	22.695         	6.228
MS.119         	22.65          	6.232
MS.120         	22.605         	6.232
MS.121         	22.56          	6.24
MS.122         	22.515         	6.222
MS.123         	22.47          	6.22
MS.124         	22.425         	6.234
MS.125         	22.38          	6.24
MS.126         	22.335         	6.24
MS.127         	22.29          	6.224
MS.128         	22.247         	6.222
MS.129         	22.202         	6.214
MS.130         	22.157         	6.216
MS.131         	22.112         	6.256
MS.132         	22.07          	6.226
MS.133         	22.025         	6.192
MS.134         	21.98          	6.19
MS.135         	21.938         	6.163
MS.136         	21.892         	6.161
MS.137         	21.85          	6.188
MS.138         	21.805         	6.141
MS.139         	21.762         	6.157
MS.140         	21.72          	6.208
MS.141         	21.675         	6.19
MS.142         	21.632         	6.177
MS.143         	21.59          	6.137
MS.144         	21.545         	6.157
MS.145         	21.502         	6.161
MS.146         	21.46          	6.159
MS.147         	21.417         	6.151
MS.148         	21.375         	6.175
MS.149         	21.333         	6.149
MS.150         	21.29          	6.155
MS.151         	21.247         	6.145
MS.152         	21.205         	6.125
MS.153         	21.163         	6.141
MS.154         	21.12          	6.111
MS.155         	21.077         	6.135
MS.156         	21.035         	6.115
MS.157         	20.993         	6.107
MS.158         	20.95          	6.095
MS.159         	20.91          	6.131
MS.160         	20.868         	6.109
MS.161         	20.825         	6.093
MS.162         	20.785         	6.107
MS.163         	20.743         	6.117
MS.164         	20.7           	6.101
MS.165         	20.66          	6.109
MS.166         	20.618         	6.071
MS.167         	20.577         	6.121
MS.168         	20.535         	6.071
MS.169         	20.495         	6.044
MS.170         	20.455         	6.107
MS.171         	20.413         	6.038
MS.172         	20.372         	6.051
MS.173         	20.333         	6.079
MS.174         	20.29          	6.047
MS.175         	20.25          	6.051
MS.176         	20.21          	6.061
MS.177         	20.17          	6.057
MS.178         	20.13          	6.047
MS.179         	20.09          	5.968
MS.180         	20.05          	6.069
MS.181         	20.01          	5.942
MS.182         	19.97          	5.998
MS.183         	19.93          	6.069
MS.184         	19.89          	5.978
MS.185         	19.85          	5.974
MS.186         	19.81          	5.956
MS.187         	19.77          	5.972
MS.188         	19.73          	5.968
MS.189         	19.692         	5.897
MS.190         	19.653         	5.906
MS.191         	19.612         	5.93
MS.192         	19.573         	5.958
MS.193         	19.535         	5.871
MS.194         	19.495         	5.861
MS.195         	19.458         	5.924
MS.196         	19.417         	5.831
MS.197         	19.38          	5.819
MS.198         	19.34          	5.843
MS.199         	19.302         	5.823
MS.200         	19.262         	5.803
MS.201         	19.225         	5.779
MS.202         	19.185         	5.91
MS.203         	19.147         	5.857
MS.204         	19.11          	5.853
MS.205         	19.07          	5.837
MS.206         	19.032         	5.839
MS.207         	18.995         	5.773
MS.208         	18.958         	5.863
MS.209         	18.92          	5.787
MS.210         	18.882         	5.654
MS.211         	18.845         	5.738
MS.212         	18.805         	5.769
MS.213         	18.767         	5.692
MS.214         	18.73          	5.642
MS.215         	18.692         	5.72
MS.216         	18.657         	5.644
MS.217         	18.62          	5.64
MS.218         	18.583         	5.622
MS.219         	18.545         	5.577
MS.220         	18.507         	5.587
MS.221         	18.47          	5.722
MS.222         	18.432         	5.64
MS.223         	18.397         	5.672
MS.224         	18.36          	5.559
MS.225         	18.323         	5.571
MS.226         	18.288         	5.537
MS.227         	18.25          	5.446
MS.228         	18.215         	5.581
MS.229         	18.177         	5.483
MS.230         	18.14          	5.569
MS.231         	18.105         	5.442
MS.232         	18.067         	5.386
MS.233         	18.032         	5.37
MS.234         	17.997         	5.454
MS.235         	17.96          	5.342
MS.236         	17.925         	5.452
MS.237         	17.89          	5.414
MS.238         	17.852         	5.458
MS.239         	17.817         	5.466
MS.240         	17.782         	5.364
MS.241         	17.747         	5.34
MS.242         	17.71          	5.35
MS.243         	17.675         	5.299
MS.244         	17.64          	5.313
MS.245         	17.605         	5.233
MS.246         	17.57          	5.309
MS.247         	17.535         	5.255
MS.248         	17.5           	5.211
MS.249         	17.465         	5.366
MS.250         	17.43          	5.223
MS.251         	17.395         	5.227
MS.252         	17.36          	5.239
MS.253         	17.325         	5.182
MS.254         	17.29          	5.205
MS.255         	17.257         	5.233
MS.256         	17.222         	5.178
MS.257         	17.188         	5.203
MS.258         	17.153         	5.148
MS.259         	17.12          	5.186
MS.260         	17.085         	5.07
MS.261         	17.05          	5.142
MS.262         	17.017         	5.122
MS.263         	16.983         	5.106
MS.264         	16.948         	5.156
MS.265         	16.915         	5.084
MS.266         	16.88          	5.11
MS.267         	16.847         	5.052
MS.268         	16.812         	5.001
MS.269         	16.78          	5.052
MS.270         	16.747         	5.056
MS.271         	16.712         	4.999
MS.272         	16.68          	4.985
MS.273         	16.645         	4.991
MS.274         	16.612         	5.017
MS.275         	16.58          	4.965
MS.276         	16.547         	5.021
MS.277         	16.512         	4.975
MS.278         	16.48          	5.005
MS.279         	16.448         	4.963
MS.280         	16.415         	4.985
MS.281         	16.382         	4.963
MS.282         	16.35          	4.925
MS.283         	16.317         	4.959
MS.284         	16.285         	4.878
MS.285         	16.253         	4.957
MS.286         	16.22          	4.904
MS.287         	16.188         	4.906
MS.288         	16.155         	4.896
MS.289         	16.122         	4.898
MS.290         	16.09          	4.919
MS.291         	16.057         	4.842
MS.292         	16.025         	4.852
MS.293         	15.992         	4.852
MS.294         	15.962         	4.876
MS.295         	15.93          	4.832
MS.296         	15.898         	4.844
MS.297         	15.865         	4.782
MS.298         	15.835         	4.836
MS.299         	15.802         	4.784
MS.300         	15.77          	4.796
MS.301         	15.74          	4.788
MS.302         	15.707         	4.828
MS.303         	15.677         	4.802
MS.304         	15.645         	4.8
MS.305         	15.615         	4.766
MS.306         	15.582         	4.749
MS.307         	15.552         	4.737
MS.308         	15.52          	4.727
MS.309         	15.49          	4.715
MS.310         	15.46          	4.689
MS.311         	15.427         	4.751
MS.312         	15.398         	4.697
MS.313         	15.367         	4.772
MS.314         	15.335         	4.719
MS.315         	15.305         	4.645
MS.316         	15.275         	4.711
MS.317         	15.245         	4.643
MS.318         	15.212         	4.645
MS.319         	15.182         	4.689
MS.320         	15.152         	4.649
MS.321         	15.122         	4.643
MS.322         	15.092         	4.637
MS.323         	15.062         	4.629
MS.324         	15.032         	4.534
MS.325         	15.002         	4.566
MS.326         	14.972         	4.562
MS.327         	14.943         	4.522
MS.328         	14.912         	4.55
MS.329         	14.882         	4.558
MS.330         	14.852         	4.542
MS.331         	14.822         	4.554
MS.332         	14.792         	4.502
MS.333         	14.765         	4.52
MS.334         	14.735         	4.473
MS.335         	14.705         	4.453
MS.336         	14.675         	4.506
MS.337         	14.645         	4.475
MS.338         	14.617         	4.447
MS.339         	14.587         	4.431
MS.340         	14.557         	4.332
MS.341         	14.53          	4.326
MS.342         	14.5           	4.427
MS.343         	14.472         	4.355
MS.344         	14.443         	4.389
MS.345         	14.412         	4.349
MS.346         	14.385         	4.284
MS.347         	14.355         	4.29
MS.348         	14.327         	4.268
MS.349         	14.3           	4.224
MS.350         	14.27          	4.332
MS.351         	14.242         	4.308
MS.352         	14.212         	4.278
MS.353         	14.185         	4.198
MS.354         	14.157         	4.21
MS.355         	14.127         	4.181
MS.356         	14.1           	4.171
MS.357         	14.072         	4.204
MS.358         	14.045         	4.145
MS.359         	14.015         	4.079
MS.360         	13.987         	4.042
MS.361         	13.96          	4.089
MS.362         	13.932         	4.085
MS.363         	13.905         	4.038
MS.364         	13.877         	3.998
MS.365         	13.847         	3.962
MS.366         	13.82          	4
MS.367         	13.792         	3.976
MS.368         	13.765         	3.988
MS.369         	13.737         	3.918
MS.370         	13.71          	3.909
MS.371         	13.682         	3.92
MS.372         	13.655         	3.901
MS.373         	13.63          	3.903
MS.374         	13.602         	3.903
MS.375         	13.575         	3.791
MS.376         	13.547         	3.851
MS.377         	13.52          	3.815
MS.378         	13.492         	3.853
MS.379         	13.465         	3.871
MS.380         	13.44          	3.762
MS.381         	13.412         	3.811
MS.382         	13.385         	3.714
MS.383         	13.36          	3.73
MS.384         	13.332         	3.682
MS.385         	13.305         	3.609
MS.386         	13.28          	3.553
MS.387         	13.252         	3.654
MS.388         	13.225         	3.541
MS.389         	13.2           	3.605
MS.390         	13.172         	3.648
MS.391         	13.148         	3.362
MS.392         	13.12          	3.511
MS.393         	13.095         	3.44
MS.394         	13.068         	3.585
MS.395         	13.042         	3.414
MS.396         	13.015         	3.325
MS.397         	12.99          	3.273
MS.398         	12.965         	3.454
MS.399         	12.938         	3.259
MS.400         	12.912         	3.317
MS.401         	12.887         	3.267
MS.402         	12.86          	3.243
MS.403         	12.835         	3.172
MS.404         	12.81          	3.132
MS.405         	12.785         	3.14
MS.406         	12.757         	3.076
MS.407         	12.733         	3.108
MS.408         	12.707         	3.096
MS.409         	12.682         	3.108
MS.410         	12.657         	3.007
MS.411         	12.632         	3.096
MS.412         	12.605         	2.957
MS.413         	12.58          	3.017
MS.414         	12.555         	3.051
MS.415         	12.53          	2.993
MS.416         	12.505         	2.929
MS.417         	12.48          	2.945
MS.418         	12.455         	2.919
MS.419         	12.43          	2.927
MS.420         	12.405         	2.929
MS.421         	12.38          	2.894
MS.422         	12.358         	2.82
MS.423         	12.332         	2.804
MS.424         	12.307         	2.874
MS.425         	12.282         	2.8
MS.426         	12.257         	2.794
MS.427         	12.233         	2.826
MS.428         	12.21          	2.832
MS.429         	12.185         	2.812
MS.430         	12.16          	2.786
MS.431         	12.135         	2.701
MS.432         	12.113         	2.717
MS.433         	12.087         	2.665
MS.434         	12.062         	2.689
MS.435         	12.04          	2.701
MS.436         	12.015         	2.671
MS.437         	11.992         	2.626
MS.438         	11.967         	2.649
MS.439         	11.943         	2.671
MS.440         	11.92          	2.548
MS.441         	11.895         	2.528
MS.442         	11.872         	2.516
MS.443         	11.847         	2.55
MS.444         	11.825         	2.526
MS.445         	11.8           	2.504
MS.446         	11.778         	2.449
MS.447         	11.755         	2.54
MS.448         	11.73          	2.508
MS.449         	11.707         	2.411
MS.450         	11.682         	2.421
MS.451         	11.66          	2.383
MS.452         	11.637         	2.417
MS.453         	11.613         	2.373
MS.454         	11.59          	2.409
MS.455         	11.568         	2.346
MS.456         	11.545         	2.389
MS.457         	11.52          	2.33
MS.458         	11.497         	2.316
MS.459         	11.475         	2.351
MS.460         	11.452         	2.365
MS.461         	11.43          	2.318
MS.462         	11.407         	2.306
MS.463         	11.382         	2.268
MS.464         	11.36          	2.203
MS.465         	11.337         	2.203
MS.466         	11.315         	2.155
MS.467         	11.292         	2.177
MS.468         	11.27          	2.201
MS.469         	11.247         	2.216
MS.470         	11.225         	2.143
MS.471         	11.202         	2.125
MS.472         	11.18          	2.131
MS.473         	11.157         	2.087
MS.474         	11.135         	2.02
MS.475         	11.113         	2.042
MS.476         	11.092         	2.024
MS.477         	11.07          	1.962
MS.478         	11.047         	1.952
MS.479         	11.025         	1.95
MS.480         	11.002         	1.944
MS.481         	10.98          	1.956
MS.482         	10.96          	1.944
MS.483         	10.938         	1.861
MS.484         	10.915         	1.849
MS.485         	10.892         	1.837
MS.486         	10.872         	1.831
MS.487         	10.85          	1.807
MS.488         	10.827         	1.75
MS.489         	10.807         	1.819
MS.490         	10.785         	1.726
MS.491         	10.762         	1.762
MS.492         	10.742         	1.674
MS.493         	10.72          	1.734
MS.494         	10.7           	1.599
MS.495         	10.677         	1.66
MS.496         	10.657         	1.589
MS.497         	10.635         	1.611
MS.498         	10.615         	1.497
MS.499         	10.592         	1.501
MS.500         	10.573         	1.495
MS.501         	10.55          	1.511
