File:              	C:\Qtrac\Data\Daniel M Sørensen\MScan multicentre study\Data from centres\Bucharest\Processed data\TDLC00831B.QZD
Name:              	RO.BU.NC.7.1
Protocol:          	MSCAN-R2
Date:              	31/8/20
Start time:        	12:38:48
Age:               	48
Sex:               	F
Temperature:       	36.5
S/R sites:         	ADM
NC/disease:        	NC
Operator:          	TL
Comments:          	RONC7.1.
M-SCAN DATA (6-1.3m)
Scanpts: 12, 16, 496, 518
Stim. (mA)     	Amp. (mV)
MS.1           	24             	7.245
MS.2           	24             	7.225
MS.3           	24             	7.249
MS.4           	24             	7.209
MS.5           	24             	7.178
MS.6           	24             	7.285
MS.7           	24             	7.205
MS.8           	24             	7.197
MS.9           	24             	7.235
MS.10          	24             	7.243
MS.11          	24             	7.267
MS.12          	24             	7.291
MS.13          	24             	7.287
MS.14          	24             	7.273
MS.15          	24             	7.295
MS.16          	24             	7.289
MS.17          	24             	7.295
MS.18          	24             	7.174
MS.19          	24             	7.313
MS.20          	24             	7.281
MS.21          	24             	7.253
MS.22          	24             	7.305
MS.23          	24             	7.279
MS.24          	23.905         	7.303
MS.25          	23.858         	7.293
MS.26          	23.807         	7.283
MS.27          	23.76          	7.239
MS.28          	23.712         	7.235
MS.29          	23.665         	7.269
MS.30          	23.62          	7.197
MS.31          	23.573         	7.213
MS.32          	23.525         	7.265
MS.33          	23.477         	7.227
MS.34          	23.43          	7.207
MS.35          	23.385         	7.241
MS.36          	23.337         	7.265
MS.37          	23.29          	7.193
MS.38          	23.245         	7.221
MS.39          	23.198         	7.239
MS.40          	23.153         	7.229
MS.41          	23.105         	7.211
MS.42          	23.06          	7.209
MS.43          	23.012         	7.205
MS.44          	22.967         	7.261
MS.45          	22.92          	7.152
MS.46          	22.875         	7.191
MS.47          	22.83          	7.17
MS.48          	22.785         	7.18
MS.49          	22.737         	7.182
MS.50          	22.692         	7.185
MS.51          	22.647         	7.158
MS.52          	22.602         	7.152
MS.53          	22.557         	7.144
MS.54          	22.512         	7.158
MS.55          	22.467         	7.16
MS.56          	22.422         	7.124
MS.57          	22.377         	7.14
MS.58          	22.332         	7.138
MS.59          	22.288         	7.11
MS.60          	22.243         	7.078
MS.61          	22.2           	7.064
MS.62          	22.155         	7.078
MS.63          	22.11          	7.046
MS.64          	22.067         	7.019
MS.65          	22.022         	7.017
MS.66          	21.977         	7.017
MS.67          	21.935         	7.007
MS.68          	21.89          	7.027
MS.69          	21.847         	7.042
MS.70          	21.802         	7.001
MS.71          	21.76          	6.993
MS.72          	21.715         	6.991
MS.73          	21.672         	6.945
MS.74          	21.63          	6.921
MS.75          	21.585         	6.868
MS.76          	21.542         	6.878
MS.77          	21.5           	6.965
MS.78          	21.458         	6.864
MS.79          	21.415         	6.927
MS.80          	21.372         	6.905
MS.81          	21.327         	6.874
MS.82          	21.285         	6.884
MS.83          	21.243         	6.88
MS.84          	21.2           	6.816
MS.85          	21.157         	6.866
MS.86          	21.118         	6.85
MS.87          	21.075         	6.792
MS.88          	21.032         	6.755
MS.89          	20.99          	6.864
MS.90          	20.948         	6.762
MS.91          	20.907         	6.788
MS.92          	20.865         	6.786
MS.93          	20.823         	6.768
MS.94          	20.78          	6.786
MS.95          	20.74          	6.83
MS.96          	20.698         	6.812
MS.97          	20.657         	6.673
MS.98          	20.615         	6.731
MS.99          	20.575         	6.715
MS.100         	20.532         	6.741
MS.101         	20.493         	6.655
MS.102         	20.452         	6.639
MS.103         	20.41          	6.693
MS.104         	20.37          	6.61
MS.105         	20.33          	6.633
MS.106         	20.288         	6.612
MS.107         	20.247         	6.697
MS.108         	20.208         	6.615
MS.109         	20.167         	6.629
MS.110         	20.127         	6.733
MS.111         	20.087         	6.608
MS.112         	20.047         	6.606
MS.113         	20.007         	6.508
MS.114         	19.967         	6.637
MS.115         	19.927         	6.641
MS.116         	19.887         	6.558
MS.117         	19.847         	6.528
MS.118         	19.807         	6.562
MS.119         	19.767         	6.631
MS.120         	19.727         	6.457
MS.121         	19.69          	6.572
MS.122         	19.65          	6.534
MS.123         	19.61          	6.558
MS.124         	19.57          	6.588
MS.125         	19.532         	6.502
MS.126         	19.493         	6.604
MS.127         	19.455         	6.536
MS.128         	19.415         	6.453
MS.129         	19.377         	6.474
MS.130         	19.337         	6.486
MS.131         	19.3           	6.584
MS.132         	19.26          	6.522
MS.133         	19.222         	6.502
MS.134         	19.182         	6.443
MS.135         	19.145         	6.433
MS.136         	19.108         	6.453
MS.137         	19.067         	6.478
MS.138         	19.03          	6.484
MS.139         	18.993         	6.403
MS.140         	18.955         	6.451
MS.141         	18.917         	6.548
MS.142         	18.88          	6.5
MS.143         	18.842         	6.528
MS.144         	18.802         	6.453
MS.145         	18.765         	6.484
MS.146         	18.727         	6.478
MS.147         	18.69          	6.471
MS.148         	18.655         	6.445
MS.149         	18.618         	6.48
MS.150         	18.58          	6.467
MS.151         	18.542         	6.453
MS.152         	18.505         	6.524
MS.153         	18.467         	6.471
MS.154         	18.432         	6.516
MS.155         	18.395         	6.496
MS.156         	18.358         	6.467
MS.157         	18.32          	6.431
MS.158         	18.285         	6.588
MS.159         	18.247         	6.451
MS.160         	18.212         	6.385
MS.161         	18.175         	6.377
MS.162         	18.137         	6.399
MS.163         	18.102         	6.457
MS.164         	18.067         	6.433
MS.165         	18.03          	6.367
MS.166         	17.995         	6.433
MS.167         	17.958         	6.435
MS.168         	17.922         	6.455
MS.169         	17.887         	6.381
MS.170         	17.85          	6.331
MS.171         	17.815         	6.361
MS.172         	17.78          	6.371
MS.173         	17.745         	6.399
MS.174         	17.708         	6.361
MS.175         	17.672         	6.355
MS.176         	17.637         	6.381
MS.177         	17.602         	6.417
MS.178         	17.567         	6.341
MS.179         	17.532         	6.318
MS.180         	17.497         	6.314
MS.181         	17.462         	6.306
MS.182         	17.427         	6.359
MS.183         	17.392         	6.202
MS.184         	17.358         	6.244
MS.185         	17.323         	6.266
MS.186         	17.288         	6.165
MS.187         	17.255         	6.206
MS.188         	17.22          	6.262
MS.189         	17.185         	6.169
MS.190         	17.15          	6.268
MS.191         	17.118         	6.208
MS.192         	17.083         	6.2
MS.193         	17.047         	6.167
MS.194         	17.015         	6.256
MS.195         	16.98          	6.188
MS.196         	16.948         	6.2
MS.197         	16.913         	6.131
MS.198         	16.878         	6.198
MS.199         	16.845         	6.204
MS.200         	16.812         	6.21
MS.201         	16.778         	6.24
MS.202         	16.745         	6.038
MS.203         	16.71          	6.129
MS.204         	16.677         	6.119
MS.205         	16.645         	6.161
MS.206         	16.61          	6.121
MS.207         	16.577         	6.055
MS.208         	16.545         	5.95
MS.209         	16.512         	6.135
MS.210         	16.477         	6.137
MS.211         	16.445         	6.016
MS.212         	16.413         	6.111
MS.213         	16.38          	5.962
MS.214         	16.347         	5.853
MS.215         	16.315         	5.96
MS.216         	16.282         	6.002
MS.217         	16.25          	5.97
MS.218         	16.217         	5.942
MS.219         	16.185         	5.984
MS.220         	16.153         	5.96
MS.221         	16.12          	6.018
MS.222         	16.087         	5.926
MS.223         	16.055         	5.952
MS.224         	16.022         	5.891
MS.225         	15.992         	5.942
MS.226         	15.96          	5.893
MS.227         	15.927         	5.869
MS.228         	15.895         	5.928
MS.229         	15.865         	5.944
MS.230         	15.832         	5.984
MS.231         	15.8           	5.837
MS.232         	15.77          	5.891
MS.233         	15.737         	5.972
MS.234         	15.705         	5.837
MS.235         	15.675         	5.899
MS.236         	15.642         	5.922
MS.237         	15.612         	5.748
MS.238         	15.58          	5.809
MS.239         	15.55          	5.795
MS.240         	15.52          	5.777
MS.241         	15.487         	5.831
MS.242         	15.457         	5.763
MS.243         	15.425         	5.863
MS.244         	15.395         	5.833
MS.245         	15.365         	5.805
MS.246         	15.332         	5.901
MS.247         	15.302         	5.825
MS.248         	15.273         	5.831
MS.249         	15.242         	5.785
MS.250         	15.212         	5.829
MS.251         	15.18          	5.736
MS.252         	15.15          	5.648
MS.253         	15.12          	5.795
MS.254         	15.09          	5.811
MS.255         	15.06          	5.76
MS.256         	15.03          	5.684
MS.257         	15             	5.68
MS.258         	14.97          	5.722
MS.259         	14.94          	5.539
MS.260         	14.91          	5.47
MS.261         	14.88          	5.559
MS.262         	14.85          	5.4
MS.263         	14.82          	5.356
MS.264         	14.792         	5.247
MS.265         	14.762         	5.362
MS.266         	14.733         	5.37
MS.267         	14.702         	5.271
MS.268         	14.672         	5.17
MS.269         	14.645         	5.223
MS.270         	14.615         	4.965
MS.271         	14.585         	5.116
MS.272         	14.557         	5.047
MS.273         	14.527         	5.094
MS.274         	14.497         	4.768
MS.275         	14.47          	4.981
MS.276         	14.44          	4.723
MS.277         	14.412         	4.631
MS.278         	14.382         	4.55
MS.279         	14.355         	4.6
MS.280         	14.325         	4.834
MS.281         	14.297         	4.598
MS.282         	14.267         	4.731
MS.283         	14.24          	4.496
MS.284         	14.212         	4.57
MS.285         	14.182         	4.379
MS.286         	14.155         	4.542
MS.287         	14.127         	4.534
MS.288         	14.097         	4.409
MS.289         	14.07          	4.03
MS.290         	14.042         	4.341
MS.291         	14.015         	4.328
MS.292         	13.985         	4.02
MS.293         	13.957         	3.99
MS.294         	13.93          	4.183
MS.295         	13.903         	3.879
MS.296         	13.875         	4.077
MS.297         	13.847         	3.787
MS.298         	13.82          	4.125
MS.299         	13.792         	3.817
MS.300         	13.765         	3.914
MS.301         	13.737         	3.752
MS.302         	13.71          	3.922
MS.303         	13.682         	3.656
MS.304         	13.655         	3.458
MS.305         	13.627         	3.366
MS.306         	13.6           	3.271
MS.307         	13.572         	3.497
MS.308         	13.545         	3.291
MS.309         	13.517         	3.44
MS.310         	13.492         	3.364
MS.311         	13.465         	3.644
MS.312         	13.438         	3.337
MS.313         	13.41          	3.396
MS.314         	13.385         	3.396
MS.315         	13.358         	3.293
MS.316         	13.33          	3.404
MS.317         	13.305         	3.446
MS.318         	13.278         	3.16
MS.319         	13.25          	3.358
MS.320         	13.225         	3.13
MS.321         	13.197         	3.1
MS.322         	13.172         	3.041
MS.323         	13.145         	3.102
MS.324         	13.12          	2.912
MS.325         	13.092         	2.961
MS.326         	13.068         	2.991
MS.327         	13.04          	2.9
MS.328         	13.015         	2.769
MS.329         	12.987         	2.816
MS.330         	12.962         	2.759
MS.331         	12.938         	2.765
MS.332         	12.91          	2.524
MS.333         	12.885         	2.419
MS.334         	12.86          	2.794
MS.335         	12.832         	2.431
MS.336         	12.807         	2.203
MS.337         	12.782         	2.381
MS.338         	12.757         	2.302
MS.339         	12.73          	2.29
MS.340         	12.705         	2.226
MS.341         	12.68          	2.52
MS.342         	12.655         	2.218
MS.343         	12.63          	1.992
MS.344         	12.605         	2.018
MS.345         	12.58          	2.369
MS.346         	12.555         	2.151
MS.347         	12.53          	2.012
MS.348         	12.505         	2.06
MS.349         	12.48          	1.839
MS.350         	12.455         	1.966
MS.351         	12.43          	1.869
MS.352         	12.405         	1.686
MS.353         	12.38          	1.789
MS.354         	12.355         	1.732
MS.355         	12.33          	1.611
MS.356         	12.305         	1.569
MS.357         	12.28          	1.67
MS.358         	12.257         	1.476
MS.359         	12.233         	1.601
MS.360         	12.207         	1.585
MS.361         	12.182         	1.422
MS.362         	12.16          	1.615
MS.363         	12.135         	1.527
MS.364         	12.11          	1.416
MS.365         	12.085         	1.37
MS.366         	12.062         	1.277
MS.367         	12.037         	1.358
MS.368         	12.012         	1.176
MS.369         	11.99          	1.434
MS.370         	11.965         	1.398
MS.371         	11.943         	1.188
MS.372         	11.917         	1.291
MS.373         	11.895         	1.188
MS.374         	11.87          	1.078
MS.375         	11.847         	1.14
MS.376         	11.822         	1.029
MS.377         	11.8           	1.063
MS.378         	11.775         	1.072
MS.379         	11.752         	0.914
MS.380         	11.73          	0.908
MS.381         	11.705         	1.086
MS.382         	11.682         	0.868
MS.383         	11.657         	0.947
MS.384         	11.635         	0.886
MS.385         	11.613         	0.808
MS.386         	11.59          	0.8
MS.387         	11.565         	0.884
MS.388         	11.542         	0.713
MS.389         	11.52          	0.771
MS.390         	11.497         	0.747
MS.391         	11.472         	0.596
MS.392         	11.45          	0.701
MS.393         	11.427         	0.61
MS.394         	11.405         	0.657
MS.395         	11.382         	0.616
MS.396         	11.36          	0.665
MS.397         	11.337         	0.495
MS.398         	11.315         	0.586
MS.399         	11.292         	0.614
MS.400         	11.27          	0.622
MS.401         	11.247         	0.671
MS.402         	11.225         	0.546
MS.403         	11.202         	0.626
MS.404         	11.18          	0.554
MS.405         	11.157         	0.465
MS.406         	11.135         	0.441
MS.407         	11.113         	0.459
MS.408         	11.09          	0.536
MS.409         	11.068         	0.395
MS.410         	11.045         	0.395
MS.411         	11.023         	0.439
MS.412         	11.002         	0.453
MS.413         	10.98          	0.391
MS.414         	10.957         	0.445
MS.415         	10.935         	0.359
MS.416         	10.915         	0.471
MS.417         	10.892         	0.361
MS.418         	10.87          	0.367
MS.419         	10.85          	0.35
MS.420         	10.827         	0.33
MS.421         	10.805         	0.373
MS.422         	10.785         	0.28
MS.423         	10.762         	0.308
MS.424         	10.74          	0.34
MS.425         	10.72          	0.346
MS.426         	10.698         	0.286
MS.427         	10.677         	0.322
MS.428         	10.655         	0.236
MS.429         	10.635         	0.224
MS.430         	10.613         	0.278
MS.431         	10.592         	0.211
MS.432         	10.57          	0.266
MS.433         	10.55          	0.191
MS.434         	10.528         	0.201
MS.435         	10.507         	0.209
MS.436         	10.485         	0.24
MS.437         	10.465         	0.143
MS.438         	10.445         	0.175
MS.439         	10.422         	0.125
MS.440         	10.403         	0.23
MS.441         	10.382         	0.117
MS.442         	10.36          	0.143
MS.443         	10.34          	0.119
MS.444         	10.32          	0.099
MS.445         	10.3           	0.093
MS.446         	10.278         	0.123
MS.447         	10.257         	0.075
MS.448         	10.238         	0.115
MS.449         	10.217         	0.127
MS.450         	10.198         	0.111
MS.451         	10.175         	0.093
MS.452         	10.155         	0.099
MS.453         	10.135         	0.091
MS.454         	10.115         	0.139
MS.455         	10.095         	0.064
MS.456         	10.075         	0.073
MS.457         	10.055         	0.044
MS.458         	10.035         	0.077
MS.459         	10.015         	0.064
MS.460         	9.995          	0.064
MS.461         	9.975          	0.079
MS.462         	9.955          	0.058
MS.463         	9.935          	0.077
MS.464         	9.915          	0.042
MS.465         	9.895          	0.05
MS.466         	9.875          	0.036
MS.467         	9.855          	0.03
MS.468         	9.835          	0.03
MS.469         	9.818          	0.056
MS.470         	9.797          	0.03
MS.471         	9.778          	0.026
MS.472         	9.757          	0.036
MS.473         	9.738          	0.04
MS.474         	9.717          	0.044
MS.475         	9.7            	0.032
MS.476         	9.68           	0.016
MS.477         	9.66           	0.02
MS.478         	9.64           	0.04
MS.479         	9.622          	0.028
MS.480         	9.602          	0.028
MS.481         	9.582          	0.028
MS.482         	9.565          	0.01
MS.483         	9.545          	0.01
MS.484         	9.525          	0.014
MS.485         	9.507          	0.014
MS.486         	9.488          	0.018
MS.487         	9.47           	0.014
MS.488         	9.45           	0.016
MS.489         	9.432          	0.03
MS.490         	9.412          	0.012
MS.491         	9.395          	0.008
MS.492         	9.375          	0.014
MS.493         	9.358          	0.006
MS.494         	9.337          	0.02
MS.495         	9.32           	0.008
MS.496         	9.3            	0.004
MS.497         	9.283          	0.004
MS.498         	9.262          	0.018
MS.499         	9.245          	0.004
MS.500         	9.225          	0.004
MS.501         	9.207          	0.004
