File:              	C:\Qtrac\Data\Daniel M Sørensen\MScan multicentre study\Data from centres\Bucharest\Processed data\TDLC10107F.QZD
Name:              	RO.BU.NC.8.2
Protocol:          	MSCAN-R2
Date:              	7/1/21
Start time:        	13:55:08
Age:               	36
Sex:               	F
Temperature:       	35.9
S/R sites:         	TA
NC/disease:        	NC8
Operator:          	TL
Comments:          	RO.NC.8.2.
M-SCAN DATA (6.9-0.9m)
Scanpts: 21, 26, 627, 649
Stim. (mA)     	Amp. (mV)
MS.1           	21             	4.685
MS.2           	21             	4.693
MS.3           	21             	4.693
MS.4           	21             	4.677
MS.5           	21             	4.677
MS.6           	21             	4.677
MS.7           	21             	4.667
MS.8           	21             	4.663
MS.9           	21             	4.667
MS.10          	21             	4.671
MS.11          	21             	4.663
MS.12          	21             	4.659
MS.13          	21             	4.657
MS.14          	21             	4.663
MS.15          	21             	4.673
MS.16          	21             	4.697
MS.17          	21             	4.685
MS.18          	21             	4.655
MS.19          	21             	4.667
MS.20          	21             	4.667
MS.21          	21             	4.675
MS.22          	21             	4.667
MS.23          	21             	4.669
MS.24          	20.915         	4.667
MS.25          	20.875         	4.663
MS.26          	20.833         	4.665
MS.27          	20.79          	4.665
MS.28          	20.75          	4.661
MS.29          	20.708         	4.669
MS.30          	20.667         	4.661
MS.31          	20.625         	4.667
MS.32          	20.585         	4.655
MS.33          	20.542         	4.657
MS.34          	20.502         	4.653
MS.35          	20.46          	4.651
MS.36          	20.42          	4.667
MS.37          	20.38          	4.663
MS.38          	20.337         	4.655
MS.39          	20.297         	4.655
MS.40          	20.257         	4.655
MS.41          	20.217         	4.669
MS.42          	20.177         	4.655
MS.43          	20.135         	4.653
MS.44          	20.095         	4.641
MS.45          	20.055         	4.645
MS.46          	20.015         	4.641
MS.47          	19.975         	4.667
MS.48          	19.935         	4.667
MS.49          	19.895         	4.622
MS.50          	19.855         	4.685
MS.51          	19.817         	4.661
MS.52          	19.778         	4.606
MS.53          	19.737         	4.635
MS.54          	19.698         	4.627
MS.55          	19.657         	4.639
MS.56          	19.62          	4.673
MS.57          	19.58          	4.647
MS.58          	19.54          	4.655
MS.59          	19.502         	4.643
MS.60          	19.462         	4.659
MS.61          	19.425         	4.62
MS.62          	19.385         	4.647
MS.63          	19.347         	4.639
MS.64          	19.307         	4.639
MS.65          	19.27          	4.629
MS.66          	19.23          	4.62
MS.67          	19.192         	4.618
MS.68          	19.155         	4.649
MS.69          	19.115         	4.643
MS.70          	19.077         	4.622
MS.71          	19.04          	4.622
MS.72          	19.002         	4.631
MS.73          	18.962         	4.612
MS.74          	18.925         	4.622
MS.75          	18.887         	4.627
MS.76          	18.85          	4.604
MS.77          	18.812         	4.6
MS.78          	18.775         	4.62
MS.79          	18.737         	4.637
MS.80          	18.7           	4.618
MS.81          	18.663         	4.592
MS.82          	18.625         	4.6
MS.83          	18.587         	4.622
MS.84          	18.55          	4.612
MS.85          	18.515         	4.596
MS.86          	18.477         	4.57
MS.87          	18.44          	4.544
MS.88          	18.403         	4.594
MS.89          	18.368         	4.594
MS.90          	18.33          	4.61
MS.91          	18.292         	4.598
MS.92          	18.257         	4.582
MS.93          	18.22          	4.538
MS.94          	18.182         	4.594
MS.95          	18.147         	4.54
MS.96          	18.11          	4.55
MS.97          	18.075         	4.582
MS.98          	18.038         	4.494
MS.99          	18.003         	4.54
MS.100         	17.967         	4.528
MS.101         	17.93          	4.596
MS.102         	17.895         	4.516
MS.103         	17.86          	4.514
MS.104         	17.823         	4.488
MS.105         	17.788         	4.55
MS.106         	17.753         	4.53
MS.107         	17.717         	4.5
MS.108         	17.682         	4.482
MS.109         	17.645         	4.459
MS.110         	17.61          	4.459
MS.111         	17.575         	4.486
MS.112         	17.54          	4.439
MS.113         	17.505         	4.455
MS.114         	17.47          	4.439
MS.115         	17.435         	4.447
MS.116         	17.4           	4.467
MS.117         	17.365         	4.461
MS.118         	17.333         	4.411
MS.119         	17.297         	4.429
MS.120         	17.262         	4.439
MS.121         	17.227         	4.451
MS.122         	17.192         	4.441
MS.123         	17.16          	4.423
MS.124         	17.125         	4.433
MS.125         	17.09          	4.415
MS.126         	17.057         	4.399
MS.127         	17.022         	4.415
MS.128         	16.987         	4.401
MS.129         	16.955         	4.465
MS.130         	16.92          	4.433
MS.131         	16.887         	4.417
MS.132         	16.852         	4.391
MS.133         	16.82          	4.393
MS.134         	16.785         	4.433
MS.135         	16.753         	4.298
MS.136         	16.717         	4.381
MS.137         	16.685         	4.373
MS.138         	16.653         	4.417
MS.139         	16.618         	4.328
MS.140         	16.585         	4.29
MS.141         	16.552         	4.401
MS.142         	16.52          	4.349
MS.143         	16.485         	4.339
MS.144         	16.452         	4.284
MS.145         	16.42          	4.324
MS.146         	16.387         	4.407
MS.147         	16.355         	4.322
MS.148         	16.323         	4.324
MS.149         	16.29          	4.29
MS.150         	16.257         	4.238
MS.151         	16.225         	4.282
MS.152         	16.192         	4.268
MS.153         	16.16          	4.232
MS.154         	16.128         	4.195
MS.155         	16.095         	4.133
MS.156         	16.062         	4.195
MS.157         	16.03          	4.21
MS.158         	16             	4.248
MS.159         	15.967         	4.169
MS.160         	15.935         	4.173
MS.161         	15.902         	4.177
MS.162         	15.872         	4.163
MS.163         	15.84          	4.193
MS.164         	15.807         	4.183
MS.165         	15.777         	4.169
MS.166         	15.745         	4.141
MS.167         	15.712         	4.22
MS.168         	15.682         	4.159
MS.169         	15.65          	4.067
MS.170         	15.62          	4.123
MS.171         	15.587         	4.101
MS.172         	15.557         	4.117
MS.173         	15.525         	4.103
MS.174         	15.495         	4.022
MS.175         	15.465         	4.038
MS.176         	15.432         	4.052
MS.177         	15.402         	4.014
MS.178         	15.372         	3.994
MS.179         	15.34          	4.075
MS.180         	15.31          	3.922
MS.181         	15.28          	3.958
MS.182         	15.25          	3.885
MS.183         	15.217         	3.879
MS.184         	15.188         	3.986
MS.185         	15.157         	3.865
MS.186         	15.127         	3.853
MS.187         	15.097         	3.819
MS.188         	15.068         	3.857
MS.189         	15.037         	3.692
MS.190         	15.007         	3.783
MS.191         	14.977         	3.722
MS.192         	14.947         	3.819
MS.193         	14.917         	3.762
MS.194         	14.887         	3.813
MS.195         	14.858         	3.756
MS.196         	14.827         	3.787
MS.197         	14.797         	3.63
MS.198         	14.77          	3.66
MS.199         	14.74          	3.732
MS.200         	14.71          	3.692
MS.201         	14.68          	3.777
MS.202         	14.65          	3.605
MS.203         	14.622         	3.605
MS.204         	14.592         	3.605
MS.205         	14.562         	3.613
MS.206         	14.535         	3.619
MS.207         	14.505         	3.428
MS.208         	14.477         	3.515
MS.209         	14.447         	3.63
MS.210         	14.417         	3.446
MS.211         	14.39          	3.569
MS.212         	14.36          	3.497
MS.213         	14.332         	3.589
MS.214         	14.302         	3.495
MS.215         	14.275         	3.503
MS.216         	14.247         	3.416
MS.217         	14.217         	3.337
MS.218         	14.19          	3.394
MS.219         	14.162         	3.432
MS.220         	14.132         	3.426
MS.221         	14.105         	3.37
MS.222         	14.077         	3.269
MS.223         	14.047         	3.44
MS.224         	14.02          	3.329
MS.225         	13.992         	3.341
MS.226         	13.965         	3.305
MS.227         	13.938         	3.295
MS.228         	13.91          	3.372
MS.229         	13.88          	3.291
MS.230         	13.852         	3.325
MS.231         	13.825         	3.275
MS.232         	13.797         	3.237
MS.233         	13.77          	3.211
MS.234         	13.742         	3.251
MS.235         	13.715         	3.249
MS.236         	13.688         	3.209
MS.237         	13.66          	3.239
MS.238         	13.632         	3.136
MS.239         	13.605         	3.227
MS.240         	13.58          	3.223
MS.241         	13.552         	3.13
MS.242         	13.525         	3.17
MS.243         	13.497         	3.074
MS.244         	13.47          	3.186
MS.245         	13.445         	3.122
MS.246         	13.417         	3.116
MS.247         	13.39          	3.086
MS.248         	13.362         	3.148
MS.249         	13.337         	3.001
MS.250         	13.31          	3.072
MS.251         	13.282         	3.136
MS.252         	13.257         	3.124
MS.253         	13.23          	3.031
MS.254         	13.205         	3.033
MS.255         	13.177         	2.949
MS.256         	13.153         	3.086
MS.257         	13.125         	3.076
MS.258         	13.1           	2.838
MS.259         	13.072         	2.985
MS.260         	13.047         	2.961
MS.261         	13.02          	2.908
MS.262         	12.995         	2.999
MS.263         	12.967         	2.989
MS.264         	12.943         	2.806
MS.265         	12.917         	2.888
MS.266         	12.89          	2.917
MS.267         	12.865         	2.925
MS.268         	12.84          	2.778
MS.269         	12.812         	2.778
MS.270         	12.787         	2.778
MS.271         	12.762         	2.796
MS.272         	12.738         	2.806
MS.273         	12.712         	2.84
MS.274         	12.685         	2.739
MS.275         	12.66          	2.661
MS.276         	12.635         	2.54
MS.277         	12.61          	2.606
MS.278         	12.585         	2.653
MS.279         	12.56          	2.59
MS.280         	12.535         	2.383
MS.281         	12.51          	2.475
MS.282         	12.485         	2.622
MS.283         	12.46          	2.397
MS.284         	12.435         	2.355
MS.285         	12.41          	2.485
MS.286         	12.385         	2.31
MS.287         	12.36          	2.437
MS.288         	12.335         	2.32
MS.289         	12.312         	2.391
MS.290         	12.287         	2.274
MS.291         	12.262         	2.385
MS.292         	12.238         	2.33
MS.293         	12.212         	2.284
MS.294         	12.19          	2.387
MS.295         	12.165         	2.147
MS.296         	12.14          	2.141
MS.297         	12.115         	2.075
MS.298         	12.092         	2.046
MS.299         	12.068         	2.133
MS.300         	12.042         	2.143
MS.301         	12.02          	2.169
MS.302         	11.995         	2.048
MS.303         	11.972         	2.02
MS.304         	11.947         	2.119
MS.305         	11.922         	2.012
MS.306         	11.9           	2
MS.307         	11.875         	1.97
MS.308         	11.852         	1.98
MS.309         	11.827         	2.004
MS.310         	11.805         	2.014
MS.311         	11.782         	1.982
MS.312         	11.757         	1.875
MS.313         	11.735         	1.895
MS.314         	11.71          	1.823
MS.315         	11.688         	1.913
MS.316         	11.665         	1.901
MS.317         	11.64          	1.909
MS.318         	11.617         	1.855
MS.319         	11.595         	1.764
MS.320         	11.57          	1.801
MS.321         	11.547         	1.934
MS.322         	11.525         	1.875
MS.323         	11.502         	1.946
MS.324         	11.48          	1.855
MS.325         	11.455         	1.714
MS.326         	11.432         	1.69
MS.327         	11.41          	1.783
MS.328         	11.387         	1.726
MS.329         	11.365         	1.779
MS.330         	11.342         	1.581
MS.331         	11.32          	1.682
MS.332         	11.297         	1.7
MS.333         	11.275         	1.565
MS.334         	11.252         	1.617
MS.335         	11.23          	1.635
MS.336         	11.207         	1.48
MS.337         	11.185         	1.541
MS.338         	11.162         	1.551
MS.339         	11.14          	1.476
MS.340         	11.117         	1.454
MS.341         	11.095         	1.352
MS.342         	11.073         	1.45
MS.343         	11.05          	1.454
MS.344         	11.03          	1.398
MS.345         	11.007         	1.366
MS.346         	10.985         	1.394
MS.347         	10.962         	1.382
MS.348         	10.94          	1.372
MS.349         	10.92          	1.436
MS.350         	10.898         	1.307
MS.351         	10.875         	1.333
MS.352         	10.855         	1.319
MS.353         	10.832         	1.323
MS.354         	10.81          	1.223
MS.355         	10.79          	1.283
MS.356         	10.767         	1.255
MS.357         	10.745         	1.231
MS.358         	10.725         	1.215
MS.359         	10.702         	1.241
MS.360         	10.682         	1.235
MS.361         	10.66          	1.182
MS.362         	10.64          	1.092
MS.363         	10.617         	1.146
MS.364         	10.597         	1.257
MS.365         	10.575         	1.122
MS.366         	10.555         	1.168
MS.367         	10.532         	1.072
MS.368         	10.512         	1.104
MS.369         	10.49          	1.094
MS.370         	10.47          	1.053
MS.371         	10.45          	1.025
MS.372         	10.427         	1.039
MS.373         	10.407         	1.027
MS.374         	10.387         	1.033
MS.375         	10.365         	0.971
MS.376         	10.345         	1.029
MS.377         	10.325         	0.969
MS.378         	10.305         	1.003
MS.379         	10.282         	0.916
MS.380         	10.262         	1.005
MS.381         	10.242         	0.997
MS.382         	10.222         	0.933
MS.383         	10.202         	0.894
MS.384         	10.18          	0.949
MS.385         	10.16          	0.947
MS.386         	10.14          	0.888
MS.387         	10.12          	0.896
MS.388         	10.1           	0.89
MS.389         	10.08          	0.848
MS.390         	10.06          	0.82
MS.391         	10.04          	0.826
MS.392         	10.02          	0.824
MS.393         	10             	0.828
MS.394         	9.98           	0.8
MS.395         	9.96           	0.81
MS.396         	9.94           	0.846
MS.397         	9.92           	0.804
MS.398         	9.9            	0.741
MS.399         	9.88           	0.792
MS.400         	9.86           	0.832
MS.401         	9.84           	0.673
MS.402         	9.82           	0.715
MS.403         	9.802          	0.741
MS.404         	9.782          	0.771
MS.405         	9.762          	0.737
MS.406         	9.742          	0.687
MS.407         	9.722          	0.701
MS.408         	9.705          	0.687
MS.409         	9.685          	0.661
MS.410         	9.665          	0.711
MS.411         	9.645          	0.618
MS.412         	9.627          	0.663
MS.413         	9.608          	0.632
MS.414         	9.587          	0.657
MS.415         	9.57           	0.677
MS.416         	9.55           	0.659
MS.417         	9.53           	0.582
MS.418         	9.512          	0.59
MS.419         	9.492          	0.655
MS.420         	9.472          	0.628
MS.421         	9.455          	0.5
MS.422         	9.435          	0.528
MS.423         	9.417          	0.502
MS.424         	9.398          	0.546
MS.425         	9.38           	0.532
MS.426         	9.36           	0.512
MS.427         	9.342          	0.487
MS.428         	9.323          	0.512
MS.429         	9.305          	0.502
MS.430         	9.285          	0.477
MS.431         	9.267          	0.497
MS.432         	9.25           	0.495
MS.433         	9.23           	0.524
MS.434         	9.212          	0.461
MS.435         	9.193          	0.493
MS.436         	9.175          	0.467
MS.437         	9.158          	0.471
MS.438         	9.137          	0.485
MS.439         	9.12           	0.451
MS.440         	9.102          	0.413
MS.441         	9.085          	0.435
MS.442         	9.065          	0.437
MS.443         	9.047          	0.467
MS.444         	9.03           	0.449
MS.445         	9.012          	0.405
MS.446         	8.992          	0.407
MS.447         	8.975          	0.409
MS.448         	8.957          	0.421
MS.449         	8.94           	0.383
MS.450         	8.922          	0.342
MS.451         	8.905          	0.344
MS.452         	8.887          	0.367
MS.453         	8.867          	0.383
MS.454         	8.85           	0.31
MS.455         	8.832          	0.338
MS.456         	8.815          	0.369
MS.457         	8.797          	0.334
MS.458         	8.78           	0.348
MS.459         	8.762          	0.352
MS.460         	8.745          	0.292
MS.461         	8.727          	0.294
MS.462         	8.71           	0.31
MS.463         	8.693          	0.292
MS.464         	8.675          	0.306
MS.465         	8.658          	0.272
MS.466         	8.64           	0.256
MS.467         	8.622          	0.252
MS.468         	8.608          	0.238
MS.469         	8.59           	0.258
MS.470         	8.573          	0.211
MS.471         	8.555          	0.201
MS.472         	8.537          	0.268
MS.473         	8.52           	0.201
MS.474         	8.505          	0.228
MS.475         	8.488          	0.193
MS.476         	8.47           	0.203
MS.477         	8.452          	0.224
MS.478         	8.435          	0.214
MS.479         	8.42           	0.175
MS.480         	8.403          	0.189
MS.481         	8.385          	0.145
MS.482         	8.37           	0.155
MS.483         	8.352          	0.177
MS.484         	8.335          	0.197
MS.485         	8.32           	0.159
MS.486         	8.302          	0.177
MS.487         	8.285          	0.157
MS.488         	8.27           	0.139
MS.489         	8.252          	0.145
MS.490         	8.235          	0.157
MS.491         	8.22           	0.161
MS.492         	8.202          	0.135
MS.493         	8.188          	0.131
MS.494         	8.17           	0.129
MS.495         	8.155          	0.127
MS.496         	8.137          	0.139
MS.497         	8.122          	0.155
MS.498         	8.105          	0.119
MS.499         	8.09           	0.127
MS.500         	8.073          	0.115
MS.501         	8.057          	0.129
