File:              	C:\Qtrac\Data\Daniel M Sørensen\MScan multicentre study\Data from centres\Bucharest\TDLC00129D.QZD
Name:              	RO.BU.NC.2.1
Protocol:          	MSCAN-R2
Date:              	29/1/20
Start time:        	12:25:36
Age:               	57
Sex:               	M
Temperature:       	36.8
S/R sites:         	APB
NC/disease:        	RONC2.1
Operator:          	TL
Comments:
M-SCAN DATA (7.7-2.8m)
Scanpts: 110, 115, 454, 477
Stim. (mA)     	Amp. (mV)
MS.1           	25             	9.803
MS.2           	25             	9.785
MS.3           	25             	9.777
MS.4           	25             	9.781
MS.5           	25             	9.775
MS.6           	25             	9.787
MS.7           	25             	9.825
MS.8           	25             	9.843
MS.9           	25             	9.847
MS.10          	25             	9.873
MS.11          	25             	9.885
MS.12          	25             	9.89
MS.13          	25             	9.873
MS.14          	25             	9.902
MS.15          	25             	9.881
MS.16          	25             	9.883
MS.17          	25             	9.885
MS.18          	25             	9.894
MS.19          	25             	9.906
MS.20          	25             	9.91
MS.21          	25             	9.865
MS.22          	25             	9.863
MS.23          	25             	9.859
MS.24          	24.9           	9.847
MS.25          	24.85          	9.825
MS.26          	24.8           	9.827
MS.27          	24.75          	9.803
MS.28          	24.702         	9.837
MS.29          	24.653         	9.835
MS.30          	24.602         	9.833
MS.31          	24.555         	9.831
MS.32          	24.505         	9.825
MS.33          	24.455         	9.827
MS.34          	24.407         	9.833
MS.35          	24.358         	9.847
MS.36          	24.31          	9.853
MS.37          	24.26          	9.879
MS.38          	24.212         	9.865
MS.39          	24.165         	9.892
MS.40          	24.115         	9.888
MS.41          	24.067         	9.91
MS.42          	24.02          	9.908
MS.43          	23.972         	9.873
MS.44          	23.925         	9.89
MS.45          	23.875         	9.896
MS.46          	23.827         	9.934
MS.47          	23.78          	9.916
MS.48          	23.733         	9.94
MS.49          	23.685         	9.918
MS.50          	23.637         	9.906
MS.51          	23.59          	9.904
MS.52          	23.545         	9.892
MS.53          	23.497         	9.916
MS.54          	23.45          	9.912
MS.55          	23.403         	9.912
MS.56          	23.358         	9.914
MS.57          	23.31          	9.902
MS.58          	23.262         	9.908
MS.59          	23.217         	9.938
MS.60          	23.17          	9.924
MS.61          	23.125         	9.956
MS.62          	23.077         	9.962
MS.63          	23.032         	10.029
MS.64          	22.985         	10.012
MS.65          	22.94          	10.002
MS.66          	22.895         	9.996
MS.67          	22.847         	10.008
MS.68          	22.802         	10.008
MS.69          	22.757         	9.998
MS.70          	22.712         	9.998
MS.71          	22.665         	9.994
MS.72          	22.62          	9.994
MS.73          	22.575         	10.002
MS.74          	22.53          	10.002
MS.75          	22.485         	9.984
MS.76          	22.44          	10.002
MS.77          	22.395         	10.018
MS.78          	22.35          	9.988
MS.79          	22.307         	10.02
MS.80          	22.262         	10.026
MS.81          	22.217         	10.016
MS.82          	22.172         	10.024
MS.83          	22.127         	10.02
MS.84          	22.085         	10.004
MS.85          	22.04          	10.012
MS.86          	21.995         	10.014
MS.87          	21.952         	10.043
MS.88          	21.907         	10.031
MS.89          	21.865         	10.02
MS.90          	21.82          	10.035
MS.91          	21.778         	10.049
MS.92          	21.735         	10.041
MS.93          	21.69          	10.057
MS.94          	21.647         	10.053
MS.95          	21.605         	10.047
MS.96          	21.56          	10.047
MS.97          	21.517         	10.047
MS.98          	21.475         	10.043
MS.99          	21.432         	10.051
MS.100         	21.39          	10.061
MS.101         	21.345         	10.055
MS.102         	21.302         	10.055
MS.103         	21.26          	10.055
MS.104         	21.217         	10.053
MS.105         	21.175         	10.049
MS.106         	21.135         	10.057
MS.107         	21.092         	10.063
MS.108         	21.05          	10.079
MS.109         	21.007         	10.077
MS.110         	20.965         	10.071
MS.111         	20.922         	10.061
MS.112         	20.882         	10.077
MS.113         	20.84          	10.073
MS.114         	20.797         	10.085
MS.115         	20.757         	10.077
MS.116         	20.715         	10.081
MS.117         	20.675         	10.065
MS.118         	20.632         	10.101
MS.119         	20.592         	10.109
MS.120         	20.55          	9.811
MS.121         	20.51          	10.089
MS.122         	20.467         	9.783
MS.123         	20.427         	10.073
MS.124         	20.387         	10.067
MS.125         	20.345         	10.073
MS.126         	20.305         	9.751
MS.127         	20.265         	9.779
MS.128         	20.225         	10.073
MS.129         	20.182         	9.781
MS.130         	20.142         	9.73
MS.131         	20.102         	9.769
MS.132         	20.062         	10.087
MS.133         	20.022         	9.777
MS.134         	19.983         	10.073
MS.135         	19.942         	9.724
MS.136         	19.903         	9.745
MS.137         	19.862         	9.757
MS.138         	19.823         	9.807
MS.139         	19.785         	10.099
MS.140         	19.745         	9.765
MS.141         	19.705         	9.805
MS.142         	19.665         	9.765
MS.143         	19.627         	9.765
MS.144         	19.587         	9.757
MS.145         	19.547         	10.053
MS.146         	19.51          	9.753
MS.147         	19.47          	9.759
MS.148         	19.43          	9.392
MS.149         	19.392         	9.779
MS.150         	19.352         	9.392
MS.151         	19.315         	9.374
MS.152         	19.275         	9.402
MS.153         	19.237         	9.426
MS.154         	19.2           	9.773
MS.155         	19.16          	9.207
MS.156         	19.122         	9.233
MS.157         	19.085         	9.209
MS.158         	19.047         	9.396
MS.159         	19.007         	9.4
MS.160         	18.97          	9.293
MS.161         	18.932         	9.229
MS.162         	18.895         	9.152
MS.163         	18.858         	9.315
MS.164         	18.82          	9.402
MS.165         	18.782         	9.219
MS.166         	18.745         	9.388
MS.167         	18.708         	8.832
MS.168         	18.67          	9.136
MS.169         	18.632         	9.074
MS.170         	18.595         	8.903
MS.171         	18.557         	8.804
MS.172         	18.52          	9.06
MS.173         	18.483         	8.675
MS.174         	18.448         	8.975
MS.175         	18.41          	8.826
MS.176         	18.372         	8.83
MS.177         	18.335         	8.739
MS.178         	18.3           	8.691
MS.179         	18.262         	8.731
MS.180         	18.227         	8.792
MS.181         	18.19          	8.834
MS.182         	18.153         	8.772
MS.183         	18.118         	8.709
MS.184         	18.08          	8.663
MS.185         	18.045         	8.735
MS.186         	18.01          	8.8
MS.187         	17.972         	8.685
MS.188         	17.938         	8.667
MS.189         	17.903         	8.647
MS.190         	17.865         	8.56
MS.191         	17.83          	8.151
MS.192         	17.795         	8.598
MS.193         	17.757         	8.659
MS.194         	17.722         	8.691
MS.195         	17.688         	8.413
MS.196         	17.653         	8.534
MS.197         	17.618         	8.514
MS.198         	17.583         	8.314
MS.199         	17.547         	8.661
MS.200         	17.512         	8.351
MS.201         	17.477         	8.447
MS.202         	17.442         	8.381
MS.203         	17.407         	8.214
MS.204         	17.372         	8.169
MS.205         	17.337         	7.471
MS.206         	17.302         	8.063
MS.207         	17.267         	7.807
MS.208         	17.235         	8.105
MS.209         	17.2           	8.016
MS.210         	17.165         	7.815
MS.211         	17.13          	7.199
MS.212         	17.097         	7.587
MS.213         	17.062         	7.805
MS.214         	17.028         	7.567
MS.215         	16.995         	7.368
MS.216         	16.96          	6.56
MS.217         	16.927         	6.991
MS.218         	16.892         	6.459
MS.219         	16.86          	6.351
MS.220         	16.825         	7.001
MS.221         	16.792         	6.282
MS.222         	16.757         	6.359
MS.223         	16.725         	6.194
MS.224         	16.69          	6.21
MS.225         	16.657         	6.673
MS.226         	16.625         	6.073
MS.227         	16.59          	5.708
MS.228         	16.557         	5.908
MS.229         	16.525         	6.131
MS.230         	16.493         	5.35
MS.231         	16.46          	5.253
MS.232         	16.425         	5.132
MS.233         	16.392         	5.291
MS.234         	16.36          	5.039
MS.235         	16.327         	5.176
MS.236         	16.295         	5.102
MS.237         	16.262         	5.11
MS.238         	16.23          	5.025
MS.239         	16.198         	4.822
MS.240         	16.165         	5.092
MS.241         	16.132         	4.8
MS.242         	16.1           	5.035
MS.243         	16.067         	4.826
MS.244         	16.038         	4.816
MS.245         	16.005         	4.727
MS.246         	15.972         	4.759
MS.247         	15.94          	4.691
MS.248         	15.91          	4.808
MS.249         	15.877         	4.645
MS.250         	15.845         	4.568
MS.251         	15.812         	4.673
MS.252         	15.782         	4.556
MS.253         	15.75          	4.304
MS.254         	15.72          	4.057
MS.255         	15.688         	4.399
MS.256         	15.657         	4.236
MS.257         	15.625         	4.435
MS.258         	15.595         	4.278
MS.259         	15.562         	4.347
MS.260         	15.532         	3.998
MS.261         	15.5           	3.966
MS.262         	15.47          	3.958
MS.263         	15.438         	3.909
MS.264         	15.407         	3.805
MS.265         	15.377         	3.809
MS.266         	15.347         	3.837
MS.267         	15.315         	3.843
MS.268         	15.285         	3.623
MS.269         	15.255         	3.186
MS.270         	15.225         	3.621
MS.271         	15.193         	3.482
MS.272         	15.162         	3.478
MS.273         	15.132         	3.638
MS.274         	15.102         	3.043
MS.275         	15.072         	3.291
MS.276         	15.042         	3.112
MS.277         	15.012         	2.892
MS.278         	14.983         	3.049
MS.279         	14.952         	3.045
MS.280         	14.922         	2.997
MS.281         	14.892         	3.07
MS.282         	14.862         	3.027
MS.283         	14.832         	2.463
MS.284         	14.802         	2.665
MS.285         	14.775         	2.463
MS.286         	14.745         	2.427
MS.287         	14.715         	2.324
MS.288         	14.685         	2.349
MS.289         	14.657         	2.328
MS.290         	14.627         	2.236
MS.291         	14.597         	1.982
MS.292         	14.568         	1.772
MS.293         	14.54          	1.331
MS.294         	14.51          	1.2
MS.295         	14.483         	1.092
MS.296         	14.452         	1.345
MS.297         	14.422         	1.329
MS.298         	14.395         	1.293
MS.299         	14.365         	1.319
MS.300         	14.337         	1.329
MS.301         	14.31          	1.432
MS.302         	14.28          	1.428
MS.303         	14.252         	1.372
MS.304         	14.222         	1.364
MS.305         	14.195         	1.263
MS.306         	14.167         	1.36
MS.307         	14.137         	1.315
MS.308         	14.11          	1.331
MS.309         	14.082         	1.275
MS.310         	14.052         	1.253
MS.311         	14.025         	1.021
MS.312         	13.997         	0.939
MS.313         	13.97          	0.864
MS.314         	13.943         	0.892
MS.315         	13.912         	1.011
MS.316         	13.885         	0.868
MS.317         	13.858         	0.812
MS.318         	13.83          	0.584
MS.319         	13.802         	0.757
MS.320         	13.775         	0.79
MS.321         	13.747         	0.749
MS.322         	13.72          	0.751
MS.323         	13.693         	0.729
MS.324         	13.665         	0.719
MS.325         	13.637         	0.761
MS.326         	13.61          	0.568
MS.327         	13.582         	0.634
MS.328         	13.557         	0.526
MS.329         	13.53          	0.5
MS.330         	13.502         	0.669
MS.331         	13.475         	0.435
MS.332         	13.447         	0.495
MS.333         	13.422         	0.455
MS.334         	13.395         	0.485
MS.335         	13.367         	0.427
MS.336         	13.342         	0.417
MS.337         	13.315         	0.522
MS.338         	13.287         	0.435
MS.339         	13.262         	0.489
MS.340         	13.235         	0.451
MS.341         	13.207         	0.377
MS.342         	13.182         	0.465
MS.343         	13.155         	0.377
MS.344         	13.13          	0.346
MS.345         	13.102         	0.389
MS.346         	13.077         	0.405
MS.347         	13.05          	0.348
MS.348         	13.025         	0.346
MS.349         	13             	0.393
MS.350         	12.972         	0.348
MS.351         	12.947         	0.32
MS.352         	12.92          	0.354
MS.353         	12.895         	0.278
MS.354         	12.87          	0.409
MS.355         	12.845         	0.316
MS.356         	12.818         	0.26
MS.357         	12.792         	0.306
MS.358         	12.767         	0.312
MS.359         	12.742         	0.34
MS.360         	12.715         	0.25
MS.361         	12.69          	0.199
MS.362         	12.665         	0.224
MS.363         	12.64          	0.256
MS.364         	12.615         	0.232
MS.365         	12.59          	0.218
MS.366         	12.565         	0.244
MS.367         	12.54          	0.216
MS.368         	12.515         	0.205
MS.369         	12.49          	0.226
MS.370         	12.465         	0.218
MS.371         	12.44          	0.193
MS.372         	12.415         	0.195
MS.373         	12.39          	0.201
MS.374         	12.365         	0.189
MS.375         	12.34          	0.195
MS.376         	12.315         	0.173
MS.377         	12.29          	0.195
MS.378         	12.267         	0.185
MS.379         	12.242         	0.195
MS.380         	12.217         	0.167
MS.381         	12.193         	0.232
MS.382         	12.17          	0.083
MS.383         	12.145         	0.089
MS.384         	12.12          	0.117
MS.385         	12.095         	0.07
MS.386         	12.072         	0.191
MS.387         	12.047         	0.151
MS.388         	12.023         	0.135
MS.389         	12             	0.06
MS.390         	11.975         	0.054
MS.391         	11.952         	0.075
MS.392         	11.927         	0.058
MS.393         	11.905         	0.06
MS.394         	11.88          	0.068
MS.395         	11.858         	0.066
MS.396         	11.832         	0.05
MS.397         	11.81          	0.056
MS.398         	11.785         	0.066
MS.399         	11.762         	0.068
MS.400         	11.738         	0.048
MS.401         	11.715         	0.05
MS.402         	11.693         	0.062
MS.403         	11.667         	0.06
MS.404         	11.645         	0.048
MS.405         	11.622         	0.054
MS.406         	11.597         	0.06
MS.407         	11.575         	0.07
MS.408         	11.552         	0.062
MS.409         	11.53          	0.062
MS.410         	11.505         	0.058
MS.411         	11.483         	0.066
MS.412         	11.46          	0.062
MS.413         	11.438         	0.058
MS.414         	11.415         	0.064
MS.415         	11.392         	0.06
MS.416         	11.37          	0.06
MS.417         	11.345         	0.06
MS.418         	11.322         	0.064
MS.419         	11.3           	0.062
MS.420         	11.278         	0.066
MS.421         	11.255         	0.058
MS.422         	11.233         	0.062
MS.423         	11.21          	0.062
MS.424         	11.188         	0.054
MS.425         	11.165         	0.06
MS.426         	11.142         	0.058
MS.427         	11.122         	0.062
MS.428         	11.1           	0.058
MS.429         	11.077         	0.058
MS.430         	11.055         	0.048
MS.431         	11.032         	0.06
MS.432         	11.01          	0.056
MS.433         	10.988         	0.048
MS.434         	10.967         	0.05
MS.435         	10.945         	0.054
MS.436         	10.922         	0.056
MS.437         	10.9           	0.054
MS.438         	10.88          	0.036
MS.439         	10.858         	0.054
MS.440         	10.835         	0.062
MS.441         	10.815         	0.048
MS.442         	10.792         	0.044
MS.443         	10.77          	0.044
MS.444         	10.75          	0.048
MS.445         	10.727         	0.05
MS.446         	10.707         	0.038
MS.447         	10.685         	0.042
MS.448         	10.665         	0.034
MS.449         	10.642         	0.046
MS.450         	10.622         	0.042
MS.451         	10.6           	0.032
MS.452         	10.58          	0.04
MS.453         	10.557         	0.034
MS.454         	10.537         	0.038
MS.455         	10.515         	0.036
MS.456         	10.495         	0.034
MS.457         	10.472         	0.038
MS.458         	10.452         	0.028
MS.459         	10.432         	0.032
MS.460         	10.41          	0.032
MS.461         	10.39          	0.032
MS.462         	10.37          	0.03
MS.463         	10.35          	0.03
MS.464         	10.327         	0.036
MS.465         	10.307         	0.026
MS.466         	10.287         	0.036
MS.467         	10.267         	0.034
MS.468         	10.245         	0.026
MS.469         	10.225         	0.03
MS.470         	10.205         	0.03
MS.471         	10.185         	0.034
MS.472         	10.165         	0.026
MS.473         	10.145         	0.03
MS.474         	10.122         	0.032
MS.475         	10.102         	0.032
MS.476         	10.082         	0.032
MS.477         	10.062         	0.028
MS.478         	10.042         	0.03
MS.479         	10.023         	0.032
MS.480         	10.002         	0.028
MS.481         	9.983          	0.03
MS.482         	9.962          	0.022
MS.483         	9.943          	0.028
MS.484         	9.922          	0.036
MS.485         	9.903          	0.026
MS.486         	9.882          	0.024
MS.487         	9.865          	0.032
MS.488         	9.845          	0.026
MS.489         	9.825          	0.03
MS.490         	9.805          	0.024
MS.491         	9.785          	0.024
MS.492         	9.765          	0.02
MS.493         	9.745          	0.018
MS.494         	9.727          	0.022
MS.495         	9.707          	0.02
MS.496         	9.688          	0.02
MS.497         	9.667          	0.024
MS.498         	9.65           	0.028
MS.499         	9.63           	0.02
MS.500         	9.61           	0.02
