File:              	C:\Qtrac\Data\Daniel M Sørensen\MScan multicentre study\Data from centres\Bucharest\Processed data\TDLC00210A.QZD
Name:              	RO.BU.NC.3.2
Protocol:          	MSCAN-R2
Date:              	10/2/20
Start time:        	13:42:02
Age:               	31
Sex:               	M
Temperature:       	36.5
S/R sites:         	APB
NC/disease:        	RONC3.2
Operator:          	TL
Comments:
M-SCAN DATA (7-1.2m)
Scanpts: 128, 133, 610, 631
Stim. (mA)     	Amp. (mV)
MS.1           	16.5           	10.163
MS.2           	16.5           	10.167
MS.3           	16.5           	10.172
MS.4           	16.5           	10.143
MS.5           	16.5           	10.115
MS.6           	16.5           	10.119
MS.7           	16.5           	10.119
MS.8           	16.5           	10.123
MS.9           	16.5           	10.135
MS.10          	16.5           	10.131
MS.11          	16.5           	10.137
MS.12          	16.5           	10.127
MS.13          	16.5           	10.137
MS.14          	16.5           	10.129
MS.15          	16.5           	10.137
MS.16          	16.5           	10.143
MS.17          	16.5           	10.127
MS.18          	16.5           	10.131
MS.19          	16.5           	10.131
MS.20          	16.5           	10.129
MS.21          	16.5           	10.125
MS.22          	16.5           	10.135
MS.23          	16.5           	10.131
MS.24          	16.435         	10.127
MS.25          	16.4           	10.135
MS.26          	16.368         	10.129
MS.27          	16.335         	10.127
MS.28          	16.302         	10.109
MS.29          	16.27          	10.143
MS.30          	16.237         	10.133
MS.31          	16.205         	10.131
MS.32          	16.172         	10.135
MS.33          	16.14          	10.155
MS.34          	16.108         	10.155
MS.35          	16.077         	10.133
MS.36          	16.045         	10.163
MS.37          	16.012         	10.141
MS.38          	15.98          	10.145
MS.39          	15.947         	10.143
MS.40          	15.917         	10.163
MS.41          	15.885         	10.165
MS.42          	15.852         	10.159
MS.43          	15.822         	10.163
MS.44          	15.79          	10.169
MS.45          	15.757         	10.174
MS.46          	15.727         	10.165
MS.47          	15.695         	10.155
MS.48          	15.665         	10.167
MS.49          	15.632         	10.145
MS.50          	15.602         	10.176
MS.51          	15.57          	10.18
MS.52          	15.54          	10.188
MS.53          	15.507         	10.178
MS.54          	15.477         	10.172
MS.55          	15.445         	10.184
MS.56          	15.415         	10.176
MS.57          	15.385         	10.182
MS.58          	15.352         	10.18
MS.59          	15.322         	10.176
MS.60          	15.292         	10.174
MS.61          	15.262         	10.2
MS.62          	15.233         	10.194
MS.63          	15.2           	10.204
MS.64          	15.17          	10.204
MS.65          	15.14          	10.212
MS.66          	15.11          	10.202
MS.67          	15.08          	10.202
MS.68          	15.05          	10.196
MS.69          	15.02          	10.208
MS.70          	14.99          	10.22
MS.71          	14.96          	10.208
MS.72          	14.93          	10.212
MS.73          	14.9           	10.21
MS.74          	14.87          	10.196
MS.75          	14.84          	10.196
MS.76          	14.81          	10.196
MS.77          	14.78          	10.198
MS.78          	14.752         	10.204
MS.79          	14.722         	10.198
MS.80          	14.693         	10.204
MS.81          	14.662         	10.202
MS.82          	14.635         	10.204
MS.83          	14.605         	10.198
MS.84          	14.575         	10.202
MS.85          	14.547         	10.202
MS.86          	14.517         	10.202
MS.87          	14.487         	10.206
MS.88          	14.46          	10.208
MS.89          	14.43          	10.204
MS.90          	14.403         	10.2
MS.91          	14.372         	10.202
MS.92          	14.345         	10.21
MS.93          	14.315         	10.206
MS.94          	14.287         	10.194
MS.95          	14.257         	10.208
MS.96          	14.23          	10.21
MS.97          	14.202         	10.194
MS.98          	14.172         	10.2
MS.99          	14.145         	10.206
MS.100         	14.117         	10.204
MS.101         	14.087         	10.212
MS.102         	14.06          	10.218
MS.103         	14.032         	10.218
MS.104         	14.005         	10.218
MS.105         	13.975         	10.208
MS.106         	13.947         	10.21
MS.107         	13.92          	10.218
MS.108         	13.892         	10.222
MS.109         	13.865         	10.226
MS.110         	13.837         	10.218
MS.111         	13.81          	10.226
MS.112         	13.782         	10.236
MS.113         	13.755         	10.24
MS.114         	13.727         	10.234
MS.115         	13.7           	10.238
MS.116         	13.672         	10.23
MS.117         	13.645         	10.23
MS.118         	13.617         	10.228
MS.119         	13.59          	10.242
MS.120         	13.562         	10.236
MS.121         	13.535         	10.226
MS.122         	13.51          	10.224
MS.123         	13.483         	10.288
MS.124         	13.455         	10.268
MS.125         	13.427         	10.28
MS.126         	13.403         	10.26
MS.127         	13.375         	10.268
MS.128         	13.347         	10.258
MS.129         	13.32          	10.298
MS.130         	13.295         	10.272
MS.131         	13.267         	10.272
MS.132         	13.242         	10.262
MS.133         	13.215         	10.286
MS.134         	13.188         	10.254
MS.135         	13.162         	10.27
MS.136         	13.135         	10.298
MS.137         	13.11          	10.272
MS.138         	13.082         	10.308
MS.139         	13.057         	10.282
MS.140         	13.032         	10.276
MS.141         	13.005         	10.304
MS.142         	12.98          	10.312
MS.143         	12.952         	10.113
MS.144         	12.927         	10.296
MS.145         	12.903         	10.262
MS.146         	12.875         	10.319
MS.147         	12.85          	10.315
MS.148         	12.825         	10.31
MS.149         	12.8           	10.119
MS.150         	12.773         	10.109
MS.151         	12.747         	10.083
MS.152         	12.722         	10.121
MS.153         	12.697         	10.101
MS.154         	12.672         	10.119
MS.155         	12.645         	10.113
MS.156         	12.62          	10.125
MS.157         	12.595         	10.081
MS.158         	12.57          	10.111
MS.159         	12.545         	10.073
MS.160         	12.52          	10.095
MS.161         	12.495         	10.095
MS.162         	12.47          	10.085
MS.163         	12.445         	10.121
MS.164         	12.42          	10.083
MS.165         	12.395         	10.087
MS.166         	12.37          	10.131
MS.167         	12.347         	10.095
MS.168         	12.322         	10.127
MS.169         	12.297         	10.073
MS.170         	12.273         	10.077
MS.171         	12.247         	10.077
MS.172         	12.222         	10.083
MS.173         	12.2           	10.099
MS.174         	12.175         	10.093
MS.175         	12.15          	10.133
MS.176         	12.125         	10.159
MS.177         	12.102         	10.101
MS.178         	12.077         	10.093
MS.179         	12.052         	10.081
MS.180         	12.03          	10.091
MS.181         	12.005         	10.091
MS.182         	11.983         	10.099
MS.183         	11.957         	10.093
MS.184         	11.932         	10.099
MS.185         	11.91          	10.103
MS.186         	11.885         	10.091
MS.187         	11.863         	10.097
MS.188         	11.837         	10.121
MS.189         	11.815         	10.113
MS.190         	11.79          	10.123
MS.191         	11.767         	10.125
MS.192         	11.745         	10.097
MS.193         	11.72          	10.085
MS.194         	11.697         	10.151
MS.195         	11.675         	10.125
MS.196         	11.65          	10.061
MS.197         	11.627         	10.079
MS.198         	11.605         	10.081
MS.199         	11.58          	10.137
MS.200         	11.557         	10.083
MS.201         	11.535         	10.067
MS.202         	11.512         	10.091
MS.203         	11.488         	10.159
MS.204         	11.465         	10.111
MS.205         	11.443         	10.176
MS.206         	11.42          	10.113
MS.207         	11.398         	10.131
MS.208         	11.375         	10.107
MS.209         	11.352         	10.099
MS.210         	11.33          	10.113
MS.211         	11.307         	10.101
MS.212         	11.282         	9.839
MS.213         	11.26          	10.141
MS.214         	11.238         	10.087
MS.215         	11.215         	10.145
MS.216         	11.195         	10.141
MS.217         	11.172         	10.006
MS.218         	11.15          	10.117
MS.219         	11.127         	10.145
MS.220         	11.105         	10.149
MS.221         	11.082         	10.129
MS.222         	11.06          	10.051
MS.223         	11.037         	10.155
MS.224         	11.015         	10.153
MS.225         	10.995         	9.71
MS.226         	10.972         	9.857
MS.227         	10.95          	9.73
MS.228         	10.927         	9.875
MS.229         	10.907         	9.879
MS.230         	10.885         	9.877
MS.231         	10.863         	9.881
MS.232         	10.84          	9.662
MS.233         	10.82          	9.72
MS.234         	10.797         	9.658
MS.235         	10.778         	9.734
MS.236         	10.755         	9.658
MS.237         	10.733         	9.676
MS.238         	10.712         	9.738
MS.239         	10.69          	9.742
MS.240         	10.67          	9.672
MS.241         	10.648         	9.664
MS.242         	10.627         	9.658
MS.243         	10.605         	9.674
MS.244         	10.585         	9.68
MS.245         	10.562         	9.728
MS.246         	10.542         	9.646
MS.247         	10.52          	9.684
MS.248         	10.5           	9.668
MS.249         	10.48          	9.69
MS.250         	10.457         	9.674
MS.251         	10.438         	9.646
MS.252         	10.415         	9.678
MS.253         	10.395         	9.676
MS.254         	10.375         	9.716
MS.255         	10.355         	9.608
MS.256         	10.332         	9.634
MS.257         	10.312         	9.662
MS.258         	10.292         	9.668
MS.259         	10.273         	9.654
MS.260         	10.25          	9.712
MS.261         	10.23          	9.674
MS.262         	10.21          	9.599
MS.263         	10.19          	9.698
MS.264         	10.17          	9.678
MS.265         	10.15          	9.66
MS.266         	10.127         	9.553
MS.267         	10.108         	9.686
MS.268         	10.087         	9.682
MS.269         	10.068         	9.313
MS.270         	10.047         	9.573
MS.271         	10.028         	9.259
MS.272         	10.007         	9.529
MS.273         	9.988          	9.501
MS.274         	9.967          	9.599
MS.275         	9.948          	9.358
MS.276         	9.927          	9.313
MS.277         	9.907          	9.575
MS.278         	9.887          	9.565
MS.279         	9.867          	9.237
MS.280         	9.85           	9.39
MS.281         	9.83           	9.315
MS.282         	9.81           	9.092
MS.283         	9.79           	9.213
MS.284         	9.77           	9.299
MS.285         	9.75           	8.681
MS.286         	9.733          	9.156
MS.287         	9.712          	8.921
MS.288         	9.693          	8.703
MS.289         	9.672          	8.764
MS.290         	9.655          	8.538
MS.291         	9.635          	8.145
MS.292         	9.615          	8.103
MS.293         	9.595          	8.002
MS.294         	9.577          	8.556
MS.295         	9.557          	8.347
MS.296         	9.537          	7.704
MS.297         	9.52           	8.093
MS.298         	9.5            	7.783
MS.299         	9.483          	8.026
MS.300         	9.462          	7.692
MS.301         	9.445          	7.688
MS.302         	9.425          	7.416
MS.303         	9.405          	7.321
MS.304         	9.387          	7.332
MS.305         	9.367          	7.394
MS.306         	9.35           	7.199
MS.307         	9.33           	7.044
MS.308         	9.312          	7.376
MS.309         	9.295          	7.487
MS.310         	9.275          	7.519
MS.311         	9.257          	7.259
MS.312         	9.238          	7.015
MS.313         	9.22           	7.323
MS.314         	9.202          	6.846
MS.315         	9.182          	6.604
MS.316         	9.165          	6.86
MS.317         	9.148          	6.977
MS.318         	9.127          	6.606
MS.319         	9.11           	6.832
MS.320         	9.092          	6.58
MS.321         	9.073          	6.403
MS.322         	9.055          	6.633
MS.323         	9.037          	6.465
MS.324         	9.02           	6.157
MS.325         	9              	6.625
MS.326         	8.983          	6.111
MS.327         	8.965          	6.316
MS.328         	8.948          	5.775
MS.329         	8.93           	5.916
MS.330         	8.912          	5.801
MS.331         	8.895          	6.196
MS.332         	8.875          	5.93
MS.333         	8.858          	6.077
MS.334         	8.84           	5.726
MS.335         	8.823          	5.807
MS.336         	8.805          	5.986
MS.337         	8.787          	5.644
MS.338         	8.77           	5.468
MS.339         	8.752          	5.763
MS.340         	8.735          	6.004
MS.341         	8.717          	5.561
MS.342         	8.7            	5.883
MS.343         	8.682          	5.607
MS.344         	8.665          	5.648
MS.345         	8.648          	5.64
MS.346         	8.63           	5.581
MS.347         	8.613          	5.575
MS.348         	8.597          	5.237
MS.349         	8.58           	4.965
MS.350         	8.562          	5.251
MS.351         	8.545          	5.235
MS.352         	8.528          	4.538
MS.353         	8.51           	4.987
MS.354         	8.495          	4.927
MS.355         	8.477          	4.568
MS.356         	8.46           	4.643
MS.357         	8.443          	4.731
MS.358         	8.427          	4.31
MS.359         	8.41           	4.629
MS.360         	8.392          	4.125
MS.361         	8.375          	4.433
MS.362         	8.36           	4.341
MS.363         	8.342          	4.208
MS.364         	8.325          	3.98
MS.365         	8.31           	4.204
MS.366         	8.292          	3.855
MS.367         	8.275          	4.085
MS.368         	8.26           	3.436
MS.369         	8.242          	4.002
MS.370         	8.227          	3.36
MS.371         	8.21           	3.402
MS.372         	8.193          	3.563
MS.373         	8.177          	3.198
MS.374         	8.16           	3.198
MS.375         	8.145          	3.247
MS.376         	8.127          	3.172
MS.377         	8.113          	2.945
MS.378         	8.095          	3.082
MS.379         	8.08           	2.643
MS.380         	8.062          	2.925
MS.381         	8.047          	2.572
MS.382         	8.033          	2.904
MS.383         	8.015          	2.449
MS.384         	8              	2.967
MS.385         	7.982          	2.544
MS.386         	7.967          	2.481
MS.387         	7.952          	2.544
MS.388         	7.935          	2.292
MS.389         	7.92           	2.31
MS.390         	7.905          	2.606
MS.391         	7.887          	2.252
MS.392         	7.872          	2.433
MS.393         	7.857          	1.962
MS.394         	7.84           	2.206
MS.395         	7.825          	1.859
MS.396         	7.81           	1.863
MS.397         	7.795          	1.811
MS.398         	7.777          	2.012
MS.399         	7.762          	1.722
MS.400         	7.747          	1.603
MS.401         	7.732          	1.704
MS.402         	7.717          	1.726
MS.403         	7.7            	1.569
MS.404         	7.685          	1.501
MS.405         	7.67           	1.41
MS.406         	7.655          	1.454
MS.407         	7.64           	1.569
MS.408         	7.625          	1.303
MS.409         	7.61           	1.69
MS.410         	7.595          	1.309
MS.411         	7.58           	1.297
MS.412         	7.562          	1.295
MS.413         	7.547          	1.356
MS.414         	7.532          	1.343
MS.415         	7.517          	1.349
MS.416         	7.503          	1.049
MS.417         	7.487          	1.281
MS.418         	7.472          	1.172
MS.419         	7.457          	1.122
MS.420         	7.442          	0.989
MS.421         	7.427          	1.088
MS.422         	7.415          	1.128
MS.423         	7.4            	0.993
MS.424         	7.385          	1.126
MS.425         	7.37           	0.961
MS.426         	7.355          	0.886
MS.427         	7.34           	1.132
MS.428         	7.325          	0.886
MS.429         	7.31           	0.862
MS.430         	7.295          	0.777
MS.431         	7.282          	0.779
MS.432         	7.267          	0.767
MS.433         	7.253          	0.665
MS.434         	7.237          	0.675
MS.435         	7.222          	0.699
MS.436         	7.21           	0.711
MS.437         	7.195          	0.713
MS.438         	7.18           	0.691
MS.439         	7.165          	0.667
MS.440         	7.152          	0.632
MS.441         	7.137          	0.596
MS.442         	7.122          	0.59
MS.443         	7.11           	0.544
MS.444         	7.095          	0.544
MS.445         	7.08           	0.558
MS.446         	7.067          	0.532
MS.447         	7.052          	0.584
MS.448         	7.037          	0.445
MS.449         	7.025          	0.534
MS.450         	7.01           	0.526
MS.451         	6.995          	0.463
MS.452         	6.983          	0.342
MS.453         	6.967          	0.401
MS.454         	6.955          	0.439
MS.455         	6.94           	0.369
MS.456         	6.927          	0.191
MS.457         	6.912          	0.373
MS.458         	6.9            	0.25
MS.459         	6.885          	0.377
MS.460         	6.872          	0.28
MS.461         	6.858          	0.264
MS.462         	6.845          	0.218
MS.463         	6.83           	0.282
MS.464         	6.817          	0.187
MS.465         	6.802          	0.165
MS.466         	6.79           	0.169
MS.467         	6.775          	0.244
MS.468         	6.762          	0.246
MS.469         	6.747          	0.232
MS.470         	6.735          	0.193
MS.471         	6.722          	0.155
MS.472         	6.707          	0.177
MS.473         	6.695          	0.121
MS.474         	6.682          	0.171
MS.475         	6.668          	0.085
MS.476         	6.655          	0.181
MS.477         	6.642          	0.028
MS.478         	6.628          	0.107
MS.479         	6.615          	0.135
MS.480         	6.602          	0.161
MS.481         	6.587          	0.113
MS.482         	6.575          	0.02
MS.483         	6.562          	0.024
MS.484         	6.55           	0.109
MS.485         	6.535          	0.028
MS.486         	6.523          	0.02
MS.487         	6.51           	0.022
MS.488         	6.497          	0.105
MS.489         	6.485          	0.109
MS.490         	6.47           	0.042
MS.491         	6.457          	0.026
MS.492         	6.445          	0.024
MS.493         	6.432          	0.028
MS.494         	6.42           	0.02
MS.495         	6.407          	0.026
