File:              	C:\Qtrac\Data\Daniel M Sørensen\MScan multicentre study\Data from centres\Bucharest\TDLC00206A.QZD
Name:              	RO.BU.NC.2.2
Protocol:          	MSCAN-R2
Date:              	6/2/20
Start time:        	14:11:20
Age:               	57
Sex:               	M
Temperature:       	36.6
S/R sites:         	APB
NC/disease:        	RONC2.2
Operator:          	TL
Comments:
M-SCAN DATA (6.1-1.1m)
Scanpts: 99, 104, 502, 514
Stim. (mA)     	Amp. (mV)
MS.1           	31             	11.924
MS.2           	31             	11.914
MS.3           	31             	11.906
MS.4           	31             	11.918
MS.5           	31             	11.904
MS.6           	31             	11.904
MS.7           	31             	11.902
MS.8           	31             	11.908
MS.9           	31             	11.924
MS.10          	31             	11.93
MS.11          	31             	11.946
MS.12          	31             	11.944
MS.13          	31             	11.948
MS.14          	31             	11.954
MS.15          	31             	11.946
MS.16          	31             	11.966
MS.17          	31             	11.972
MS.18          	31             	11.964
MS.19          	31             	11.974
MS.20          	31             	11.974
MS.21          	31             	11.978
MS.22          	31             	11.976
MS.23          	30.875         	11.968
MS.24          	30.815         	11.972
MS.25          	30.752         	11.968
MS.26          	30.692         	11.978
MS.27          	30.63          	11.978
MS.28          	30.57          	11.982
MS.29          	30.507         	11.984
MS.30          	30.448         	11.978
MS.31          	30.385         	11.98
MS.32          	30.325         	11.978
MS.33          	30.265         	11.986
MS.34          	30.205         	11.988
MS.35          	30.145         	11.976
MS.36          	30.082         	11.978
MS.37          	30.022         	11.978
MS.38          	29.962         	12.002
MS.39          	29.903         	11.994
MS.40          	29.845         	12
MS.41          	29.785         	11.994
MS.42          	29.725         	12.004
MS.43          	29.665         	12.006
MS.44          	29.605         	12.002
MS.45          	29.547         	12.016
MS.46          	29.487         	12.018
MS.47          	29.43          	12.018
MS.48          	29.37          	12.018
MS.49          	29.312         	12.025
MS.50          	29.252         	12.012
MS.51          	29.195         	12.014
MS.52          	29.137         	12.023
MS.53          	29.077         	12.018
MS.54          	29.02          	12.012
MS.55          	28.962         	12.014
MS.56          	28.905         	12.012
MS.57          	28.847         	12.01
MS.58          	28.787         	12.006
MS.59          	28.73          	12.008
MS.60          	28.675         	11.998
MS.61          	28.618         	12.002
MS.62          	28.56          	12.014
MS.63          	28.502         	12.018
MS.64          	28.445         	12.006
MS.65          	28.387         	12.012
MS.66          	28.332         	12.008
MS.67          	28.275         	12.014
MS.68          	28.217         	12.016
MS.69          	28.162         	12.014
MS.70          	28.105         	12.008
MS.71          	28.05          	12.025
MS.72          	27.995         	12.021
MS.73          	27.938         	12.025
MS.74          	27.882         	12.021
MS.75          	27.827         	12.025
MS.76          	27.77          	12.016
MS.77          	27.715         	12.008
MS.78          	27.66          	12.006
MS.79          	27.605         	12.01
MS.80          	27.55          	12.012
MS.81          	27.495         	12.008
MS.82          	27.44          	12.021
MS.83          	27.385         	12.006
MS.84          	27.33          	12.027
MS.85          	27.275         	12.016
MS.86          	27.22          	12.029
MS.87          	27.167         	12.016
MS.88          	27.112         	12.014
MS.89          	27.057         	12.004
MS.90          	27.005         	12.012
MS.91          	26.95          	12.014
MS.92          	26.895         	12.023
MS.93          	26.842         	12.016
MS.94          	26.79          	12.025
MS.95          	26.735         	12.031
MS.96          	26.682         	12.029
MS.97          	26.627         	12.049
MS.98          	26.575         	12.051
MS.99          	26.522         	12.053
MS.100         	26.47          	12.041
MS.101         	26.417         	12.039
MS.102         	26.362         	12.043
MS.103         	26.31          	12.039
MS.104         	26.257         	12.047
MS.105         	26.205         	12.055
MS.106         	26.153         	12.037
MS.107         	26.1           	12.051
MS.108         	26.05          	12.041
MS.109         	25.997         	12.043
MS.110         	25.945         	12.049
MS.111         	25.892         	12.055
MS.112         	25.842         	12.057
MS.113         	25.79          	12.049
MS.114         	25.737         	12.041
MS.115         	25.688         	11.682
MS.116         	25.635         	12.057
MS.117         	25.585         	11.68
MS.118         	25.532         	11.696
MS.119         	25.483         	11.698
MS.120         	25.432         	11.688
MS.121         	25.38          	12.063
MS.122         	25.33          	12.057
MS.123         	25.28          	12.075
MS.124         	25.227         	11.722
MS.125         	25.177         	11.71
MS.126         	25.127         	12.055
MS.127         	25.077         	12.049
MS.128         	25.028         	11.71
MS.129         	24.977         	11.708
MS.130         	24.927         	12.067
MS.131         	24.877         	11.704
MS.132         	24.827         	11.706
MS.133         	24.778         	11.71
MS.134         	24.73          	12.059
MS.135         	24.68          	11.664
MS.136         	24.63          	11.716
MS.137         	24.58          	11.708
MS.138         	24.532         	11.71
MS.139         	24.483         	11.567
MS.140         	24.435         	11.712
MS.141         	24.385         	11.606
MS.142         	24.337         	11.614
MS.143         	24.288         	11.569
MS.144         	24.24          	11.628
MS.145         	24.19          	11.569
MS.146         	24.142         	11.626
MS.147         	24.095         	11.579
MS.148         	24.047         	11.579
MS.149         	23.997         	11.68
MS.150         	23.95          	11.686
MS.151         	23.903         	11.632
MS.152         	23.855         	11.585
MS.153         	23.807         	11.581
MS.154         	23.76          	11.579
MS.155         	23.712         	11.579
MS.156         	23.665         	11.585
MS.157         	23.618         	11.579
MS.158         	23.57          	11.587
MS.159         	23.522         	11.591
MS.160         	23.475         	11.575
MS.161         	23.43          	11.594
MS.162         	23.382         	11.585
MS.163         	23.335         	11.577
MS.164         	23.29          	11.537
MS.165         	23.243         	11.596
MS.166         	23.195         	11.557
MS.167         	23.15          	11.591
MS.168         	23.102         	11.583
MS.169         	23.057         	11.589
MS.170         	23.01          	11.587
MS.171         	22.965         	11.569
MS.172         	22.92          	11.577
MS.173         	22.872         	11.549
MS.174         	22.827         	11.579
MS.175         	22.782         	11.557
MS.176         	22.737         	11.563
MS.177         	22.692         	11.557
MS.178         	22.645         	11.585
MS.179         	22.6           	11.553
MS.180         	22.555         	11.511
MS.181         	22.51          	11.583
MS.182         	22.465         	11.565
MS.183         	22.42          	11.561
MS.184         	22.375         	11.513
MS.185         	22.33          	11.487
MS.186         	22.288         	11.511
MS.187         	22.243         	11.507
MS.188         	22.198         	11.448
MS.189         	22.153         	11.515
MS.190         	22.11          	11.511
MS.191         	22.065         	11.503
MS.192         	22.02          	11.461
MS.193         	21.977         	11.461
MS.194         	21.932         	11.475
MS.195         	21.89          	11.511
MS.196         	21.845         	11.533
MS.197         	21.802         	11.217
MS.198         	21.757         	11.457
MS.199         	21.715         	11.471
MS.200         	21.67          	11.318
MS.201         	21.627         	11.404
MS.202         	21.585         	11.277
MS.203         	21.542         	11.372
MS.204         	21.497         	11.451
MS.205         	21.455         	11.305
MS.206         	21.413         	11.134
MS.207         	21.37          	11.475
MS.208         	21.327         	11.231
MS.209         	21.285         	11.412
MS.210         	21.243         	11.225
MS.211         	21.2           	11.239
MS.212         	21.157         	11.225
MS.213         	21.115         	11.152
MS.214         	21.073         	11.158
MS.215         	21.03          	11.171
MS.216         	20.987         	11.019
MS.217         	20.948         	11.152
MS.218         	20.905         	11.144
MS.219         	20.862         	11.064
MS.220         	20.823         	11.162
MS.221         	20.78          	11.082
MS.222         	20.737         	11.152
MS.223         	20.698         	11.026
MS.224         	20.655         	11.096
MS.225         	20.615         	10.397
MS.226         	20.573         	10.365
MS.227         	20.532         	10.445
MS.228         	20.49          	10.28
MS.229         	20.45          	9.706
MS.230         	20.41          	9.463
MS.231         	20.368         	10.574
MS.232         	20.327         	10.157
MS.233         	20.288         	9.446
MS.234         	20.247         	10.172
MS.235         	20.205         	10.79
MS.236         	20.165         	9.475
MS.237         	20.125         	9.994
MS.238         	20.085         	9.89
MS.239         	20.045         	9.68
MS.240         	20.005         	10.089
MS.241         	19.965         	9.696
MS.242         	19.925         	9.142
MS.243         	19.885         	9.662
MS.244         	19.845         	8.965
MS.245         	19.805         	9.084
MS.246         	19.767         	8.832
MS.247         	19.727         	8.937
MS.248         	19.688         	9.38
MS.249         	19.647         	9.07
MS.250         	19.61          	8.999
MS.251         	19.57          	8.737
MS.252         	19.53          	8.596
MS.253         	19.493         	8.391
MS.254         	19.452         	8.641
MS.255         	19.415         	8.383
MS.256         	19.375         	8.604
MS.257         	19.337         	8.403
MS.258         	19.297         	8.703
MS.259         	19.26          	8.268
MS.260         	19.22          	8.113
MS.261         	19.182         	8.417
MS.262         	19.145         	8.125
MS.263         	19.105         	8.335
MS.264         	19.067         	8.306
MS.265         	19.03          	7.787
MS.266         	18.993         	7.815
MS.267         	18.952         	7.646
MS.268         	18.915         	7.912
MS.269         	18.877         	7.819
MS.270         	18.84          	7.827
MS.271         	18.802         	7.551
MS.272         	18.765         	7.946
MS.273         	18.727         	8.077
MS.274         	18.69          	7.36
MS.275         	18.653         	7.924
MS.276         	18.615         	6.733
MS.277         	18.577         	7.458
MS.278         	18.54          	6.739
MS.279         	18.505         	6.679
MS.280         	18.467         	7.374
MS.281         	18.43          	7.265
MS.282         	18.392         	6.417
MS.283         	18.358         	7.187
MS.284         	18.32          	6.409
MS.285         	18.282         	6.063
MS.286         	18.247         	6.089
MS.287         	18.21          	6.244
MS.288         	18.175         	6.282
MS.289         	18.137         	6.302
MS.290         	18.102         	5.865
MS.291         	18.065         	6.798
MS.292         	18.03          	5.577
MS.293         	17.993         	5.551
MS.294         	17.958         	5.7
MS.295         	17.92          	5.758
MS.296         	17.885         	6.19
MS.297         	17.85          	5.507
MS.298         	17.815         	5.595
MS.299         	17.778         	5.458
MS.300         	17.743         	5.327
MS.301         	17.708         	5.193
MS.302         	17.672         	5.16
MS.303         	17.637         	5.269
MS.304         	17.602         	5.213
MS.305         	17.567         	5.072
MS.306         	17.53          	4.981
MS.307         	17.495         	5.154
MS.308         	17.46          	4.355
MS.309         	17.427         	4.403
MS.310         	17.392         	5.1
MS.311         	17.358         	4.816
MS.312         	17.323         	4.429
MS.313         	17.288         	4.524
MS.314         	17.253         	4.582
MS.315         	17.217         	4.455
MS.316         	17.185         	4.268
MS.317         	17.15          	4.463
MS.318         	17.115         	4.093
MS.319         	17.083         	4.081
MS.320         	17.047         	4.198
MS.321         	17.012         	4.383
MS.322         	16.98          	4.181
MS.323         	16.945         	3.704
MS.324         	16.913         	3.773
MS.325         	16.878         	3.613
MS.326         	16.845         	3.857
MS.327         	16.81          	3.952
MS.328         	16.778         	3.63
MS.329         	16.743         	3.43
MS.330         	16.71          	3.549
MS.331         	16.675         	3.438
MS.332         	16.642         	3.325
MS.333         	16.61          	3.4
MS.334         	16.577         	3.442
MS.335         	16.542         	3.297
MS.336         	16.51          	3.273
MS.337         	16.477         	2.917
MS.338         	16.445         	2.85
MS.339         	16.413         	2.832
MS.340         	16.378         	3.084
MS.341         	16.345         	2.588
MS.342         	16.312         	2.53
MS.343         	16.28          	3.166
MS.344         	16.247         	2.514
MS.345         	16.215         	2.763
MS.346         	16.182         	2.586
MS.347         	16.15          	2.349
MS.348         	16.118         	2.04
MS.349         	16.087         	2.536
MS.350         	16.055         	2.113
MS.351         	16.022         	1.859
MS.352         	15.99          	2.133
MS.353         	15.957         	2.228
MS.354         	15.927         	1.879
MS.355         	15.895         	1.984
MS.356         	15.862         	1.992
MS.357         	15.83          	1.877
MS.358         	15.8           	2.075
MS.359         	15.767         	1.972
MS.360         	15.737         	1.716
MS.361         	15.705         	1.819
MS.362         	15.672         	1.744
MS.363         	15.642         	1.452
MS.364         	15.61          	1.581
MS.365         	15.58          	1.748
MS.366         	15.55          	1.347
MS.367         	15.517         	1.378
MS.368         	15.487         	1.265
MS.369         	15.455         	1.476
MS.370         	15.425         	1.235
MS.371         	15.395         	1.426
MS.372         	15.362         	1.394
MS.373         	15.332         	1.2
MS.374         	15.302         	1.239
MS.375         	15.273         	1.323
MS.376         	15.24          	1.202
MS.377         	15.21          	1.088
MS.378         	15.18          	1.202
MS.379         	15.15          	1.19
MS.380         	15.12          	1.009
MS.381         	15.09          	1.005
MS.382         	15.06          	0.949
MS.383         	15.03          	0.963
MS.384         	15             	1.07
MS.385         	14.97          	1.074
MS.386         	14.94          	0.931
MS.387         	14.91          	0.922
MS.388         	14.88          	0.878
MS.389         	14.85          	0.918
MS.390         	14.82          	0.876
MS.391         	14.79          	0.812
MS.392         	14.76          	0.769
MS.393         	14.733         	0.749
MS.394         	14.702         	0.844
MS.395         	14.672         	0.79
MS.396         	14.642         	0.814
MS.397         	14.615         	0.842
MS.398         	14.585         	0.737
MS.399         	14.555         	0.753
MS.400         	14.527         	0.792
MS.401         	14.497         	0.725
MS.402         	14.467         	0.673
MS.403         	14.44          	0.657
MS.404         	14.41          	0.58
MS.405         	14.382         	0.679
MS.406         	14.352         	0.653
MS.407         	14.325         	0.661
MS.408         	14.295         	0.475
MS.409         	14.267         	0.532
MS.410         	14.24          	0.51
MS.411         	14.21          	0.475
MS.412         	14.182         	0.532
MS.413         	14.155         	0.586
MS.414         	14.125         	0.485
MS.415         	14.097         	0.385
MS.416         	14.07          	0.491
MS.417         	14.04          	0.489
MS.418         	14.012         	0.385
MS.419         	13.985         	0.397
MS.420         	13.957         	0.338
MS.421         	13.93          	0.318
MS.422         	13.903         	0.445
MS.423         	13.872         	0.381
MS.424         	13.845         	0.399
MS.425         	13.818         	0.367
MS.426         	13.79          	0.209
MS.427         	13.762         	0.403
MS.428         	13.735         	0.262
MS.429         	13.707         	0.316
MS.430         	13.68          	0.27
MS.431         	13.653         	0.28
MS.432         	13.625         	0.262
MS.433         	13.6           	0.254
MS.434         	13.572         	0.306
MS.435         	13.545         	0.258
MS.436         	13.517         	0.149
MS.437         	13.49          	0.127
MS.438         	13.462         	0.262
MS.439         	13.438         	0.077
MS.440         	13.41          	0.161
MS.441         	13.382         	0.173
MS.442         	13.355         	0.093
MS.443         	13.33          	0.111
MS.444         	13.302         	0.06
MS.445         	13.278         	0.115
MS.446         	13.25          	0.115
MS.447         	13.222         	0.07
MS.448         	13.197         	0.111
MS.449         	13.17          	0.111
MS.450         	13.145         	0.113
MS.451         	13.117         	0.056
MS.452         	13.092         	0.05
MS.453         	13.065         	0.058
MS.454         	13.04          	0.091
MS.455         	13.012         	0.052
MS.456         	12.987         	0.07
MS.457         	12.962         	0.056
MS.458         	12.935         	0.066
MS.459         	12.91          	0.056
MS.460         	12.885         	0.054
MS.461         	12.858         	0.054
MS.462         	12.832         	0.062
MS.463         	12.807         	0.06
MS.464         	12.782         	0.064
MS.465         	12.755         	0.073
MS.466         	12.73          	0.054
MS.467         	12.705         	0.06
MS.468         	12.68          	0.066
MS.469         	12.655         	0.048
MS.470         	12.63          	0.062
MS.471         	12.602         	0.07
MS.472         	12.577         	0.05
MS.473         	12.552         	0.052
MS.474         	12.528         	0.066
MS.475         	12.502         	0.066
MS.476         	12.477         	0.06
MS.477         	12.452         	0.064
MS.478         	12.427         	0.058
MS.479         	12.403         	0.062
MS.480         	12.38          	0.064
MS.481         	12.355         	0.064
MS.482         	12.33          	0.064
MS.483         	12.305         	0.064
MS.484         	12.28          	0.058
MS.485         	12.255         	0.062
MS.486         	12.23          	0.056
MS.487         	12.207         	0.06
MS.488         	12.182         	0.06
MS.489         	12.157         	0.056
MS.490         	12.132         	0.058
MS.491         	12.11          	0.062
MS.492         	12.085         	0.058
MS.493         	12.06          	0.06
MS.494         	12.037         	0.056
MS.495         	12.012         	0.056
