File:              	C:\Qtrac\Data\Daniel M Sørensen\MScan multicentre study\Data from centres\Bucharest\Processed data\TDLC00922A.QZD
Name:              	RO.BU.NC.7.2
Protocol:          	MSCAN-R2
Date:              	22/9/20
Start time:        	13:16:30
Age:               	48
Sex:               	F
Temperature:       	36.5
S/R sites:         	APB
NC/disease:        	NC
Operator:          	TL
Comments:          	RONC.7.2.
M-SCAN DATA (6.5-1m)
Scanpts: 271, 277, 575, 597
Stim. (mA)     	Amp. (mV)
MS.1           	20.5           	10.194
MS.2           	20.5           	10.184
MS.3           	20.5           	10.198
MS.4           	20.5           	10.165
MS.5           	20.5           	10.172
MS.6           	20.5           	10.163
MS.7           	20.5           	10.165
MS.8           	20.5           	10.174
MS.9           	20.5           	10.159
MS.10          	20.5           	10.157
MS.11          	20.5           	10.147
MS.12          	20.5           	10.131
MS.13          	20.5           	10.147
MS.14          	20.5           	10.155
MS.15          	20.5           	10.151
MS.16          	20.5           	10.131
MS.17          	20.5           	10.129
MS.18          	20.5           	10.135
MS.19          	20.5           	10.127
MS.20          	20.5           	10.119
MS.21          	20.5           	10.125
MS.22          	20.5           	10.131
MS.23          	20.5           	10.113
MS.24          	20.417         	10.127
MS.25          	20.377         	10.119
MS.26          	20.337         	10.119
MS.27          	20.295         	10.109
MS.28          	20.255         	10.109
MS.29          	20.215         	10.095
MS.30          	20.175         	10.095
MS.31          	20.135         	10.083
MS.32          	20.095         	10.091
MS.33          	20.055         	10.091
MS.34          	20.015         	10.105
MS.35          	19.975         	10.099
MS.36          	19.935         	10.101
MS.37          	19.895         	10.119
MS.38          	19.855         	10.135
MS.39          	19.815         	10.101
MS.40          	19.775         	10.099
MS.41          	19.735         	10.109
MS.42          	19.695         	10.115
MS.43          	19.657         	10.109
MS.44          	19.618         	10.097
MS.45          	19.577         	10.075
MS.46          	19.54          	10.065
MS.47          	19.5           	10.075
MS.48          	19.46          	10.081
MS.49          	19.422         	10.091
MS.50          	19.382         	10.109
MS.51          	19.345         	10.107
MS.52          	19.305         	10.105
MS.53          	19.267         	10.085
MS.54          	19.23          	10.081
MS.55          	19.19          	10.091
MS.56          	19.153         	10.103
MS.57          	19.115         	10.103
MS.58          	19.075         	10.107
MS.59          	19.038         	10.091
MS.60          	19             	10.093
MS.61          	18.962         	10.081
MS.62          	18.925         	10.095
MS.63          	18.885         	10.081
MS.64          	18.847         	10.101
MS.65          	18.81          	10.101
MS.66          	18.772         	10.099
MS.67          	18.735         	10.097
MS.68          	18.698         	10.093
MS.69          	18.66          	10.105
MS.70          	18.622         	10.097
MS.71          	18.585         	10.107
MS.72          	18.55          	10.095
MS.73          	18.512         	10.107
MS.74          	18.475         	10.093
MS.75          	18.438         	10.099
MS.76          	18.403         	10.085
MS.77          	18.365         	10.083
MS.78          	18.327         	10.075
MS.79          	18.29          	10.071
MS.80          	18.255         	10.073
MS.81          	18.217         	10.073
MS.82          	18.182         	10.075
MS.83          	18.145         	10.069
MS.84          	18.11          	10.063
MS.85          	18.073         	10.073
MS.86          	18.038         	10.069
MS.87          	18             	10.083
MS.88          	17.965         	10.095
MS.89          	17.93          	10.065
MS.90          	17.892         	10.057
MS.91          	17.858         	10.031
MS.92          	17.823         	10.039
MS.93          	17.785         	10.029
MS.94          	17.75          	10.041
MS.95          	17.715         	10.035
MS.96          	17.68          	10.049
MS.97          	17.645         	10.057
MS.98          	17.61          	10.065
MS.99          	17.575         	10.053
MS.100         	17.54          	10.063
MS.101         	17.505         	10.061
MS.102         	17.47          	10.055
MS.103         	17.435         	10.057
MS.104         	17.4           	10.002
MS.105         	17.365         	10.02
MS.106         	17.33          	10.016
MS.107         	17.295         	10.016
MS.108         	17.26          	10.016
MS.109         	17.225         	10.016
MS.110         	17.192         	10.029
MS.111         	17.157         	10.029
MS.112         	17.122         	10.029
MS.113         	17.09          	10.022
MS.114         	17.055         	10.006
MS.115         	17.02          	9.994
MS.116         	16.987         	9.988
MS.117         	16.952         	9.992
MS.118         	16.917         	9.992
MS.119         	16.885         	10.012
MS.120         	16.85          	10.014
MS.121         	16.817         	10.016
MS.122         	16.785         	10.008
MS.123         	16.75          	10.026
MS.124         	16.717         	10.008
MS.125         	16.682         	9.99
MS.126         	16.65          	10.012
MS.127         	16.618         	10.024
MS.128         	16.583         	10.026
MS.129         	16.55          	10.055
MS.130         	16.517         	10.057
MS.131         	16.485         	10.073
MS.132         	16.452         	10.043
MS.133         	16.417         	10.033
MS.134         	16.385         	10.039
MS.135         	16.352         	10.049
MS.136         	16.32          	10.045
MS.137         	16.288         	10.041
MS.138         	16.255         	10.057
MS.139         	16.222         	10.047
MS.140         	16.19          	10.041
MS.141         	16.157         	10.02
MS.142         	16.125         	10.024
MS.143         	16.092         	10.018
MS.144         	16.062         	10.006
MS.145         	16.03          	9.994
MS.146         	15.997         	9.996
MS.147         	15.965         	10.014
MS.148         	15.932         	10.014
MS.149         	15.902         	9.998
MS.150         	15.87          	10.004
MS.151         	15.837         	10.008
MS.152         	15.807         	10
MS.153         	15.775         	10.004
MS.154         	15.742         	10.018
MS.155         	15.712         	10.024
MS.156         	15.68          	10.002
MS.157         	15.65          	10.002
MS.158         	15.617         	9.988
MS.159         	15.587         	9.998
MS.160         	15.555         	10
MS.161         	15.525         	10.014
MS.162         	15.492         	10.022
MS.163         	15.462         	10.035
MS.164         	15.432         	10.014
MS.165         	15.4           	10
MS.166         	15.37          	9.988
MS.167         	15.34          	10.033
MS.168         	15.307         	10.018
MS.169         	15.277         	9.968
MS.170         	15.247         	9.992
MS.171         	15.217         	10
MS.172         	15.188         	10.008
MS.173         	15.157         	10.018
MS.174         	15.125         	10.037
MS.175         	15.095         	10.063
MS.176         	15.065         	10.053
MS.177         	15.035         	10.075
MS.178         	15.005         	10.069
MS.179         	14.975         	10.051
MS.180         	14.945         	10.073
MS.181         	14.915         	10.053
MS.182         	14.885         	10.073
MS.183         	14.858         	10.075
MS.184         	14.827         	10.085
MS.185         	14.797         	10.105
MS.186         	14.767         	10.115
MS.187         	14.737         	10.111
MS.188         	14.707         	10.129
MS.189         	14.68          	10.071
MS.190         	14.65          	10.075
MS.191         	14.62          	10.085
MS.192         	14.59          	10.083
MS.193         	14.562         	10.117
MS.194         	14.532         	10.087
MS.195         	14.505         	10.081
MS.196         	14.475         	10.105
MS.197         	14.445         	10.099
MS.198         	14.417         	10.083
MS.199         	14.387         	10.103
MS.200         	14.36          	10.107
MS.201         	14.33          	10.091
MS.202         	14.302         	10.103
MS.203         	14.273         	10.107
MS.204         	14.245         	10.099
MS.205         	14.217         	10.107
MS.206         	14.188         	10.111
MS.207         	14.16          	10.127
MS.208         	14.132         	10.125
MS.209         	14.102         	10.117
MS.210         	14.075         	10.121
MS.211         	14.047         	10.125
MS.212         	14.02          	10.127
MS.213         	13.99          	10.137
MS.214         	13.962         	10.135
MS.215         	13.935         	10.149
MS.216         	13.907         	10.141
MS.217         	13.88          	10.157
MS.218         	13.852         	10.172
MS.219         	13.825         	10.172
MS.220         	13.797         	10.172
MS.221         	13.77          	10.149
MS.222         	13.742         	10.159
MS.223         	13.715         	10.157
MS.224         	13.688         	10.137
MS.225         	13.66          	10.163
MS.226         	13.632         	10.155
MS.227         	13.605         	10.153
MS.228         	13.577         	10.165
MS.229         	13.55          	10.188
MS.230         	13.523         	10.167
MS.231         	13.497         	10.157
MS.232         	13.47          	10.169
MS.233         	13.443         	10.208
MS.234         	13.415         	10.194
MS.235         	13.39          	10.188
MS.236         	13.362         	10.149
MS.237         	13.335         	10.155
MS.238         	13.307         	10.159
MS.239         	13.282         	10.182
MS.240         	13.255         	10.172
MS.241         	13.23          	10.192
MS.242         	13.202         	10.192
MS.243         	13.177         	10.23
MS.244         	13.15          	10.188
MS.245         	13.122         	10.216
MS.246         	13.097         	10.184
MS.247         	13.072         	10.222
MS.248         	13.045         	10.196
MS.249         	13.02          	10.184
MS.250         	12.992         	10.22
MS.251         	12.967         	10.212
MS.252         	12.943         	10.188
MS.253         	12.915         	10.23
MS.254         	12.89          	10.212
MS.255         	12.865         	10.214
MS.256         	12.837         	10.212
MS.257         	12.812         	10.216
MS.258         	12.787         	10.218
MS.259         	12.762         	10.23
MS.260         	12.735         	10.216
MS.261         	12.71          	10.248
MS.262         	12.685         	10.218
MS.263         	12.66          	10.248
MS.264         	12.635         	10.252
MS.265         	12.61          	10.258
MS.266         	12.585         	10.252
MS.267         	12.56          	10.256
MS.268         	12.532         	10.264
MS.269         	12.507         	10.254
MS.270         	12.483         	10.236
MS.271         	12.457         	10.234
MS.272         	12.435         	10.22
MS.273         	12.41          	10.256
MS.274         	12.385         	10.23
MS.275         	12.36          	10.22
MS.276         	12.335         	10.244
MS.277         	12.31          	10.23
MS.278         	12.285         	10.222
MS.279         	12.26          	10.25
MS.280         	12.238         	10.24
MS.281         	12.212         	10.238
MS.282         	12.188         	9.97
MS.283         	12.162         	10.246
MS.284         	12.14          	10.24
MS.285         	12.115         	9.976
MS.286         	12.09          	10.304
MS.287         	12.068         	10.256
MS.288         	12.042         	9.954
MS.289         	12.017         	9.984
MS.290         	11.995         	9.974
MS.291         	11.97          	9.666
MS.292         	11.947         	9.968
MS.293         	11.922         	9.938
MS.294         	11.898         	9.972
MS.295         	11.875         	9.688
MS.296         	11.85          	9.658
MS.297         	11.827         	9.978
MS.298         	11.805         	9.561
MS.299         	11.78          	9.599
MS.300         	11.757         	9.662
MS.301         	11.733         	9.324
MS.302         	11.71          	9.692
MS.303         	11.688         	9.446
MS.304         	11.662         	9.436
MS.305         	11.64          	9.694
MS.306         	11.617         	9.734
MS.307         	11.592         	9.676
MS.308         	11.57          	9.368
MS.309         	11.547         	9.465
MS.310         	11.525         	9.235
MS.311         	11.5           	9.225
MS.312         	11.477         	9.225
MS.313         	11.455         	9.503
MS.314         	11.432         	9.36
MS.315         	11.41          	8.846
MS.316         	11.387         	9.362
MS.317         	11.363         	8.989
MS.318         	11.34          	9.092
MS.319         	11.318         	9.362
MS.320         	11.295         	9.207
MS.321         	11.273         	8.949
MS.322         	11.25          	8.719
MS.323         	11.227         	8.663
MS.324         	11.205         	8.55
MS.325         	11.182         	9.239
MS.326         	11.16          	8.701
MS.327         	11.137         	8.582
MS.328         	11.117         	8.693
MS.329         	11.095         	8.929
MS.330         	11.073         	8.335
MS.331         	11.05          	8.343
MS.332         	11.028         	8.304
MS.333         	11.005         	8.586
MS.334         	10.985         	8.127
MS.335         	10.962         	8.395
MS.336         	10.94          	7.889
MS.337         	10.917         	8.002
MS.338         	10.898         	7.865
MS.339         	10.875         	7.632
MS.340         	10.852         	7.837
MS.341         	10.83          	7.753
MS.342         	10.81          	7.511
MS.343         	10.787         	7.706
MS.344         	10.767         	7.988
MS.345         	10.745         	7.881
MS.346         	10.722         	7.676
MS.347         	10.702         	7.793
MS.348         	10.68          	7.495
MS.349         	10.66          	7.122
MS.350         	10.637         	7.182
MS.351         	10.617         	7.561
MS.352         	10.595         	7.158
MS.353         	10.575         	7.64
MS.354         	10.552         	7.293
MS.355         	10.532         	7.162
MS.356         	10.51          	7.106
MS.357         	10.49          	6.467
MS.358         	10.47          	7.217
MS.359         	10.448         	6.82
MS.360         	10.427         	6.292
MS.361         	10.407         	6.725
MS.362         	10.385         	6.441
MS.363         	10.365         	6.506
MS.364         	10.345         	6.051
MS.365         	10.323         	6.079
MS.366         	10.302         	6.117
MS.367         	10.282         	5.787
MS.368         	10.262         	5.718
MS.369         	10.24          	5.603
MS.370         	10.22          	5.746
MS.371         	10.2           	5.283
MS.372         	10.18          	5.479
MS.373         	10.16          	5.42
MS.374         	10.14          	5.045
MS.375         	10.12          	4.945
MS.376         	10.1           	5.184
MS.377         	10.077         	4.977
MS.378         	10.057         	4.909
MS.379         	10.037         	4.415
MS.380         	10.017         	4.31
MS.381         	9.997          	4.614
MS.382         	9.977          	4.6
MS.383         	9.957          	4.133
MS.384         	9.938          	3.924
MS.385         	9.917          	3.833
MS.386         	9.9            	4.147
MS.387         	9.88           	4.103
MS.388         	9.86           	3.799
MS.389         	9.84           	3.466
MS.390         	9.82           	3.708
MS.391         	9.8            	3.603
MS.392         	9.78           	3.567
MS.393         	9.762          	3.043
MS.394         	9.742          	3.527
MS.395         	9.722          	3.092
MS.396         	9.702          	2.763
MS.397         	9.682          	3.178
MS.398         	9.665          	3.027
MS.399         	9.645          	3.094
MS.400         	9.625          	2.832
MS.401         	9.608          	2.586
MS.402         	9.587          	2.483
MS.403         	9.568          	2.641
MS.404         	9.55           	2.042
MS.405         	9.53           	2.103
MS.406         	9.51           	1.952
MS.407         	9.492          	2.596
MS.408         	9.472          	2.028
MS.409         	9.455          	2.006
MS.410         	9.435          	1.819
MS.411         	9.415          	1.577
MS.412         	9.398          	1.913
MS.413         	9.377          	1.72
MS.414         	9.36           	1.617
MS.415         	9.34           	1.742
MS.416         	9.323          	1.599
MS.417         	9.305          	1.635
MS.418         	9.285          	1.488
MS.419         	9.267          	1.424
MS.420         	9.247          	1.394
MS.421         	9.23           	1.43
MS.422         	9.21           	1.291
MS.423         	9.193          	1.36
MS.424         	9.175          	1.283
MS.425         	9.155          	1.277
MS.426         	9.137          	1.196
MS.427         	9.12           	1.219
MS.428         	9.102          	1.39
MS.429         	9.082          	1.245
MS.430         	9.065          	1.261
MS.431         	9.047          	1.194
MS.432         	9.03           	1.172
MS.433         	9.01           	1.043
MS.434         	8.992          	1.051
MS.435         	8.975          	1.094
MS.436         	8.957          	0.993
MS.437         	8.94           	1.065
MS.438         	8.92           	0.927
MS.439         	8.903          	0.951
MS.440         	8.885          	0.804
MS.441         	8.867          	0.995
MS.442         	8.85           	0.898
MS.443         	8.832          	0.981
MS.444         	8.815          	0.931
MS.445         	8.797          	0.967
MS.446         	8.78           	0.868
MS.447         	8.762          	0.681
MS.448         	8.745          	0.816
MS.449         	8.727          	0.665
MS.450         	8.71           	0.749
MS.451         	8.693          	0.753
MS.452         	8.675          	0.719
MS.453         	8.658          	0.638
MS.454         	8.64           	0.786
MS.455         	8.622          	0.63
MS.456         	8.605          	0.673
MS.457         	8.587          	0.657
MS.458         	8.573          	0.634
MS.459         	8.555          	0.594
MS.460         	8.537          	0.636
MS.461         	8.52           	0.62
MS.462         	8.502          	0.552
MS.463         	8.485          	0.568
MS.464         	8.47           	0.548
MS.465         	8.452          	0.552
MS.466         	8.435          	0.528
MS.467         	8.417          	0.53
MS.468         	8.403          	0.528
MS.469         	8.385          	0.548
MS.470         	8.367          	0.497
MS.471         	8.352          	0.532
MS.472         	8.335          	0.502
MS.473         	8.318          	0.481
MS.474         	8.302          	0.453
MS.475         	8.285          	0.421
MS.476         	8.267          	0.483
MS.477         	8.252          	0.483
MS.478         	8.235          	0.477
MS.479         	8.22           	0.457
MS.480         	8.202          	0.508
MS.481         	8.185          	0.423
MS.482         	8.17           	0.445
MS.483         	8.153          	0.35
MS.484         	8.137          	0.336
MS.485         	8.12           	0.397
MS.486         	8.105          	0.397
MS.487         	8.087          	0.334
MS.488         	8.073          	0.431
MS.489         	8.055          	0.367
MS.490         	8.04           	0.32
MS.491         	8.025          	0.312
MS.492         	8.007          	0.31
MS.493         	7.992          	0.306
