File:              	C:\Qtrac\Data\Daniel M Sørensen\MScan multicentre study\Data from centres\Bucharest\Processed data\TDLC00206G.QZD
Name:              	RO.BU.NC.4.1
Protocol:          	MSCAN-R2
Date:              	6/2/20
Start time:        	15:52:48
Age:               	28
Sex:               	M
Temperature:       	37.1
S/R sites:         	TA
NC/disease:        	RONC4.1
Operator:          	TL
Comments:
M-SCAN DATA (10.7-0.9m)
Scanpts: 55, 64, 922, 939
Stim. (mA)     	Amp. (mV)
MS.1           	25.5           	6.929
MS.2           	25.5           	6.973
MS.3           	25.5           	6.967
MS.4           	25.5           	6.945
MS.5           	25.5           	6.967
MS.6           	25.5           	6.935
MS.7           	25.5           	6.939
MS.8           	25.5           	6.961
MS.9           	25.5           	6.971
MS.10          	25.5           	6.933
MS.11          	25.5           	6.959
MS.12          	25.5           	6.911
MS.13          	25.5           	6.983
MS.14          	25.5           	6.983
MS.15          	25.5           	6.981
MS.16          	25.5           	6.935
MS.17          	25.5           	6.951
MS.18          	25.5           	7.013
MS.19          	25.5           	6.969
MS.20          	25.5           	6.917
MS.21          	25.5           	6.919
MS.22          	25.5           	6.941
MS.23          	25.5           	6.969
MS.24          	25.397         	6.993
MS.25          	25.347         	6.909
MS.26          	25.297         	6.941
MS.27          	25.245         	6.937
MS.28          	25.195         	6.949
MS.29          	25.145         	6.961
MS.30          	25.095         	6.923
MS.31          	25.045         	6.927
MS.32          	24.995         	6.913
MS.33          	24.945         	6.937
MS.34          	24.895         	6.933
MS.35          	24.845         	6.929
MS.36          	24.795         	6.931
MS.37          	24.747         	6.973
MS.38          	24.698         	6.953
MS.39          	24.647         	6.949
MS.40          	24.597         	6.943
MS.41          	24.55          	6.967
MS.42          	24.5           	6.963
MS.43          	24.45          	6.935
MS.44          	24.403         	6.937
MS.45          	24.352         	6.977
MS.46          	24.305         	6.949
MS.47          	24.257         	6.945
MS.48          	24.207         	6.951
MS.49          	24.16          	6.991
MS.50          	24.11          	6.969
MS.51          	24.062         	6.953
MS.52          	24.015         	6.945
MS.53          	23.967         	6.947
MS.54          	23.92          	6.999
MS.55          	23.87          	6.933
MS.56          	23.823         	6.989
MS.57          	23.775         	6.945
MS.58          	23.727         	6.967
MS.59          	23.68          	6.947
MS.60          	23.632         	6.941
MS.61          	23.587         	6.951
MS.62          	23.54          	6.985
MS.63          	23.493         	6.921
MS.64          	23.445         	6.925
MS.65          	23.397         	6.965
MS.66          	23.352         	6.925
MS.67          	23.305         	6.943
MS.68          	23.257         	6.929
MS.69          	23.212         	6.985
MS.70          	23.165         	6.939
MS.71          	23.12          	6.973
MS.72          	23.073         	6.949
MS.73          	23.028         	6.963
MS.74          	22.98          	6.917
MS.75          	22.935         	6.939
MS.76          	22.89          	6.925
MS.77          	22.842         	6.937
MS.78          	22.797         	6.923
MS.79          	22.752         	6.927
MS.80          	22.707         	6.975
MS.81          	22.663         	6.939
MS.82          	22.618         	6.949
MS.83          	22.57          	6.923
MS.84          	22.525         	6.999
MS.85          	22.48          	6.937
MS.86          	22.435         	6.947
MS.87          	22.392         	6.941
MS.88          	22.347         	6.975
MS.89          	22.302         	6.951
MS.90          	22.257         	6.939
MS.91          	22.212         	6.933
MS.92          	22.167         	6.949
MS.93          	22.125         	6.913
MS.94          	22.08          	6.947
MS.95          	22.035         	6.905
MS.96          	21.993         	6.909
MS.97          	21.948         	6.921
MS.98          	21.905         	6.961
MS.99          	21.86          	6.943
MS.100         	21.817         	6.925
MS.101         	21.772         	6.945
MS.102         	21.73          	6.937
MS.103         	21.685         	6.937
MS.104         	21.642         	6.911
MS.105         	21.6           	6.957
MS.106         	21.557         	6.945
MS.107         	21.512         	6.919
MS.108         	21.47          	6.909
MS.109         	21.427         	6.943
MS.110         	21.385         	6.919
MS.111         	21.342         	6.931
MS.112         	21.3           	6.917
MS.113         	21.257         	6.913
MS.114         	21.215         	6.939
MS.115         	21.172         	6.935
MS.116         	21.13          	6.915
MS.117         	21.087         	6.931
MS.118         	21.045         	6.919
MS.119         	21.002         	6.907
MS.120         	20.96          	6.913
MS.121         	20.92          	6.921
MS.122         	20.877         	6.909
MS.123         	20.835         	6.909
MS.124         	20.795         	6.836
MS.125         	20.752         	6.88
MS.126         	20.71          	6.888
MS.127         	20.67          	6.937
MS.128         	20.627         	6.901
MS.129         	20.587         	6.894
MS.130         	20.545         	6.935
MS.131         	20.505         	6.909
MS.132         	20.465         	6.909
MS.133         	20.422         	6.905
MS.134         	20.382         	6.929
MS.135         	20.342         	6.886
MS.136         	20.3           	6.911
MS.137         	20.26          	6.923
MS.138         	20.22          	6.892
MS.139         	20.18          	6.939
MS.140         	20.14          	6.927
MS.141         	20.1           	6.961
MS.142         	20.06          	6.888
MS.143         	20.02          	6.915
MS.144         	19.98          	6.915
MS.145         	19.94          	6.915
MS.146         	19.9           	6.898
MS.147         	19.86          	6.913
MS.148         	19.82          	6.882
MS.149         	19.78          	6.884
MS.150         	19.74          	6.874
MS.151         	19.7           	6.925
MS.152         	19.663         	6.931
MS.153         	19.622         	6.937
MS.154         	19.583         	6.86
MS.155         	19.545         	6.921
MS.156         	19.505         	6.925
MS.157         	19.465         	6.909
MS.158         	19.427         	6.921
MS.159         	19.387         	6.927
MS.160         	19.35          	6.909
MS.161         	19.31          	6.923
MS.162         	19.272         	6.977
MS.163         	19.235         	6.901
MS.164         	19.195         	6.931
MS.165         	19.157         	6.919
MS.166         	19.12          	6.935
MS.167         	19.08          	6.872
MS.168         	19.042         	6.933
MS.169         	19.005         	6.896
MS.170         	18.967         	6.921
MS.171         	18.927         	6.953
MS.172         	18.89          	6.909
MS.173         	18.852         	6.915
MS.174         	18.815         	6.933
MS.175         	18.778         	6.888
MS.176         	18.74          	6.931
MS.177         	18.702         	6.896
MS.178         	18.665         	6.945
MS.179         	18.628         	6.925
MS.180         	18.59          	6.907
MS.181         	18.555         	6.896
MS.182         	18.517         	6.896
MS.183         	18.48          	6.923
MS.184         	18.442         	6.878
MS.185         	18.405         	6.903
MS.186         	18.37          	6.929
MS.187         	18.333         	6.919
MS.188         	18.295         	6.913
MS.189         	18.26          	6.892
MS.190         	18.222         	6.919
MS.191         	18.188         	6.913
MS.192         	18.15          	6.907
MS.193         	18.115         	6.89
MS.194         	18.077         	6.903
MS.195         	18.042         	6.919
MS.196         	18.005         	6.921
MS.197         	17.97          	6.892
MS.198         	17.932         	6.88
MS.199         	17.897         	6.921
MS.200         	17.862         	6.903
MS.201         	17.827         	6.896
MS.202         	17.79          	6.925
MS.203         	17.755         	6.905
MS.204         	17.72          	6.898
MS.205         	17.685         	6.901
MS.206         	17.65          	6.878
MS.207         	17.612         	6.872
MS.208         	17.577         	6.905
MS.209         	17.542         	6.876
MS.210         	17.507         	6.764
MS.211         	17.472         	6.878
MS.212         	17.438         	6.925
MS.213         	17.403         	6.876
MS.214         	17.37          	6.884
MS.215         	17.335         	6.907
MS.216         	17.3           	6.888
MS.217         	17.265         	6.929
MS.218         	17.23          	6.826
MS.219         	17.195         	6.892
MS.220         	17.163         	6.921
MS.221         	17.128         	6.898
MS.222         	17.092         	6.886
MS.223         	17.06          	6.892
MS.224         	17.025         	6.872
MS.225         	16.99          	6.907
MS.226         	16.958         	6.872
MS.227         	16.922         	6.896
MS.228         	16.89          	6.882
MS.229         	16.855         	6.888
MS.230         	16.823         	6.896
MS.231         	16.788         	6.866
MS.232         	16.755         	6.89
MS.233         	16.72          	6.888
MS.234         	16.688         	6.919
MS.235         	16.655         	6.864
MS.236         	16.62          	6.862
MS.237         	16.587         	6.882
MS.238         	16.555         	6.884
MS.239         	16.522         	6.876
MS.240         	16.487         	6.901
MS.241         	16.455         	6.844
MS.242         	16.422         	6.892
MS.243         	16.39          	6.894
MS.244         	16.358         	6.848
MS.245         	16.325         	6.894
MS.246         	16.292         	6.854
MS.247         	16.26          	6.876
MS.248         	16.227         	6.905
MS.249         	16.195         	6.886
MS.250         	16.163         	6.905
MS.251         	16.13          	6.894
MS.252         	16.097         	6.919
MS.253         	16.065         	6.894
MS.254         	16.032         	6.896
MS.255         	16.003         	6.903
MS.256         	15.97          	6.852
MS.257         	15.938         	6.882
MS.258         	15.905         	6.838
MS.259         	15.875         	6.86
MS.260         	15.842         	6.84
MS.261         	15.81          	6.84
MS.262         	15.78          	6.864
MS.263         	15.747         	6.905
MS.264         	15.715         	6.868
MS.265         	15.685         	6.872
MS.266         	15.652         	6.868
MS.267         	15.622         	6.858
MS.268         	15.59          	6.84
MS.269         	15.56          	6.864
MS.270         	15.527         	6.864
MS.271         	15.497         	6.874
MS.272         	15.467         	6.898
MS.273         	15.435         	6.868
MS.274         	15.405         	6.898
MS.275         	15.375         	6.85
MS.276         	15.342         	6.844
MS.277         	15.312         	6.854
MS.278         	15.282         	6.808
MS.279         	15.252         	6.85
MS.280         	15.22          	6.874
MS.281         	15.19          	6.852
MS.282         	15.16          	6.85
MS.283         	15.13          	6.842
MS.284         	15.1           	6.848
MS.285         	15.07          	6.852
MS.286         	15.04          	6.848
MS.287         	15.01          	6.866
MS.288         	14.98          	6.84
MS.289         	14.95          	6.838
MS.290         	14.92          	6.84
MS.291         	14.89          	6.828
MS.292         	14.86          	6.816
MS.293         	14.83          	6.838
MS.294         	14.8           	6.848
MS.295         	14.77          	6.832
MS.296         	14.742         	6.862
MS.297         	14.712         	6.82
MS.298         	14.682         	6.822
MS.299         	14.652         	6.816
MS.300         	14.625         	6.792
MS.301         	14.595         	6.826
MS.302         	14.565         	6.82
MS.303         	14.537         	6.832
MS.304         	14.507         	6.818
MS.305         	14.477         	6.804
MS.306         	14.45          	6.854
MS.307         	14.42          	6.842
MS.308         	14.392         	6.826
MS.309         	14.362         	6.798
MS.310         	14.335         	6.834
MS.311         	14.305         	6.794
MS.312         	14.278         	6.788
MS.313         	14.25          	6.838
MS.314         	14.22          	6.786
MS.315         	14.193         	6.886
MS.316         	14.162         	6.762
MS.317         	14.135         	6.812
MS.318         	14.108         	6.794
MS.319         	14.08          	6.81
MS.320         	14.05          	6.824
MS.321         	14.023         	6.8
MS.322         	13.995         	6.77
MS.323         	13.967         	6.822
MS.324         	13.94          	6.786
MS.325         	13.91          	6.784
MS.326         	13.882         	6.784
MS.327         	13.855         	6.834
MS.328         	13.827         	6.798
MS.329         	13.8           	6.782
MS.330         	13.773         	6.804
MS.331         	13.745         	6.792
MS.332         	13.717         	6.772
MS.333         	13.69          	6.818
MS.334         	13.662         	6.784
MS.335         	13.635         	6.794
MS.336         	13.608         	6.818
MS.337         	13.58          	6.814
MS.338         	13.555         	6.804
MS.339         	13.528         	6.796
MS.340         	13.5           	6.792
MS.341         	13.472         	6.77
MS.342         	13.445         	6.812
MS.343         	13.42          	6.778
MS.344         	13.392         	6.741
MS.345         	13.365         	6.755
MS.346         	13.34          	6.832
MS.347         	13.312         	6.749
MS.348         	13.285         	6.804
MS.349         	13.26          	6.812
MS.350         	13.233         	6.77
MS.351         	13.205         	6.784
MS.352         	13.18          	6.826
MS.353         	13.153         	6.749
MS.354         	13.127         	6.808
MS.355         	13.1           	6.848
MS.356         	13.075         	6.77
MS.357         	13.047         	6.812
MS.358         	13.023         	6.788
MS.359         	12.997         	6.784
MS.360         	12.97          	6.824
MS.361         	12.945         	6.786
MS.362         	12.917         	6.747
MS.363         	12.892         	6.8
MS.364         	12.867         	6.828
MS.365         	12.842         	6.749
MS.366         	12.815         	6.764
MS.367         	12.79          	6.768
MS.368         	12.765         	6.731
MS.369         	12.74          	6.743
MS.370         	12.712         	6.768
MS.371         	12.688         	6.786
MS.372         	12.662         	6.687
MS.373         	12.637         	6.778
MS.374         	12.613         	6.695
MS.375         	12.587         	6.681
MS.376         	12.562         	6.786
MS.377         	12.537         	6.691
MS.378         	12.512         	6.717
MS.379         	12.488         	6.673
MS.380         	12.462         	6.715
MS.381         	12.438         	6.659
MS.382         	12.412         	6.699
MS.383         	12.387         	6.677
MS.384         	12.363         	6.651
MS.385         	12.337         	6.665
MS.386         	12.312         	6.631
MS.387         	12.287         	6.612
MS.388         	12.265         	6.723
MS.389         	12.24          	6.544
MS.390         	12.215         	6.546
MS.391         	12.19          	6.667
MS.392         	12.167         	6.53
MS.393         	12.142         	6.647
MS.394         	12.117         	6.608
MS.395         	12.092         	6.54
MS.396         	12.07          	6.55
MS.397         	12.045         	6.496
MS.398         	12.02          	6.685
MS.399         	11.997         	6.546
MS.400         	11.972         	6.608
MS.401         	11.95          	6.596
MS.402         	11.925         	6.566
MS.403         	11.903         	6.558
MS.404         	11.877         	6.471
MS.405         	11.855         	6.528
MS.406         	11.83          	6.486
MS.407         	11.807         	6.504
MS.408         	11.782         	6.5
MS.409         	11.76          	6.562
MS.410         	11.735         	6.494
MS.411         	11.712         	6.524
MS.412         	11.69          	6.48
MS.413         	11.665         	6.421
MS.414         	11.642         	6.467
MS.415         	11.62          	6.413
MS.416         	11.595         	6.365
MS.417         	11.572         	6.502
MS.418         	11.55          	6.399
MS.419         	11.528         	6.391
MS.420         	11.505         	6.419
MS.421         	11.48          	6.379
MS.422         	11.457         	6.439
MS.423         	11.435         	6.405
MS.424         	11.412         	6.316
MS.425         	11.39          	6.353
MS.426         	11.367         	6.407
MS.427         	11.345         	6.425
MS.428         	11.32          	6.393
MS.429         	11.297         	6.415
MS.430         	11.275         	6.441
MS.431         	11.252         	6.407
MS.432         	11.23          	6.357
MS.433         	11.207         	6.357
MS.434         	11.185         	6.29
MS.435         	11.165         	6.399
MS.436         	11.142         	6.381
MS.437         	11.12          	6.232
MS.438         	11.097         	6.361
MS.439         	11.075         	6.349
MS.440         	11.052         	6.365
MS.441         	11.03          	6.341
MS.442         	11.007         	6.274
MS.443         	10.988         	6.347
MS.444         	10.965         	6.312
MS.445         	10.943         	6.254
MS.446         	10.92          	6.264
MS.447         	10.9           	6.24
MS.448         	10.877         	6.306
MS.449         	10.855         	6.19
MS.450         	10.835         	6.099
MS.451         	10.812         	6.22
MS.452         	10.79          	6.151
MS.453         	10.77          	6.302
MS.454         	10.747         	6.198
MS.455         	10.725         	6.157
MS.456         	10.705         	6.149
MS.457         	10.682         	6.167
MS.458         	10.662         	6.216
MS.459         	10.64          	6.296
MS.460         	10.62          	6.095
MS.461         	10.597         	6.095
MS.462         	10.577         	6.115
MS.463         	10.555         	6.111
MS.464         	10.535         	6.089
MS.465         	10.512         	6.083
MS.466         	10.492         	6.012
MS.467         	10.472         	6.075
MS.468         	10.45          	6.04
MS.469         	10.43          	5.994
MS.470         	10.41          	6.03
MS.471         	10.387         	6.036
MS.472         	10.367         	6.121
MS.473         	10.347         	5.964
MS.474         	10.325         	5.974
MS.475         	10.305         	5.942
MS.476         	10.285         	6.028
MS.477         	10.265         	5.924
MS.478         	10.245         	5.926
MS.479         	10.222         	5.916
MS.480         	10.202         	5.879
MS.481         	10.182         	5.97
MS.482         	10.162         	5.914
MS.483         	10.142         	5.823
MS.484         	10.122         	5.885
MS.485         	10.102         	5.775
MS.486         	10.08          	5.771
MS.487         	10.06          	5.716
MS.488         	10.04          	5.71
MS.489         	10.02          	5.845
MS.490         	10             	5.849
MS.491         	9.98           	5.803
MS.492         	9.96           	5.589
MS.493         	9.94           	5.702
MS.494         	9.92           	5.765
MS.495         	9.903          	5.773
MS.496         	9.882          	5.646
MS.497         	9.863          	5.615
MS.498         	9.842          	5.654
MS.499         	9.823          	5.767
MS.500         	9.802          	5.642
MS.501         	9.782          	5.583
