File:              	C:\Qtrac\Data\Daniel M Sørensen\MScan multicentre study\Data from centres\Odense\Processed data\TKC01109B.QZD
Name:              	DK.ODE.NC.7.2
Protocol:          	MSCAN-R2
Date:              	9/11/20
Start time:        	12:32:52
Age:               	41
Sex:               	F
Temperature:       	32.3
S/R sites:         	ADM
NC/disease:        	NC
Operator:          	TK
Comments:
M-SCAN DATA (8.4-0.6m)
Scanpts: 168, 178, 801, 822
Stim. (mA)     	Amp. (mV)
MS.1           	13.5           	9.712
MS.2           	13.5           	9.718
MS.3           	13.5           	9.751
MS.4           	13.5           	9.722
MS.5           	13.5           	9.736
MS.6           	13.5           	9.71
MS.7           	13.5           	9.738
MS.8           	13.5           	9.708
MS.9           	13.5           	9.714
MS.10          	13.5           	9.7
MS.11          	13.5           	9.704
MS.12          	13.5           	9.716
MS.13          	13.5           	9.712
MS.14          	13.5           	9.73
MS.15          	13.5           	9.706
MS.16          	13.5           	9.688
MS.17          	13.5           	9.712
MS.18          	13.5           	9.724
MS.19          	13.5           	9.74
MS.20          	13.5           	9.712
MS.21          	13.5           	9.694
MS.22          	13.5           	9.714
MS.23          	13.5           	9.726
MS.24          	13.445         	9.684
MS.25          	13.42          	9.72
MS.26          	13.392         	9.702
MS.27          	13.365         	9.74
MS.28          	13.34          	9.745
MS.29          	13.312         	9.742
MS.30          	13.285         	9.698
MS.31          	13.26          	9.753
MS.32          	13.233         	9.712
MS.33          	13.205         	9.704
MS.34          	13.18          	9.738
MS.35          	13.153         	9.819
MS.36          	13.127         	9.835
MS.37          	13.1           	9.827
MS.38          	13.075         	9.875
MS.39          	13.047         	9.777
MS.40          	13.023         	9.833
MS.41          	12.997         	9.863
MS.42          	12.97          	9.881
MS.43          	12.945         	9.894
MS.44          	12.92          	9.791
MS.45          	12.892         	9.831
MS.46          	12.867         	9.787
MS.47          	12.842         	9.825
MS.48          	12.815         	9.817
MS.49          	12.79          	9.827
MS.50          	12.765         	9.797
MS.51          	12.74          	9.831
MS.52          	12.715         	9.853
MS.53          	12.688         	9.833
MS.54          	12.662         	9.833
MS.55          	12.637         	9.843
MS.56          	12.613         	9.801
MS.57          	12.587         	9.861
MS.58          	12.562         	9.849
MS.59          	12.537         	9.807
MS.60          	12.512         	9.835
MS.61          	12.488         	9.839
MS.62          	12.462         	9.863
MS.63          	12.438         	9.839
MS.64          	12.412         	9.888
MS.65          	12.387         	9.857
MS.66          	12.363         	9.859
MS.67          	12.337         	9.813
MS.68          	12.312         	9.851
MS.69          	12.29          	9.849
MS.70          	12.265         	9.912
MS.71          	12.24          	9.906
MS.72          	12.215         	9.89
MS.73          	12.19          	9.904
MS.74          	12.167         	9.92
MS.75          	12.142         	9.91
MS.76          	12.117         	9.896
MS.77          	12.092         	9.892
MS.78          	12.07          	9.851
MS.79          	12.045         	9.861
MS.80          	12.023         	9.948
MS.81          	11.997         	9.9
MS.82          	11.972         	9.871
MS.83          	11.95          	9.91
MS.84          	11.925         	9.914
MS.85          	11.903         	9.918
MS.86          	11.877         	9.908
MS.87          	11.855         	9.912
MS.88          	11.83          	9.908
MS.89          	11.807         	9.89
MS.90          	11.782         	9.946
MS.91          	11.76          	9.91
MS.92          	11.738         	9.906
MS.93          	11.712         	9.914
MS.94          	11.69          	9.934
MS.95          	11.665         	9.948
MS.96          	11.642         	9.867
MS.97          	11.62          	9.9
MS.98          	11.597         	9.892
MS.99          	11.572         	9.883
MS.100         	11.55          	9.916
MS.101         	11.528         	9.942
MS.102         	11.505         	9.946
MS.103         	11.48          	9.94
MS.104         	11.457         	9.9
MS.105         	11.435         	9.974
MS.106         	11.412         	9.892
MS.107         	11.39          	9.91
MS.108         	11.367         	9.98
MS.109         	11.345         	9.881
MS.110         	11.322         	9.883
MS.111         	11.297         	9.976
MS.112         	11.275         	9.944
MS.113         	11.252         	9.912
MS.114         	11.23          	9.894
MS.115         	11.207         	9.865
MS.116         	11.188         	9.843
MS.117         	11.165         	9.89
MS.118         	11.142         	9.869
MS.119         	11.12          	9.871
MS.120         	11.097         	9.888
MS.121         	11.075         	9.843
MS.122         	11.052         	9.847
MS.123         	11.03          	9.873
MS.124         	11.007         	9.898
MS.125         	10.988         	9.918
MS.126         	10.965         	9.922
MS.127         	10.943         	9.916
MS.128         	10.92          	9.873
MS.129         	10.9           	9.89
MS.130         	10.877         	9.888
MS.131         	10.855         	9.91
MS.132         	10.835         	9.902
MS.133         	10.812         	9.938
MS.134         	10.79          	9.892
MS.135         	10.77          	9.883
MS.136         	10.747         	9.879
MS.137         	10.725         	9.879
MS.138         	10.705         	9.916
MS.139         	10.682         	9.894
MS.140         	10.662         	9.914
MS.141         	10.64          	9.926
MS.142         	10.62          	9.91
MS.143         	10.597         	9.924
MS.144         	10.577         	9.904
MS.145         	10.555         	9.948
MS.146         	10.535         	9.932
MS.147         	10.515         	9.93
MS.148         	10.492         	9.894
MS.149         	10.472         	9.926
MS.150         	10.45          	9.875
MS.151         	10.43          	9.944
MS.152         	10.41          	9.892
MS.153         	10.387         	9.877
MS.154         	10.367         	9.894
MS.155         	10.347         	9.904
MS.156         	10.325         	9.859
MS.157         	10.305         	9.888
MS.158         	10.285         	9.912
MS.159         	10.265         	9.898
MS.160         	10.245         	9.962
MS.161         	10.222         	9.912
MS.162         	10.202         	9.942
MS.163         	10.182         	9.922
MS.164         	10.162         	9.906
MS.165         	10.142         	9.938
MS.166         	10.122         	9.908
MS.167         	10.102         	9.98
MS.168         	10.082         	9.904
MS.169         	10.06          	9.976
MS.170         	10.04          	9.89
MS.171         	10.02          	9.96
MS.172         	10             	9.972
MS.173         	9.98           	9.892
MS.174         	9.96           	9.877
MS.175         	9.94           	9.902
MS.176         	9.922          	9.902
MS.177         	9.903          	9.942
MS.178         	9.882          	9.881
MS.179         	9.863          	9.934
MS.180         	9.842          	9.95
MS.181         	9.823          	9.898
MS.182         	9.802          	9.942
MS.183         	9.782          	9.936
MS.184         	9.765          	9.918
MS.185         	9.745          	9.912
MS.186         	9.725          	9.863
MS.187         	9.705          	9.948
MS.188         	9.685          	9.924
MS.189         	9.667          	9.954
MS.190         	9.648          	9.883
MS.191         	9.627          	9.91
MS.192         	9.61           	9.92
MS.193         	9.59           	9.918
MS.194         	9.57           	9.823
MS.195         	9.552          	9.859
MS.196         	9.532          	9.89
MS.197         	9.512          	9.906
MS.198         	9.495          	9.888
MS.199         	9.475          	9.894
MS.200         	9.457          	9.857
MS.201         	9.438          	9.916
MS.202         	9.417          	9.904
MS.203         	9.4            	9.803
MS.204         	9.38           	9.853
MS.205         	9.363          	9.74
MS.206         	9.342          	9.745
MS.207         	9.325          	9.843
MS.208         	9.305          	9.755
MS.209         	9.287          	9.799
MS.210         	9.27           	9.833
MS.211         	9.25           	9.771
MS.212         	9.233          	9.716
MS.213         	9.212          	9.749
MS.214         	9.195          	9.696
MS.215         	9.177          	9.678
MS.216         	9.158          	9.664
MS.217         	9.14           	9.686
MS.218         	9.122          	9.71
MS.219         	9.102          	9.688
MS.220         	9.085          	9.783
MS.221         	9.068          	9.716
MS.222         	9.05           	9.722
MS.223         	9.03           	9.688
MS.224         	9.012          	9.642
MS.225         	8.995          	9.718
MS.226         	8.977          	9.634
MS.227         	8.96           	9.684
MS.228         	8.943          	9.521
MS.229         	8.922          	9.525
MS.230         	8.905          	9.525
MS.231         	8.887          	9.519
MS.232         	8.87           	9.521
MS.233         	8.852          	9.513
MS.234         	8.835          	9.557
MS.235         	8.818          	9.527
MS.236         	8.8            	9.567
MS.237         	8.783          	9.561
MS.238         	8.765          	9.461
MS.239         	8.747          	9.519
MS.240         	8.73           	9.539
MS.241         	8.712          	9.551
MS.242         	8.695          	9.537
MS.243         	8.677          	9.515
MS.244         	8.66           	9.428
MS.245         	8.642          	9.513
MS.246         	8.625          	9.396
MS.247         	8.608          	9.535
MS.248         	8.59           	9.507
MS.249         	8.573          	9.442
MS.250         	8.557          	9.434
MS.251         	8.54           	9.45
MS.252         	8.523          	9.458
MS.253         	8.505          	9.487
MS.254         	8.488          	9.416
MS.255         	8.472          	9.499
MS.256         	8.455          	9.428
MS.257         	8.438          	9.477
MS.258         	8.42           	9.513
MS.259         	8.405          	9.438
MS.260         	8.387          	9.43
MS.261         	8.37           	9.481
MS.262         	8.352          	9.463
MS.263         	8.337          	9.467
MS.264         	8.32           	9.41
MS.265         	8.302          	9.438
MS.266         	8.287          	9.458
MS.267         	8.27           	9.432
MS.268         	8.255          	9.402
MS.269         	8.238          	9.398
MS.270         	8.22           	9.388
MS.271         	8.205          	9.444
MS.272         	8.188          	9.406
MS.273         	8.172          	9.388
MS.274         	8.155          	9.34
MS.275         	8.14           	9.384
MS.276         	8.122          	9.342
MS.277         	8.108          	9.4
MS.278         	8.09           	9.503
MS.279         	8.075          	9.465
MS.280         	8.057          	9.481
MS.281         	8.042          	9.489
MS.282         	8.025          	9.481
MS.283         	8.01           	9.535
MS.284         	7.995          	9.332
MS.285         	7.977          	9.45
MS.286         	7.962          	9.356
MS.287         	7.945          	9.392
MS.288         	7.93           	9.458
MS.289         	7.915          	9.442
MS.290         	7.898          	9.114
MS.291         	7.882          	9.422
MS.292         	7.867          	9.275
MS.293         	7.852          	9.384
MS.294         	7.835          	9.148
MS.295         	7.82           	9.348
MS.296         	7.805          	9.38
MS.297         	7.79           	9.261
MS.298         	7.773          	9.189
MS.299         	7.757          	9.245
MS.300         	7.742          	9.098
MS.301         	7.727          	9.011
MS.302         	7.712          	9.126
MS.303         	7.695          	9.108
MS.304         	7.68           	9.273
MS.305         	7.665          	9.108
MS.306         	7.65           	9.084
MS.307         	7.635          	9.042
MS.308         	7.62           	8.995
MS.309         	7.605          	9.038
MS.310         	7.59           	8.888
MS.311         	7.572          	9.009
MS.312         	7.557          	8.917
MS.313         	7.543          	9.029
MS.314         	7.527          	8.943
MS.315         	7.512          	8.866
MS.316         	7.497          	8.895
MS.317         	7.482          	9.05
MS.318         	7.467          	8.826
MS.319         	7.452          	8.953
MS.320         	7.438          	8.754
MS.321         	7.425          	8.778
MS.322         	7.41           	8.818
MS.323         	7.395          	8.959
MS.324         	7.38           	8.923
MS.325         	7.365          	8.975
MS.326         	7.35           	8.905
MS.327         	7.335          	8.794
MS.328         	7.32           	8.824
MS.329         	7.305          	8.75
MS.330         	7.293          	8.739
MS.331         	7.277          	8.665
MS.332         	7.262          	8.655
MS.333         	7.247          	8.647
MS.334         	7.233          	8.631
MS.335         	7.22           	8.572
MS.336         	7.205          	8.542
MS.337         	7.19           	8.48
MS.338         	7.175          	8.53
MS.339         	7.162          	8.542
MS.340         	7.148          	8.492
MS.341         	7.132          	8.427
MS.342         	7.117          	8.449
MS.343         	7.105          	8.425
MS.344         	7.09           	8.516
MS.345         	7.075          	8.268
MS.346         	7.062          	8.329
MS.347         	7.047          	8.343
MS.348         	7.032          	8.304
MS.349         	7.02           	8.282
MS.350         	7.005          	8.177
MS.351         	6.992          	8.298
MS.352         	6.977          	8.117
MS.353         	6.962          	8.141
MS.354         	6.95           	8.091
MS.355         	6.935          	7.974
MS.356         	6.922          	8.018
MS.357         	6.907          	7.964
MS.358         	6.895          	7.825
MS.359         	6.88           	7.853
MS.360         	6.867          	7.761
MS.361         	6.852          	7.873
MS.362         	6.84           	7.962
MS.363         	6.825          	7.704
MS.364         	6.812          	7.676
MS.365         	6.797          	7.652
MS.366         	6.785          	7.716
MS.367         	6.773          	7.577
MS.368         	6.757          	7.551
MS.369         	6.745          	7.646
MS.370         	6.73           	7.346
MS.371         	6.717          	7.426
MS.372         	6.705          	7.533
MS.373         	6.69           	7.434
MS.374         	6.677          	7.231
MS.375         	6.665          	7.185
MS.376         	6.65           	7.044
MS.377         	6.637          	7.16
MS.378         	6.625          	7.124
MS.379         	6.61           	6.909
MS.380         	6.597          	6.991
MS.381         	6.585          	6.878
MS.382         	6.57           	7.098
MS.383         	6.557          	6.814
MS.384         	6.545          	6.715
MS.385         	6.532          	6.729
MS.386         	6.52           	6.685
MS.387         	6.505          	6.61
MS.388         	6.492          	6.558
MS.389         	6.48           	6.721
MS.390         	6.467          	6.451
MS.391         	6.455          	6.218
MS.392         	6.44           	6.381
MS.393         	6.427          	6.204
MS.394         	6.415          	6.085
MS.395         	6.402          	6.147
MS.396         	6.39           	6.085
MS.397         	6.378          	5.984
MS.398         	6.365          	6.012
MS.399         	6.352          	5.887
MS.400         	6.34           	5.754
MS.401         	6.325          	5.74
MS.402         	6.312          	5.893
MS.403         	6.3            	5.672
MS.404         	6.287          	5.676
MS.405         	6.275          	5.646
MS.406         	6.262          	5.732
MS.407         	6.25           	5.634
MS.408         	6.237          	5.636
MS.409         	6.225          	5.517
MS.410         	6.213          	5.525
MS.411         	6.2            	5.452
MS.412         	6.188          	5.261
MS.413         	6.175          	5.454
MS.414         	6.165          	5.43
MS.415         	6.152          	5.311
MS.416         	6.14           	5.082
MS.417         	6.128          	5.239
MS.418         	6.115          	5.039
MS.419         	6.102          	4.981
MS.420         	6.09           	5.09
MS.421         	6.077          	4.731
MS.422         	6.065          	4.772
MS.423         	6.055          	4.685
MS.424         	6.043          	4.669
MS.425         	6.03           	4.433
MS.426         	6.017          	4.534
MS.427         	6.005          	4.61
MS.428         	5.992          	4.413
MS.429         	5.983          	4.345
MS.430         	5.97           	4.361
MS.431         	5.957          	4.447
MS.432         	5.945          	4.109
MS.433         	5.935          	4.3
MS.434         	5.922          	4.294
MS.435         	5.91           	4.117
MS.436         	5.898          	4.014
MS.437         	5.887          	3.93
MS.438         	5.875          	3.968
MS.439         	5.862          	3.895
MS.440         	5.852          	4.034
MS.441         	5.84           	3.646
MS.442         	5.827          	3.712
MS.443         	5.817          	3.859
MS.444         	5.805          	3.722
MS.445         	5.793          	3.589
MS.446         	5.782          	3.615
MS.447         	5.77           	3.442
MS.448         	5.757          	3.309
MS.449         	5.747          	3.426
MS.450         	5.735          	3.406
MS.451         	5.725          	3.219
MS.452         	5.713          	3.229
MS.453         	5.702          	3.019
MS.454         	5.69           	3.092
MS.455         	5.677          	3.033
MS.456         	5.668          	3.047
MS.457         	5.655          	2.822
MS.458         	5.645          	2.971
MS.459         	5.632          	3.116
MS.460         	5.622          	3.035
MS.461         	5.61           	2.643
MS.462         	5.6            	2.622
MS.463         	5.588          	2.731
MS.464         	5.577          	2.463
MS.465         	5.565          	2.498
MS.466         	5.555          	2.357
MS.467         	5.545          	2.542
MS.468         	5.532          	2.187
MS.469         	5.523          	2.256
MS.470         	5.51           	2.25
MS.471         	5.5            	2.161
MS.472         	5.487          	2.079
MS.473         	5.477          	2.095
MS.474         	5.467          	2.04
MS.475         	5.455          	2.01
MS.476         	5.445          	2.197
MS.477         	5.435          	1.893
MS.478         	5.422          	1.835
MS.479         	5.412          	1.922
MS.480         	5.402          	1.863
MS.481         	5.39           	1.77
MS.482         	5.38           	1.766
MS.483         	5.37           	1.7
MS.484         	5.358          	1.591
MS.485         	5.347          	1.708
MS.486         	5.338          	1.688
MS.487         	5.327          	1.698
MS.488         	5.315          	1.577
MS.489         	5.305          	1.563
MS.490         	5.295          	1.569
MS.491         	5.285          	1.662
MS.492         	5.273          	1.565
MS.493         	5.262          	1.448
MS.494         	5.253          	1.478
MS.495         	5.242          	1.408
MS.496         	5.233          	1.511
MS.497         	5.22           	1.426
MS.498         	5.21           	1.456
MS.499         	5.2            	1.41
MS.500         	5.19           	1.376
MS.501         	5.18           	1.285
