File:              	C:\Qtrac\Data\Daniel M Sørensen\MScan multicentre study\Data from centres\Odense\Processed data\TKC01123E.QZD
Name:              	DK.ODE.NC.9.2
Protocol:          	MSCAN-R2
Date:              	23/11/20
Start time:        	11:48:08
Age:               	69
Sex:               	M
Temperature:       	31.8
S/R sites:         	TA
NC/disease:        	NC
Operator:          	TK
Comments:
M-SCAN DATA (8-1m)
Scanpts: 44, 50, 629, 648
Stim. (mA)     	Amp. (mV)
MS.1           	20.5           	5.426
MS.2           	20.5           	5.406
MS.3           	20.5           	5.44
MS.4           	20.5           	5.444
MS.5           	20.5           	5.438
MS.6           	20.5           	5.45
MS.7           	20.5           	5.43
MS.8           	20.5           	5.444
MS.9           	20.5           	5.444
MS.10          	20.5           	5.45
MS.11          	20.5           	5.404
MS.12          	20.5           	5.44
MS.13          	20.5           	5.428
MS.14          	20.5           	5.442
MS.15          	20.5           	5.448
MS.16          	20.5           	5.454
MS.17          	20.5           	5.477
MS.18          	20.5           	5.452
MS.19          	20.5           	5.46
MS.20          	20.5           	5.456
MS.21          	20.5           	5.432
MS.22          	20.5           	5.464
MS.23          	20.5           	5.456
MS.24          	20.417         	5.466
MS.25          	20.377         	5.45
MS.26          	20.337         	5.442
MS.27          	20.295         	5.46
MS.28          	20.255         	5.456
MS.29          	20.215         	5.452
MS.30          	20.175         	5.452
MS.31          	20.135         	5.45
MS.32          	20.095         	5.436
MS.33          	20.055         	5.46
MS.34          	20.015         	5.444
MS.35          	19.975         	5.446
MS.36          	19.935         	5.464
MS.37          	19.895         	5.477
MS.38          	19.855         	5.477
MS.39          	19.815         	5.444
MS.40          	19.775         	5.472
MS.41          	19.735         	5.456
MS.42          	19.695         	5.474
MS.43          	19.657         	5.458
MS.44          	19.618         	5.47
MS.45          	19.577         	5.483
MS.46          	19.54          	5.422
MS.47          	19.5           	5.47
MS.48          	19.46          	5.485
MS.49          	19.422         	5.466
MS.50          	19.382         	5.46
MS.51          	19.345         	5.44
MS.52          	19.305         	5.466
MS.53          	19.267         	5.477
MS.54          	19.23          	5.464
MS.55          	19.19          	5.444
MS.56          	19.153         	5.454
MS.57          	19.115         	5.434
MS.58          	19.075         	5.442
MS.59          	19.038         	5.436
MS.60          	19             	5.456
MS.61          	18.962         	5.44
MS.62          	18.925         	5.438
MS.63          	18.885         	5.44
MS.64          	18.847         	5.448
MS.65          	18.81          	5.454
MS.66          	18.772         	5.472
MS.67          	18.735         	5.448
MS.68          	18.698         	5.458
MS.69          	18.66          	5.434
MS.70          	18.622         	5.444
MS.71          	18.585         	5.474
MS.72          	18.55          	5.452
MS.73          	18.512         	5.414
MS.74          	18.475         	5.444
MS.75          	18.438         	5.464
MS.76          	18.403         	5.446
MS.77          	18.365         	5.416
MS.78          	18.327         	5.428
MS.79          	18.29          	5.446
MS.80          	18.255         	5.446
MS.81          	18.217         	5.466
MS.82          	18.182         	5.406
MS.83          	18.145         	5.426
MS.84          	18.11          	5.434
MS.85          	18.073         	5.442
MS.86          	18.038         	5.436
MS.87          	18             	5.416
MS.88          	17.965         	5.448
MS.89          	17.93          	5.39
MS.90          	17.892         	5.44
MS.91          	17.858         	5.344
MS.92          	17.823         	5.414
MS.93          	17.785         	5.42
MS.94          	17.75          	5.303
MS.95          	17.715         	5.301
MS.96          	17.68          	5.333
MS.97          	17.645         	5.313
MS.98          	17.61          	5.329
MS.99          	17.575         	5.331
MS.100         	17.54          	5.344
MS.101         	17.505         	5.281
MS.102         	17.47          	5.317
MS.103         	17.435         	5.279
MS.104         	17.4           	5.323
MS.105         	17.365         	5.317
MS.106         	17.33          	5.285
MS.107         	17.295         	5.305
MS.108         	17.26          	5.281
MS.109         	17.225         	5.319
MS.110         	17.192         	5.281
MS.111         	17.157         	5.291
MS.112         	17.122         	5.291
MS.113         	17.09          	5.301
MS.114         	17.055         	5.289
MS.115         	17.02          	5.301
MS.116         	16.987         	5.307
MS.117         	16.952         	5.283
MS.118         	16.917         	5.269
MS.119         	16.885         	5.299
MS.120         	16.85          	5.267
MS.121         	16.817         	5.285
MS.122         	16.785         	5.265
MS.123         	16.75          	5.277
MS.124         	16.717         	5.277
MS.125         	16.682         	5.271
MS.126         	16.65          	5.279
MS.127         	16.618         	5.283
MS.128         	16.583         	5.253
MS.129         	16.55          	5.299
MS.130         	16.517         	5.283
MS.131         	16.485         	5.303
MS.132         	16.452         	5.277
MS.133         	16.417         	5.241
MS.134         	16.385         	5.283
MS.135         	16.352         	5.269
MS.136         	16.32          	5.287
MS.137         	16.288         	5.247
MS.138         	16.255         	5.253
MS.139         	16.222         	5.205
MS.140         	16.19          	5.231
MS.141         	16.157         	5.275
MS.142         	16.125         	5.237
MS.143         	16.092         	5.275
MS.144         	16.062         	5.219
MS.145         	16.03          	5.225
MS.146         	15.997         	5.237
MS.147         	15.965         	5.197
MS.148         	15.932         	5.235
MS.149         	15.902         	5.056
MS.150         	15.87          	5.108
MS.151         	15.837         	5.16
MS.152         	15.807         	5.112
MS.153         	15.775         	5.066
MS.154         	15.742         	5.078
MS.155         	15.712         	5.047
MS.156         	15.68          	5.078
MS.157         	15.65          	5.025
MS.158         	15.617         	5.066
MS.159         	15.587         	4.957
MS.160         	15.555         	4.983
MS.161         	15.525         	5.029
MS.162         	15.492         	4.963
MS.163         	15.462         	5.023
MS.164         	15.432         	5.011
MS.165         	15.4           	5.068
MS.166         	15.37          	5.049
MS.167         	15.34          	4.979
MS.168         	15.307         	5.039
MS.169         	15.277         	5.045
MS.170         	15.247         	4.971
MS.171         	15.217         	5.049
MS.172         	15.188         	4.963
MS.173         	15.157         	4.979
MS.174         	15.125         	4.959
MS.175         	15.095         	4.961
MS.176         	15.065         	4.961
MS.177         	15.035         	4.945
MS.178         	15.005         	4.957
MS.179         	14.975         	4.967
MS.180         	14.945         	4.989
MS.181         	14.915         	4.935
MS.182         	14.885         	4.967
MS.183         	14.858         	4.941
MS.184         	14.827         	4.921
MS.185         	14.797         	4.959
MS.186         	14.767         	4.941
MS.187         	14.737         	4.929
MS.188         	14.707         	4.965
MS.189         	14.68          	4.911
MS.190         	14.65          	4.917
MS.191         	14.62          	4.967
MS.192         	14.59          	4.947
MS.193         	14.562         	4.898
MS.194         	14.532         	4.937
MS.195         	14.505         	4.945
MS.196         	14.475         	4.917
MS.197         	14.445         	4.896
MS.198         	14.417         	4.921
MS.199         	14.387         	4.929
MS.200         	14.36          	4.89
MS.201         	14.33          	4.85
MS.202         	14.302         	4.915
MS.203         	14.273         	4.874
MS.204         	14.245         	4.878
MS.205         	14.217         	4.83
MS.206         	14.188         	4.85
MS.207         	14.16          	4.816
MS.208         	14.132         	4.854
MS.209         	14.102         	4.824
MS.210         	14.075         	4.828
MS.211         	14.047         	4.84
MS.212         	14.02          	4.782
MS.213         	13.99          	4.796
MS.214         	13.962         	4.812
MS.215         	13.935         	4.755
MS.216         	13.907         	4.792
MS.217         	13.88          	4.737
MS.218         	13.852         	4.786
MS.219         	13.825         	4.699
MS.220         	13.797         	4.723
MS.221         	13.77          	4.739
MS.222         	13.742         	4.588
MS.223         	13.715         	4.665
MS.224         	13.688         	4.633
MS.225         	13.66          	4.614
MS.226         	13.632         	4.701
MS.227         	13.605         	4.492
MS.228         	13.577         	4.469
MS.229         	13.55          	4.453
MS.230         	13.523         	4.741
MS.231         	13.497         	4.477
MS.232         	13.47          	4.596
MS.233         	13.443         	4.455
MS.234         	13.415         	4.433
MS.235         	13.39          	4.403
MS.236         	13.362         	4.411
MS.237         	13.335         	4.336
MS.238         	13.307         	4.387
MS.239         	13.282         	4.522
MS.240         	13.255         	4.526
MS.241         	13.23          	4.373
MS.242         	13.202         	4.349
MS.243         	13.177         	4.316
MS.244         	13.15          	4.449
MS.245         	13.122         	4.359
MS.246         	13.097         	4.435
MS.247         	13.072         	4.304
MS.248         	13.045         	4.353
MS.249         	13.02          	4.286
MS.250         	12.992         	4.322
MS.251         	12.967         	4.29
MS.252         	12.943         	4.258
MS.253         	12.915         	4.27
MS.254         	12.89          	4.252
MS.255         	12.865         	4.264
MS.256         	12.837         	4.256
MS.257         	12.812         	4.224
MS.258         	12.787         	4.246
MS.259         	12.762         	4.246
MS.260         	12.735         	4.204
MS.261         	12.71          	4.208
MS.262         	12.685         	4.204
MS.263         	12.66          	4.208
MS.264         	12.635         	4.175
MS.265         	12.61          	4.147
MS.266         	12.585         	4.179
MS.267         	12.56          	4.143
MS.268         	12.532         	4.149
MS.269         	12.507         	4.135
MS.270         	12.483         	4.109
MS.271         	12.457         	4.141
MS.272         	12.435         	4.155
MS.273         	12.41          	4.073
MS.274         	12.385         	4.097
MS.275         	12.36          	4.03
MS.276         	12.335         	4.063
MS.277         	12.31          	4.044
MS.278         	12.285         	4.008
MS.279         	12.26          	4.028
MS.280         	12.238         	4.018
MS.281         	12.212         	3.92
MS.282         	12.188         	3.978
MS.283         	12.162         	3.905
MS.284         	12.14          	3.865
MS.285         	12.115         	3.835
MS.286         	12.09          	3.893
MS.287         	12.068         	3.807
MS.288         	12.042         	3.881
MS.289         	12.017         	3.899
MS.290         	11.995         	3.789
MS.291         	11.97          	3.793
MS.292         	11.947         	3.76
MS.293         	11.922         	3.734
MS.294         	11.898         	3.736
MS.295         	11.875         	3.73
MS.296         	11.85          	3.72
MS.297         	11.827         	3.674
MS.298         	11.805         	3.662
MS.299         	11.78          	3.575
MS.300         	11.757         	3.636
MS.301         	11.733         	3.72
MS.302         	11.71          	3.553
MS.303         	11.688         	3.623
MS.304         	11.662         	3.607
MS.305         	11.64          	3.634
MS.306         	11.617         	3.561
MS.307         	11.592         	3.491
MS.308         	11.57          	3.539
MS.309         	11.547         	3.549
MS.310         	11.525         	3.507
MS.311         	11.5           	3.484
MS.312         	11.477         	3.474
MS.313         	11.455         	3.404
MS.314         	11.432         	3.464
MS.315         	11.41          	3.362
MS.316         	11.387         	3.561
MS.317         	11.363         	3.487
MS.318         	11.34          	3.452
MS.319         	11.318         	3.422
MS.320         	11.295         	3.364
MS.321         	11.273         	3.327
MS.322         	11.25          	3.309
MS.323         	11.227         	3.323
MS.324         	11.205         	3.358
MS.325         	11.182         	3.374
MS.326         	11.16          	3.309
MS.327         	11.137         	3.267
MS.328         	11.117         	3.273
MS.329         	11.095         	3.301
MS.330         	11.073         	3.227
MS.331         	11.05          	3.134
MS.332         	11.028         	3.168
MS.333         	11.005         	3.168
MS.334         	10.985         	3.198
MS.335         	10.962         	3.231
MS.336         	10.94          	3.098
MS.337         	10.917         	3.106
MS.338         	10.898         	3.072
MS.339         	10.875         	3.019
MS.340         	10.852         	3.102
MS.341         	10.83          	3.033
MS.342         	10.81          	3.06
MS.343         	10.787         	2.979
MS.344         	10.767         	3.013
MS.345         	10.745         	3.001
MS.346         	10.722         	2.967
MS.347         	10.702         	3.021
MS.348         	10.68          	2.943
MS.349         	10.66          	2.959
MS.350         	10.637         	2.912
MS.351         	10.617         	2.953
MS.352         	10.595         	2.908
MS.353         	10.575         	2.864
MS.354         	10.552         	2.874
MS.355         	10.532         	2.902
MS.356         	10.51          	2.86
MS.357         	10.49          	2.848
MS.358         	10.47          	2.822
MS.359         	10.448         	2.866
MS.360         	10.427         	2.818
MS.361         	10.407         	2.773
MS.362         	10.385         	2.778
MS.363         	10.365         	2.753
MS.364         	10.345         	2.761
MS.365         	10.323         	2.727
MS.366         	10.302         	2.713
MS.367         	10.282         	2.681
MS.368         	10.262         	2.633
MS.369         	10.24          	2.639
MS.370         	10.22          	2.633
MS.371         	10.2           	2.697
MS.372         	10.18          	2.689
MS.373         	10.16          	2.6
MS.374         	10.14          	2.649
MS.375         	10.12          	2.562
MS.376         	10.1           	2.57
MS.377         	10.077         	2.568
MS.378         	10.057         	2.536
MS.379         	10.037         	2.516
MS.380         	10.017         	2.516
MS.381         	9.997          	2.516
MS.382         	9.977          	2.453
MS.383         	9.957          	2.421
MS.384         	9.938          	2.463
MS.385         	9.917          	2.457
MS.386         	9.9            	2.429
MS.387         	9.88           	2.451
MS.388         	9.86           	2.381
MS.389         	9.84           	2.359
MS.390         	9.82           	2.342
MS.391         	9.8            	2.397
MS.392         	9.78           	2.298
MS.393         	9.762          	2.292
MS.394         	9.742          	2.276
MS.395         	9.722          	2.232
MS.396         	9.702          	2.248
MS.397         	9.682          	2.177
MS.398         	9.665          	2.218
MS.399         	9.645          	2.153
MS.400         	9.625          	2.147
MS.401         	9.608          	2.089
MS.402         	9.587          	2.081
MS.403         	9.568          	1.99
MS.404         	9.55           	2.081
MS.405         	9.53           	2.069
MS.406         	9.51           	2.044
MS.407         	9.492          	2.06
MS.408         	9.472          	1.988
MS.409         	9.455          	1.986
MS.410         	9.435          	1.972
MS.411         	9.415          	1.956
MS.412         	9.398          	1.932
MS.413         	9.377          	1.94
MS.414         	9.36           	1.893
MS.415         	9.34           	1.801
MS.416         	9.323          	1.841
MS.417         	9.305          	1.871
MS.418         	9.285          	1.841
MS.419         	9.267          	1.746
MS.420         	9.247          	1.799
MS.421         	9.23           	1.744
MS.422         	9.21           	1.754
MS.423         	9.193          	1.726
MS.424         	9.175          	1.712
MS.425         	9.155          	1.69
MS.426         	9.137          	1.638
MS.427         	9.12           	1.674
MS.428         	9.102          	1.76
MS.429         	9.082          	1.541
MS.430         	9.065          	1.577
MS.431         	9.047          	1.607
MS.432         	9.03           	1.569
MS.433         	9.01           	1.531
MS.434         	8.992          	1.557
MS.435         	8.975          	1.535
MS.436         	8.957          	1.503
MS.437         	8.94           	1.404
MS.438         	8.92           	1.503
MS.439         	8.903          	1.42
MS.440         	8.885          	1.432
MS.441         	8.867          	1.347
MS.442         	8.85           	1.466
MS.443         	8.832          	1.422
MS.444         	8.815          	1.301
MS.445         	8.797          	1.358
MS.446         	8.78           	1.313
MS.447         	8.762          	1.297
MS.448         	8.745          	1.275
MS.449         	8.727          	1.182
MS.450         	8.71           	1.255
MS.451         	8.693          	1.213
MS.452         	8.675          	1.227
MS.453         	8.658          	1.219
MS.454         	8.64           	1.301
MS.455         	8.622          	1.2
MS.456         	8.605          	1.166
MS.457         	8.587          	1.188
MS.458         	8.573          	1.138
MS.459         	8.555          	1.106
MS.460         	8.537          	1.13
MS.461         	8.52           	1.1
MS.462         	8.502          	1.043
MS.463         	8.485          	1.027
MS.464         	8.47           	1.033
MS.465         	8.452          	1.013
MS.466         	8.435          	1.047
MS.467         	8.417          	1.076
MS.468         	8.403          	1.031
MS.469         	8.385          	0.965
MS.470         	8.367          	0.941
MS.471         	8.352          	0.977
MS.472         	8.335          	0.912
MS.473         	8.318          	0.963
MS.474         	8.302          	0.908
MS.475         	8.285          	0.927
MS.476         	8.267          	0.904
MS.477         	8.252          	0.896
MS.478         	8.235          	0.898
MS.479         	8.22           	0.92
MS.480         	8.202          	0.848
MS.481         	8.185          	0.866
MS.482         	8.17           	0.798
MS.483         	8.153          	0.761
MS.484         	8.137          	0.773
MS.485         	8.12           	0.775
MS.486         	8.105          	0.709
MS.487         	8.087          	0.655
MS.488         	8.073          	0.709
MS.489         	8.055          	0.61
MS.490         	8.04           	0.667
MS.491         	8.025          	0.653
MS.492         	8.007          	0.62
MS.493         	7.992          	0.657
MS.494         	7.975          	0.546
MS.495         	7.96           	0.608
MS.496         	7.945          	0.588
MS.497         	7.927          	0.538
MS.498         	7.912          	0.518
MS.499         	7.898          	0.475
MS.500         	7.88           	0.566
MS.501         	7.865          	0.463
