File:              	C:\Qtrac\Data\Daniel M Sørensen\MScan multicentre study\Data from centres\Odense\Processed data\TKC00227B.QZD
Name:              	DK.ODE.NC.2.2
Protocol:          	MSCAN-R2
Date:              	27/2/20
Start time:        	11:21:38
Age:               	74
Sex:               	m
Temperature:       	31.8
S/R sites:         	APB
NC/disease:        	NC
Operator:          	TK
Comments:
M-SCAN DATA (7.9-0.9m)
Scanpts: 68, 79, 699, 709
Stim. (mA)     	Amp. (mV)
MS.1           	34.5           	5.082
MS.2           	34.5           	5.082
MS.3           	34.5           	5.122
MS.4           	34.5           	5.056
MS.5           	34.5           	5.015
MS.6           	34.5           	5.076
MS.7           	34.5           	5.064
MS.8           	34.5           	5.054
MS.9           	34.5           	5.06
MS.10          	34.5           	5.104
MS.11          	34.5           	5.045
MS.12          	34.5           	5.066
MS.13          	34.5           	5.09
MS.14          	34.5           	5.116
MS.15          	34.5           	5.11
MS.16          	34.5           	5.09
MS.17          	34.5           	5.094
MS.18          	34.5           	5.074
MS.19          	34.5           	5.07
MS.20          	34.5           	5.072
MS.21          	34.5           	5.108
MS.22          	34.5           	5.1
MS.23          	34.5           	5.134
MS.24          	34.362         	5.116
MS.25          	34.292         	5.074
MS.26          	34.225         	5.084
MS.27          	34.157         	5.102
MS.28          	34.087         	5.108
MS.29          	34.02          	5.146
MS.30          	33.952         	5.092
MS.31          	33.885         	5.108
MS.32          	33.818         	5.108
MS.33          	33.75          	5.114
MS.34          	33.682         	5.12
MS.35          	33.615         	5.041
MS.36          	33.548         	5.092
MS.37          	33.48          	5.027
MS.38          	33.412         	5.094
MS.39          	33.347         	5.158
MS.40          	33.28          	5.11
MS.41          	33.212         	5.09
MS.42          	33.147         	5.142
MS.43          	33.08          	5.098
MS.44          	33.015         	5.102
MS.45          	32.95          	5.084
MS.46          	32.882         	5.094
MS.47          	32.818         	5.116
MS.48          	32.752         	5.11
MS.49          	32.688         	5.122
MS.50          	32.62          	5.104
MS.51          	32.555         	5.126
MS.52          	32.49          	5.088
MS.53          	32.425         	5.108
MS.54          	32.36          	5.086
MS.55          	32.298         	5.035
MS.56          	32.232         	5.148
MS.57          	32.167         	5.086
MS.58          	32.103         	5.072
MS.59          	32.04          	5.102
MS.60          	31.975         	5.1
MS.61          	31.91          	5.021
MS.62          	31.847         	5.037
MS.63          	31.782         	5.092
MS.64          	31.72          	5.102
MS.65          	31.657         	5.102
MS.66          	31.592         	5.076
MS.67          	31.53          	5.07
MS.68          	31.467         	5.104
MS.69          	31.405         	5.07
MS.70          	31.342         	5.104
MS.71          	31.28          	5.104
MS.72          	31.217         	5.068
MS.73          	31.155         	5.084
MS.74          	31.092         	5.086
MS.75          	31.03          	5.1
MS.76          	30.967         	5.114
MS.77          	30.905         	5.138
MS.78          	30.845         	5.09
MS.79          	30.782         	5.104
MS.80          	30.722         	5.094
MS.81          	30.66          	5.07
MS.82          	30.597         	5.112
MS.83          	30.537         	5.096
MS.84          	30.477         	5.116
MS.85          	30.415         	5.114
MS.86          	30.355         	5.116
MS.87          	30.295         	5.094
MS.88          	30.233         	5.1
MS.89          	30.172         	5.112
MS.90          	30.112         	5.025
MS.91          	30.052         	5.118
MS.92          	29.992         	5.114
MS.93          	29.932         	5.144
MS.94          	29.872         	5.088
MS.95          	29.812         	5.164
MS.96          	29.755         	5.084
MS.97          	29.695         	5.06
MS.98          	29.635         	5.058
MS.99          	29.575         	5.114
MS.100         	29.517         	5.142
MS.101         	29.457         	5.108
MS.102         	29.4           	5.118
MS.103         	29.34          	5.108
MS.104         	29.282         	5.13
MS.105         	29.222         	5.066
MS.106         	29.165         	5.08
MS.107         	29.108         	5.011
MS.108         	29.047         	5.035
MS.109         	28.99          	5.009
MS.110         	28.932         	5.07
MS.111         	28.875         	5.035
MS.112         	28.817         	5.019
MS.113         	28.76          	5.047
MS.114         	28.702         	5.023
MS.115         	28.645         	5.054
MS.116         	28.587         	4.401
MS.117         	28.53          	4.425
MS.118         	28.472         	5.003
MS.119         	28.415         	5.003
MS.120         	28.36          	4.367
MS.121         	28.302         	4.379
MS.122         	28.245         	4.985
MS.123         	28.19          	5.033
MS.124         	28.132         	4.347
MS.125         	28.077         	4.391
MS.126         	28.02          	4.349
MS.127         	27.965         	4.921
MS.128         	27.91          	4.359
MS.129         	27.852         	4.391
MS.130         	27.797         	4.373
MS.131         	27.743         	4.371
MS.132         	27.688         	4.355
MS.133         	27.632         	4.373
MS.134         	27.577         	4.357
MS.135         	27.52          	4.347
MS.136         	27.465         	4.341
MS.137         	27.412         	4.33
MS.138         	27.358         	4.405
MS.139         	27.302         	4.351
MS.140         	27.247         	4.341
MS.141         	27.192         	4.367
MS.142         	27.137         	4.391
MS.143         	27.085         	4.361
MS.144         	27.03          	4.355
MS.145         	26.975         	4.367
MS.146         	26.922         	4.363
MS.147         	26.868         	4.401
MS.148         	26.815         	4.353
MS.149         	26.762         	4.345
MS.150         	26.707         	4.373
MS.151         	26.655         	4.336
MS.152         	26.6           	4.363
MS.153         	26.547         	4.343
MS.154         	26.495         	4.361
MS.155         	26.442         	4.341
MS.156         	26.39          	4.292
MS.157         	26.337         	4.334
MS.158         	26.285         	4.334
MS.159         	26.233         	4.324
MS.160         	26.18          	4.367
MS.161         	26.127         	4.355
MS.162         	26.075         	4.375
MS.163         	26.022         	4.336
MS.164         	25.97          	4.328
MS.165         	25.917         	4.33
MS.166         	25.868         	4.31
MS.167         	25.815         	4.332
MS.168         	25.762         	4.334
MS.169         	25.712         	4.328
MS.170         	25.66          	4.324
MS.171         	25.61          	4.322
MS.172         	25.557         	4.328
MS.173         	25.507         	4.314
MS.174         	25.455         	4.314
MS.175         	25.405         	4.324
MS.176         	25.355         	4.347
MS.177         	25.305         	4.324
MS.178         	25.252         	4.336
MS.179         	25.202         	4.328
MS.180         	25.153         	4.341
MS.181         	25.102         	4.351
MS.182         	25.052         	4.262
MS.183         	25.002         	4.288
MS.184         	24.952         	4.334
MS.185         	24.903         	4.334
MS.186         	24.852         	4.339
MS.187         	24.802         	4.32
MS.188         	24.752         	4.316
MS.189         	24.705         	4.322
MS.190         	24.655         	4.298
MS.191         	24.605         	4.314
MS.192         	24.555         	4.316
MS.193         	24.507         	4.31
MS.194         	24.457         	4.296
MS.195         	24.41          	4.296
MS.196         	24.36          	4.278
MS.197         	24.312         	4.31
MS.198         	24.262         	4.324
MS.199         	24.215         	4.298
MS.200         	24.165         	4.276
MS.201         	24.118         	4.264
MS.202         	24.07          	4.304
MS.203         	24.022         	4.274
MS.204         	23.972         	4.278
MS.205         	23.925         	4.272
MS.206         	23.877         	4.29
MS.207         	23.83          	4.272
MS.208         	23.782         	4.272
MS.209         	23.735         	4.26
MS.210         	23.688         	4.252
MS.211         	23.64          	4.266
MS.212         	23.592         	4.268
MS.213         	23.545         	4.256
MS.214         	23.5           	4.276
MS.215         	23.452         	4.32
MS.216         	23.405         	4.26
MS.217         	23.358         	4.234
MS.218         	23.312         	4.254
MS.219         	23.265         	4.264
MS.220         	23.217         	4.28
MS.221         	23.172         	4.234
MS.222         	23.125         	4.284
MS.223         	23.08          	4.282
MS.224         	23.032         	4.29
MS.225         	22.987         	4.28
MS.226         	22.942         	4.312
MS.227         	22.895         	4.276
MS.228         	22.85          	4.246
MS.229         	22.805         	4.286
MS.230         	22.76          	4.244
MS.231         	22.712         	4.306
MS.232         	22.667         	4.258
MS.233         	22.622         	4.22
MS.234         	22.577         	4.179
MS.235         	22.532         	4.214
MS.236         	22.487         	4.208
MS.237         	22.442         	4.224
MS.238         	22.397         	4.222
MS.239         	22.352         	4.218
MS.240         	22.307         	4.165
MS.241         	22.262         	4.195
MS.242         	22.22          	4.228
MS.243         	22.175         	4.198
MS.244         	22.13          	4.202
MS.245         	22.085         	4.181
MS.246         	22.042         	4.193
MS.247         	21.997         	4.157
MS.248         	21.955         	4.081
MS.249         	21.91          	4.202
MS.250         	21.868         	4.165
MS.251         	21.823         	4.2
MS.252         	21.78          	4.198
MS.253         	21.735         	4.119
MS.254         	21.692         	4.026
MS.255         	21.65          	4.067
MS.256         	21.605         	4.065
MS.257         	21.562         	4.028
MS.258         	21.52          	4.113
MS.259         	21.477         	4.018
MS.260         	21.432         	4.065
MS.261         	21.39          	4.032
MS.262         	21.347         	3.895
MS.263         	21.305         	3.928
MS.264         	21.262         	3.976
MS.265         	21.22          	3.899
MS.266         	21.177         	3.885
MS.267         	21.135         	4.046
MS.268         	21.092         	3.907
MS.269         	21.05          	3.891
MS.270         	21.01          	3.833
MS.271         	20.967         	3.887
MS.272         	20.925         	4.002
MS.273         	20.882         	3.845
MS.274         	20.842         	3.881
MS.275         	20.8           	3.871
MS.276         	20.757         	3.867
MS.277         	20.717         	3.845
MS.278         	20.675         	3.897
MS.279         	20.635         	3.851
MS.280         	20.592         	3.861
MS.281         	20.552         	3.905
MS.282         	20.51          	3.887
MS.283         	20.47          	3.879
MS.284         	20.43          	3.861
MS.285         	20.387         	3.875
MS.286         	20.347         	3.994
MS.287         	20.307         	3.889
MS.288         	20.265         	3.928
MS.289         	20.225         	3.625
MS.290         	20.185         	3.692
MS.291         	20.145         	3.827
MS.292         	20.105         	3.821
MS.293         	20.065         	3.905
MS.294         	20.025         	3.777
MS.295         	19.985         	3.97
MS.296         	19.945         	3.748
MS.297         	19.905         	3.843
MS.298         	19.865         	3.819
MS.299         	19.825         	3.851
MS.300         	19.785         	3.831
MS.301         	19.745         	3.797
MS.302         	19.708         	3.758
MS.303         	19.667         	3.805
MS.304         	19.627         	3.768
MS.305         	19.587         	3.704
MS.306         	19.55          	3.664
MS.307         	19.51          	3.65
MS.308         	19.472         	3.726
MS.309         	19.432         	3.75
MS.310         	19.395         	3.69
MS.311         	19.355         	3.658
MS.312         	19.317         	3.648
MS.313         	19.278         	3.678
MS.314         	19.24          	3.652
MS.315         	19.2           	3.676
MS.316         	19.163         	3.672
MS.317         	19.125         	3.67
MS.318         	19.085         	3.646
MS.319         	19.047         	3.587
MS.320         	19.01          	3.646
MS.321         	18.972         	3.625
MS.322         	18.935         	3.609
MS.323         	18.895         	3.656
MS.324         	18.858         	3.658
MS.325         	18.82          	3.603
MS.326         	18.782         	3.738
MS.327         	18.745         	3.642
MS.328         	18.708         	3.638
MS.329         	18.67          	3.591
MS.330         	18.632         	3.551
MS.331         	18.595         	3.515
MS.332         	18.56          	3.557
MS.333         	18.522         	3.581
MS.334         	18.485         	3.605
MS.335         	18.448         	3.591
MS.336         	18.41          	3.142
MS.337         	18.375         	3.545
MS.338         	18.337         	3.493
MS.339         	18.3           	3.517
MS.340         	18.265         	3.114
MS.341         	18.227         	3.092
MS.342         	18.192         	3.529
MS.343         	18.155         	3.164
MS.344         	18.12          	3.053
MS.345         	18.083         	3.088
MS.346         	18.047         	3.126
MS.347         	18.01          	2.971
MS.348         	17.975         	3.076
MS.349         	17.938         	3.104
MS.350         	17.903         	3.023
MS.351         	17.868         	3.521
MS.352         	17.833         	3.053
MS.353         	17.795         	2.999
MS.354         	17.76          	3.19
MS.355         	17.725         	3.001
MS.356         	17.69          	3.039
MS.357         	17.655         	3.043
MS.358         	17.618         	2.997
MS.359         	17.583         	3.051
MS.360         	17.547         	3.005
MS.361         	17.512         	2.985
MS.362         	17.477         	2.89
MS.363         	17.442         	2.888
MS.364         	17.407         	3.017
MS.365         	17.372         	2.91
MS.366         	17.34          	2.844
MS.367         	17.305         	2.838
MS.368         	17.27          	2.79
MS.369         	17.235         	2.84
MS.370         	17.2           	2.878
MS.371         	17.167         	2.888
MS.372         	17.132         	2.804
MS.373         	17.097         	2.876
MS.374         	17.062         	2.834
MS.375         	17.03          	2.822
MS.376         	16.995         	2.81
MS.377         	16.962         	2.788
MS.378         	16.927         	2.78
MS.379         	16.895         	2.844
MS.380         	16.86          	2.83
MS.381         	16.827         	2.832
MS.382         	16.792         	2.87
MS.383         	16.76          	2.773
MS.384         	16.725         	2.814
MS.385         	16.692         	2.782
MS.386         	16.66          	2.713
MS.387         	16.625         	2.749
MS.388         	16.592         	2.792
MS.389         	16.56          	2.767
MS.390         	16.528         	2.804
MS.391         	16.493         	2.715
MS.392         	16.46          	2.715
MS.393         	16.427         	2.737
MS.394         	16.395         	2.548
MS.395         	16.362         	2.826
MS.396         	16.33          	2.761
MS.397         	16.297         	2.769
MS.398         	16.265         	2.786
MS.399         	16.233         	2.741
MS.400         	16.2           	2.794
MS.401         	16.167         	2.816
MS.402         	16.135         	2.429
MS.403         	16.102         	2.794
MS.404         	16.07          	2.393
MS.405         	16.038         	2.806
MS.406         	16.005         	2.856
MS.407         	15.975         	2.733
MS.408         	15.943         	2.375
MS.409         	15.91          	2.314
MS.410         	15.877         	2.741
MS.411         	15.847         	2.351
MS.412         	15.815         	2.705
MS.413         	15.782         	2.679
MS.414         	15.752         	2.443
MS.415         	15.72          	2.276
MS.416         	15.69          	2.699
MS.417         	15.657         	2.314
MS.418         	15.627         	2.371
MS.419         	15.595         	2.3
MS.420         	15.565         	2.359
MS.421         	15.532         	2.719
MS.422         	15.502         	2.338
MS.423         	15.47          	2.363
MS.424         	15.44          	2.308
MS.425         	15.41          	2.431
MS.426         	15.377         	2.373
MS.427         	15.347         	2.266
MS.428         	15.318         	2.274
MS.429         	15.287         	2.292
MS.430         	15.255         	2.288
MS.431         	15.225         	2.248
MS.432         	15.195         	2.197
MS.433         	15.165         	2.179
MS.434         	15.135         	2.224
MS.435         	15.105         	2.262
MS.436         	15.075         	2.129
MS.437         	15.042         	2.31
MS.438         	15.012         	2.252
MS.439         	14.983         	2.24
MS.440         	14.952         	2.302
MS.441         	14.925         	2.197
MS.442         	14.895         	2.274
MS.443         	14.865         	2.381
MS.444         	14.835         	2.405
MS.445         	14.805         	2.401
MS.446         	14.775         	2.351
MS.447         	14.745         	2.316
MS.448         	14.717         	2.365
MS.449         	14.688         	2.346
MS.450         	14.657         	2.373
MS.451         	14.627         	2.357
MS.452         	14.6           	2.318
MS.453         	14.57          	2.349
MS.454         	14.54          	2.324
MS.455         	14.512         	2.326
MS.456         	14.483         	2.361
MS.457         	14.455         	2.282
MS.458         	14.425         	2.268
MS.459         	14.395         	2.32
MS.460         	14.367         	2.349
MS.461         	14.337         	2.314
MS.462         	14.31          	2.306
MS.463         	14.282         	2.28
MS.464         	14.252         	2.3
MS.465         	14.225         	2.3
MS.466         	14.195         	2.248
MS.467         	14.167         	2.24
MS.468         	14.14          	2.228
MS.469         	14.11          	2.266
MS.470         	14.082         	2.336
MS.471         	14.055         	2.278
MS.472         	14.028         	2.097
MS.473         	13.997         	2.145
MS.474         	13.97          	2.226
MS.475         	13.943         	2.212
MS.476         	13.915         	2.203
MS.477         	13.887         	2.113
MS.478         	13.86          	2.165
MS.479         	13.832         	2.081
MS.480         	13.805         	2.091
MS.481         	13.778         	2.189
MS.482         	13.75          	2.115
MS.483         	13.722         	2.121
MS.484         	13.695         	2.077
MS.485         	13.667         	1.998
MS.486         	13.64          	1.889
MS.487         	13.612         	2.081
MS.488         	13.585         	1.952
MS.489         	13.557         	2.012
MS.490         	13.53          	1.958
MS.491         	13.502         	2.05
MS.492         	13.477         	1.911
MS.493         	13.45          	1.926
MS.494         	13.422         	1.917
MS.495         	13.395         	1.962
MS.496         	13.37          	1.938
MS.497         	13.342         	1.915
MS.498         	13.315         	1.954
MS.499         	13.29          	2.002
MS.500         	13.262         	1.922
MS.501         	13.235         	1.934
