File:              	C:\Qtrac\Data\Daniel M Sørensen\MScan multicentre study\Data from centres\Odense\Processed data\TKC00914A.QZD
Name:              	DK.ODE.NC.3.2
Protocol:          	MSCAN-R2
Date:              	14/9/20
Start time:        	10:12:26
Age:               	29
Sex:               	M
Temperature:       	31.6
S/R sites:         	TA
NC/disease:        	NC
Operator:          	TK
Comments:
M-SCAN DATA (6.2-1.3m)
Scanpts: 8, 14, 482, 494
Stim. (mA)     	Amp. (mV)
MS.1           	20.5           	4.411
MS.2           	20.5           	4.405
MS.3           	20.5           	4.403
MS.4           	20.5           	4.451
MS.5           	20.5           	4.419
MS.6           	20.5           	4.399
MS.7           	20.5           	4.413
MS.8           	20.5           	4.449
MS.9           	20.5           	4.409
MS.10          	20.5           	4.417
MS.11          	20.5           	4.419
MS.12          	20.5           	4.443
MS.13          	20.5           	4.431
MS.14          	20.5           	4.411
MS.15          	20.5           	4.445
MS.16          	20.5           	4.431
MS.17          	20.5           	4.407
MS.18          	20.5           	4.395
MS.19          	20.5           	4.429
MS.20          	20.5           	4.443
MS.21          	20.5           	4.443
MS.22          	20.5           	4.407
MS.23          	20.5           	4.453
MS.24          	20.417         	4.377
MS.25          	20.377         	4.427
MS.26          	20.337         	4.447
MS.27          	20.295         	4.391
MS.28          	20.255         	4.463
MS.29          	20.215         	4.393
MS.30          	20.175         	4.405
MS.31          	20.135         	4.417
MS.32          	20.095         	4.393
MS.33          	20.055         	4.393
MS.34          	20.015         	4.387
MS.35          	19.975         	4.429
MS.36          	19.935         	4.407
MS.37          	19.895         	4.413
MS.38          	19.855         	4.419
MS.39          	19.815         	4.411
MS.40          	19.775         	4.387
MS.41          	19.735         	4.415
MS.42          	19.695         	4.411
MS.43          	19.657         	4.379
MS.44          	19.618         	4.405
MS.45          	19.577         	4.419
MS.46          	19.54          	4.405
MS.47          	19.5           	4.395
MS.48          	19.46          	4.409
MS.49          	19.422         	4.441
MS.50          	19.382         	4.353
MS.51          	19.345         	4.345
MS.52          	19.305         	4.357
MS.53          	19.267         	4.328
MS.54          	19.23          	4.383
MS.55          	19.19          	4.379
MS.56          	19.153         	4.383
MS.57          	19.115         	4.397
MS.58          	19.075         	4.312
MS.59          	19.038         	4.294
MS.60          	19             	4.27
MS.61          	18.962         	4.367
MS.62          	18.925         	4.248
MS.63          	18.885         	4.187
MS.64          	18.847         	4.268
MS.65          	18.81          	4.198
MS.66          	18.772         	4.212
MS.67          	18.735         	4.28
MS.68          	18.698         	4.294
MS.69          	18.66          	4.26
MS.70          	18.622         	4.232
MS.71          	18.585         	4.234
MS.72          	18.55          	4.212
MS.73          	18.512         	4.236
MS.74          	18.475         	4.177
MS.75          	18.438         	4.208
MS.76          	18.403         	4.244
MS.77          	18.365         	4.276
MS.78          	18.327         	4.191
MS.79          	18.29          	4.2
MS.80          	18.255         	4.165
MS.81          	18.217         	4.179
MS.82          	18.182         	4.173
MS.83          	18.145         	4.195
MS.84          	18.11          	4.216
MS.85          	18.073         	4.187
MS.86          	18.038         	4.161
MS.87          	18             	4.206
MS.88          	17.965         	4.216
MS.89          	17.93          	4.139
MS.90          	17.892         	4.2
MS.91          	17.858         	4.161
MS.92          	17.823         	4.169
MS.93          	17.785         	4.159
MS.94          	17.75          	4.121
MS.95          	17.715         	4.149
MS.96          	17.68          	4.123
MS.97          	17.645         	4.165
MS.98          	17.61          	4.097
MS.99          	17.575         	4.095
MS.100         	17.54          	4.097
MS.101         	17.505         	4.185
MS.102         	17.47          	4.191
MS.103         	17.435         	4.153
MS.104         	17.4           	4.193
MS.105         	17.365         	4.119
MS.106         	17.33          	4.073
MS.107         	17.295         	4.085
MS.108         	17.26          	4.03
MS.109         	17.225         	3.99
MS.110         	17.192         	4.115
MS.111         	17.157         	4.032
MS.112         	17.122         	3.954
MS.113         	17.09          	4.065
MS.114         	17.055         	3.924
MS.115         	17.02          	3.819
MS.116         	16.987         	3.897
MS.117         	16.952         	3.813
MS.118         	16.917         	3.863
MS.119         	16.885         	3.891
MS.120         	16.85          	3.873
MS.121         	16.817         	3.841
MS.122         	16.785         	3.805
MS.123         	16.75          	3.895
MS.124         	16.717         	3.809
MS.125         	16.682         	3.867
MS.126         	16.65          	3.728
MS.127         	16.618         	3.698
MS.128         	16.583         	3.817
MS.129         	16.55          	3.722
MS.130         	16.517         	3.726
MS.131         	16.485         	3.632
MS.132         	16.452         	3.724
MS.133         	16.417         	3.69
MS.134         	16.385         	3.664
MS.135         	16.352         	3.613
MS.136         	16.32          	3.587
MS.137         	16.288         	3.775
MS.138         	16.255         	3.559
MS.139         	16.222         	3.583
MS.140         	16.19          	3.611
MS.141         	16.157         	3.748
MS.142         	16.125         	3.621
MS.143         	16.092         	3.424
MS.144         	16.062         	3.533
MS.145         	16.03          	3.515
MS.146         	15.997         	3.513
MS.147         	15.965         	3.571
MS.148         	15.932         	3.601
MS.149         	15.902         	3.549
MS.150         	15.87          	3.509
MS.151         	15.837         	3.599
MS.152         	15.807         	3.503
MS.153         	15.775         	3.499
MS.154         	15.742         	3.539
MS.155         	15.712         	3.484
MS.156         	15.68          	3.458
MS.157         	15.65          	3.466
MS.158         	15.617         	3.527
MS.159         	15.587         	3.47
MS.160         	15.555         	3.531
MS.161         	15.525         	3.412
MS.162         	15.492         	3.503
MS.163         	15.462         	3.354
MS.164         	15.432         	3.388
MS.165         	15.4           	3.456
MS.166         	15.37          	3.362
MS.167         	15.34          	3.424
MS.168         	15.307         	3.565
MS.169         	15.277         	3.519
MS.170         	15.247         	3.569
MS.171         	15.217         	3.374
MS.172         	15.188         	3.43
MS.173         	15.157         	3.448
MS.174         	15.125         	3.38
MS.175         	15.095         	3.313
MS.176         	15.065         	3.319
MS.177         	15.035         	3.319
MS.178         	15.005         	3.309
MS.179         	14.975         	3.247
MS.180         	14.945         	3.285
MS.181         	14.915         	3.148
MS.182         	14.885         	3.176
MS.183         	14.858         	3.18
MS.184         	14.827         	3.11
MS.185         	14.797         	3.142
MS.186         	14.767         	3.047
MS.187         	14.737         	3.027
MS.188         	14.707         	3.092
MS.189         	14.68          	3.064
MS.190         	14.65          	3.015
MS.191         	14.62          	2.955
MS.192         	14.59          	2.983
MS.193         	14.562         	3.06
MS.194         	14.532         	2.961
MS.195         	14.505         	3.108
MS.196         	14.475         	2.921
MS.197         	14.445         	2.963
MS.198         	14.417         	2.892
MS.199         	14.387         	2.876
MS.200         	14.36          	2.886
MS.201         	14.33          	2.876
MS.202         	14.302         	2.788
MS.203         	14.273         	2.828
MS.204         	14.245         	2.826
MS.205         	14.217         	2.814
MS.206         	14.188         	2.755
MS.207         	14.16          	2.711
MS.208         	14.132         	2.685
MS.209         	14.102         	2.699
MS.210         	14.075         	2.707
MS.211         	14.047         	2.677
MS.212         	14.02          	2.691
MS.213         	13.99          	2.639
MS.214         	13.962         	2.685
MS.215         	13.935         	2.61
MS.216         	13.907         	2.6
MS.217         	13.88          	2.596
MS.218         	13.852         	2.602
MS.219         	13.825         	2.479
MS.220         	13.797         	2.518
MS.221         	13.77          	2.371
MS.222         	13.742         	2.423
MS.223         	13.715         	2.494
MS.224         	13.688         	2.334
MS.225         	13.66          	2.49
MS.226         	13.632         	2.403
MS.227         	13.605         	2.351
MS.228         	13.577         	2.371
MS.229         	13.55          	2.377
MS.230         	13.523         	2.355
MS.231         	13.497         	2.266
MS.232         	13.47          	2.28
MS.233         	13.443         	2.248
MS.234         	13.415         	2.292
MS.235         	13.39          	2.387
MS.236         	13.362         	2.197
MS.237         	13.335         	2.109
MS.238         	13.307         	2.101
MS.239         	13.282         	2.093
MS.240         	13.255         	2.147
MS.241         	13.23          	2.113
MS.242         	13.202         	2.054
MS.243         	13.177         	1.95
MS.244         	13.15          	1.972
MS.245         	13.122         	1.99
MS.246         	13.097         	1.928
MS.247         	13.072         	1.956
MS.248         	13.045         	1.831
MS.249         	13.02          	1.932
MS.250         	12.992         	1.851
MS.251         	12.967         	1.803
MS.252         	12.943         	1.744
MS.253         	12.915         	1.789
MS.254         	12.89          	1.744
MS.255         	12.865         	1.706
MS.256         	12.837         	1.75
MS.257         	12.812         	1.658
MS.258         	12.787         	1.585
MS.259         	12.762         	1.656
MS.260         	12.735         	1.557
MS.261         	12.71          	1.553
MS.262         	12.685         	1.652
MS.263         	12.66          	1.662
MS.264         	12.635         	1.541
MS.265         	12.61          	1.541
MS.266         	12.585         	1.529
MS.267         	12.56          	1.448
MS.268         	12.532         	1.424
MS.269         	12.507         	1.382
MS.270         	12.483         	1.364
MS.271         	12.457         	1.392
MS.272         	12.435         	1.364
MS.273         	12.41          	1.412
MS.274         	12.385         	1.295
MS.275         	12.36          	1.277
MS.276         	12.335         	1.325
MS.277         	12.31          	1.281
MS.278         	12.285         	1.319
MS.279         	12.26          	1.305
MS.280         	12.238         	1.243
MS.281         	12.212         	1.231
MS.282         	12.188         	1.118
MS.283         	12.162         	1.2
MS.284         	12.14          	1.164
MS.285         	12.115         	1.122
MS.286         	12.09          	1.166
MS.287         	12.068         	1.124
MS.288         	12.042         	1.088
MS.289         	12.017         	1.094
MS.290         	11.995         	1.094
MS.291         	11.97          	1.114
MS.292         	11.947         	1.047
MS.293         	11.922         	1.025
MS.294         	11.898         	1.061
MS.295         	11.875         	1.019
MS.296         	11.85          	1.015
MS.297         	11.827         	0.953
MS.298         	11.805         	1.015
MS.299         	11.78          	0.957
MS.300         	11.757         	1.009
MS.301         	11.733         	0.957
MS.302         	11.71          	0.908
MS.303         	11.688         	0.892
MS.304         	11.662         	0.882
MS.305         	11.64          	0.868
MS.306         	11.617         	0.802
MS.307         	11.592         	0.886
MS.308         	11.57          	0.828
MS.309         	11.547         	0.818
MS.310         	11.525         	0.824
MS.311         	11.5           	0.88
MS.312         	11.477         	0.806
MS.313         	11.455         	0.711
MS.314         	11.432         	0.781
MS.315         	11.41          	0.753
MS.316         	11.387         	0.707
MS.317         	11.363         	0.693
MS.318         	11.34          	0.705
MS.319         	11.318         	0.743
MS.320         	11.295         	0.711
MS.321         	11.273         	0.701
MS.322         	11.25          	0.685
MS.323         	11.227         	0.641
MS.324         	11.205         	0.653
MS.325         	11.182         	0.687
MS.326         	11.16          	0.596
MS.327         	11.137         	0.578
MS.328         	11.117         	0.584
MS.329         	11.095         	0.59
MS.330         	11.073         	0.572
MS.331         	11.05          	0.524
MS.332         	11.028         	0.544
MS.333         	11.005         	0.546
MS.334         	10.985         	0.508
MS.335         	10.962         	0.475
MS.336         	10.94          	0.485
MS.337         	10.917         	0.485
MS.338         	10.898         	0.459
MS.339         	10.875         	0.457
MS.340         	10.852         	0.407
MS.341         	10.83          	0.433
MS.342         	10.81          	0.407
MS.343         	10.787         	0.473
MS.344         	10.767         	0.417
MS.345         	10.745         	0.373
MS.346         	10.722         	0.336
MS.347         	10.702         	0.387
MS.348         	10.68          	0.361
MS.349         	10.66          	0.367
MS.350         	10.637         	0.294
MS.351         	10.617         	0.288
MS.352         	10.595         	0.314
MS.353         	10.575         	0.304
MS.354         	10.552         	0.32
MS.355         	10.532         	0.294
MS.356         	10.51          	0.31
MS.357         	10.49          	0.302
MS.358         	10.47          	0.276
MS.359         	10.448         	0.276
MS.360         	10.427         	0.26
MS.361         	10.407         	0.23
MS.362         	10.385         	0.24
MS.363         	10.365         	0.262
MS.364         	10.345         	0.218
MS.365         	10.323         	0.187
MS.366         	10.302         	0.191
MS.367         	10.282         	0.157
MS.368         	10.262         	0.222
MS.369         	10.24          	0.228
MS.370         	10.22          	0.183
MS.371         	10.2           	0.203
MS.372         	10.18          	0.205
MS.373         	10.16          	0.173
MS.374         	10.14          	0.197
MS.375         	10.12          	0.161
MS.376         	10.1           	0.147
MS.377         	10.077         	0.133
MS.378         	10.057         	0.115
MS.379         	10.037         	0.199
MS.380         	10.017         	0.165
MS.381         	9.997          	0.137
MS.382         	9.977          	0.155
MS.383         	9.957          	0.083
MS.384         	9.938          	0.109
MS.385         	9.917          	0.155
MS.386         	9.9            	0.117
MS.387         	9.88           	0.147
MS.388         	9.86           	0.113
MS.389         	9.84           	0.161
MS.390         	9.82           	0.183
MS.391         	9.8            	0.119
MS.392         	9.78           	0.111
MS.393         	9.762          	0.139
MS.394         	9.742          	0.157
MS.395         	9.722          	0.123
MS.396         	9.702          	0.105
MS.397         	9.682          	0.091
MS.398         	9.665          	0.133
MS.399         	9.645          	0.087
MS.400         	9.625          	0.085
MS.401         	9.608          	0.089
MS.402         	9.587          	0.054
MS.403         	9.568          	0.064
MS.404         	9.55           	0.089
MS.405         	9.53           	0.083
MS.406         	9.51           	0.073
MS.407         	9.492          	0.091
MS.408         	9.472          	0.107
MS.409         	9.455          	0.079
MS.410         	9.435          	0.07
MS.411         	9.415          	0.042
MS.412         	9.398          	0.062
MS.413         	9.377          	0.077
MS.414         	9.36           	0.083
MS.415         	9.34           	0.075
MS.416         	9.323          	0.03
MS.417         	9.305          	0.085
MS.418         	9.285          	0.042
MS.419         	9.267          	0.012
MS.420         	9.247          	0.028
MS.421         	9.23           	0.07
MS.422         	9.21           	0.034
MS.423         	9.193          	0.018
MS.424         	9.175          	0.066
MS.425         	9.155          	0.056
MS.426         	9.137          	0.022
MS.427         	9.12           	0.024
MS.428         	9.102          	0.042
MS.429         	9.082          	0.046
MS.430         	9.065          	0.000
MS.431         	9.047          	0.002
MS.432         	9.03           	-0.008
MS.433         	9.01           	0.034
MS.434         	8.992          	0.026
MS.435         	8.975          	0.012
MS.436         	8.957          	0.006
MS.437         	8.94           	-0.016
MS.438         	8.92           	0.024
MS.439         	8.903          	0.008
MS.440         	8.885          	0.006
MS.441         	8.867          	-0.008
MS.442         	8.85           	0.026
MS.443         	8.832          	0.000
MS.444         	8.815          	-0.024
MS.445         	8.797          	0.000
MS.446         	8.78           	-0.012
MS.447         	8.762          	-0.018
MS.448         	8.745          	-0.022
MS.449         	8.727          	-0.022
MS.450         	8.71           	-0.024
MS.451         	8.693          	-0.02
MS.452         	8.675          	-0.018
MS.453         	8.658          	-0.004
MS.454         	8.64           	-0.02
MS.455         	8.622          	-0.026
MS.456         	8.605          	0.006
MS.457         	8.587          	-0.036
MS.458         	8.573          	-0.032
MS.459         	8.555          	-0.018
MS.460         	8.537          	-0.03
MS.461         	8.52           	-0.008
MS.462         	8.502          	-0.026
MS.463         	8.485          	-0.03
MS.464         	8.47           	-0.024
MS.465         	8.452          	-0.056
MS.466         	8.435          	-0.012
MS.467         	8.417          	-0.014
MS.468         	8.403          	-0.014
MS.469         	8.385          	-0.02
MS.470         	8.367          	-0.034
MS.471         	8.352          	-0.014
MS.472         	8.335          	-0.038
MS.473         	8.318          	-0.03
MS.474         	8.302          	-0.024
MS.475         	8.285          	-0.014
MS.476         	8.267          	-0.006
MS.477         	8.252          	-0.024
MS.478         	8.235          	-0.028
MS.479         	8.22           	-0.014
MS.480         	8.202          	0.000
MS.481         	8.185          	-0.012
MS.482         	8.17           	-0.03
MS.483         	8.153          	-0.006
MS.484         	8.137          	-0.016
MS.485         	8.12           	-0.032
MS.486         	8.105          	0.002
MS.487         	8.087          	-0.03
MS.488         	8.073          	-0.016
MS.489         	8.055          	-0.018
MS.490         	8.04           	-0.024
MS.491         	8.025          	-0.012
MS.492         	8.007          	-0.03
MS.493         	7.992          	-0.004
MS.494         	7.975          	-0.022
MS.495         	7.96           	0.004
MS.496         	7.945          	-0.014
MS.497         	7.927          	-0.032
MS.498         	7.912          	-0.016
MS.499         	7.898          	-0.02
MS.500         	7.88           	-0.008
