File:              	C:\Qtrac\Data\Daniel M Sørensen\MScan multicentre study\Data from centres\Odense\Processed data\TKC01028B.QZD
Name:              	DK.ODE.NC.7.1
Protocol:          	MSCAN-R2
Date:              	28/10/20
Start time:        	10:01:34
Age:               	41
Sex:               	F
Temperature:       	31.3
S/R sites:         	APB
NC/disease:        	NC
Operator:          	TK
Comments:
M-SCAN DATA (7.6-1.1m)
Scanpts: 39, 47, 445, 464
Stim. (mA)     	Amp. (mV)
MS.1           	13             	13.797
MS.2           	13             	13.743
MS.3           	13             	13.805
MS.4           	13             	13.821
MS.5           	13             	13.823
MS.6           	13             	13.789
MS.7           	13             	13.878
MS.8           	13             	13.857
MS.9           	13             	13.825
MS.10          	13             	13.763
MS.11          	13             	13.817
MS.12          	13             	13.773
MS.13          	13             	13.821
MS.14          	13             	13.9
MS.15          	13             	13.833
MS.16          	13             	13.833
MS.17          	13             	13.843
MS.18          	13             	13.793
MS.19          	13             	13.769
MS.20          	13             	13.902
MS.21          	13             	13.882
MS.22          	13             	13.874
MS.23          	12.947         	13.878
MS.24          	12.922         	13.872
MS.25          	12.898         	13.898
MS.26          	12.87          	13.857
MS.27          	12.845         	13.898
MS.28          	12.82          	13.821
MS.29          	12.792         	13.849
MS.30          	12.767         	13.853
MS.31          	12.742         	13.888
MS.32          	12.717         	13.934
MS.33          	12.693         	13.926
MS.34          	12.667         	13.91
MS.35          	12.64          	13.882
MS.36          	12.615         	13.938
MS.37          	12.59          	13.934
MS.38          	12.565         	13.914
MS.39          	12.54          	13.876
MS.40          	12.515         	13.851
MS.41          	12.49          	13.88
MS.42          	12.465         	13.872
MS.43          	12.44          	13.952
MS.44          	12.415         	13.89
MS.45          	12.39          	13.904
MS.46          	12.365         	13.904
MS.47          	12.34          	13.936
MS.48          	12.318         	13.853
MS.49          	12.292         	13.882
MS.50          	12.267         	13.89
MS.51          	12.242         	13.914
MS.52          	12.217         	13.894
MS.53          	12.195         	13.88
MS.54          	12.17          	13.906
MS.55          	12.145         	13.884
MS.56          	12.12          	13.99
MS.57          	12.097         	13.781
MS.58          	12.072         	13.819
MS.59          	12.047         	13.811
MS.60          	12.025         	13.924
MS.61          	12             	13.803
MS.62          	11.977         	13.89
MS.63          	11.952         	13.821
MS.64          	11.927         	13.789
MS.65          	11.905         	13.716
MS.66          	11.88          	13.749
MS.67          	11.858         	13.777
MS.68          	11.832         	13.69
MS.69          	11.81          	13.771
MS.70          	11.787         	13.7
MS.71          	11.762         	13.714
MS.72          	11.74          	13.535
MS.73          	11.715         	13.7
MS.74          	11.693         	13.694
MS.75          	11.67          	13.467
MS.76          	11.645         	13.634
MS.77          	11.622         	13.636
MS.78          	11.6           	13.505
MS.79          	11.575         	13.503
MS.80          	11.552         	13.727
MS.81          	11.53          	13.483
MS.82          	11.507         	13.632
MS.83          	11.485         	13.614
MS.84          	11.46          	13.636
MS.85          	11.438         	13.545
MS.86          	11.415         	13.384
MS.87          	11.392         	13.348
MS.88          	11.37          	13.35
MS.89          	11.347         	13.511
MS.90          	11.325         	13.443
MS.91          	11.302         	13.082
MS.92          	11.28          	13.213
MS.93          	11.257         	13.416
MS.94          	11.235         	13.38
MS.95          	11.212         	13.261
MS.96          	11.19          	13.056
MS.97          	11.167         	12.925
MS.98          	11.145         	12.868
MS.99          	11.122         	12.875
MS.100         	11.1           	13.062
MS.101         	11.077         	13.048
MS.102         	11.055         	12.929
MS.103         	11.032         	12.552
MS.104         	11.012         	12.86
MS.105         	10.99          	12.494
MS.106         	10.967         	12.456
MS.107         	10.945         	12.24
MS.108         	10.925         	12.238
MS.109         	10.903         	12.538
MS.110         	10.88          	12.901
MS.111         	10.858         	12.294
MS.112         	10.837         	12.576
MS.113         	10.815         	12.145
MS.114         	10.792         	12.093
MS.115         	10.773         	12.379
MS.116         	10.75          	12.222
MS.117         	10.73          	12.083
MS.118         	10.707         	12.073
MS.119         	10.685         	12.047
MS.120         	10.665         	12.027
MS.121         	10.642         	11.998
MS.122         	10.622         	12.093
MS.123         	10.6           	11.958
MS.124         	10.58          	11.994
MS.125         	10.557         	11.984
MS.126         	10.537         	12.035
MS.127         	10.517         	11.904
MS.128         	10.495         	11.94
MS.129         	10.475         	11.722
MS.130         	10.452         	11.487
MS.131         	10.432         	11.857
MS.132         	10.412         	11.499
MS.133         	10.39          	11.513
MS.134         	10.37          	11.444
MS.135         	10.35          	11.221
MS.136         	10.33          	11.12
MS.137         	10.307         	10.969
MS.138         	10.287         	11.058
MS.139         	10.267         	11.084
MS.140         	10.247         	10.649
MS.141         	10.225         	10.568
MS.142         	10.205         	10.711
MS.143         	10.185         	10.375
MS.144         	10.165         	10.516
MS.145         	10.145         	10.29
MS.146         	10.125         	10.345
MS.147         	10.105         	9.855
MS.148         	10.085         	9.505
MS.149         	10.065         	9.751
MS.150         	10.042         	9.628
MS.151         	10.023         	9.378
MS.152         	10.002         	9.207
MS.153         	9.983          	9.219
MS.154         	9.962          	9.297
MS.155         	9.945          	9.146
MS.156         	9.925          	9.104
MS.157         	9.905          	8.737
MS.158         	9.885          	9.144
MS.159         	9.865          	8.522
MS.160         	9.845          	8.731
MS.161         	9.825          	8.75
MS.162         	9.805          	8.739
MS.163         	9.785          	8.576
MS.164         	9.767          	8.466
MS.165         	9.747          	8.55
MS.166         	9.727          	8.496
MS.167         	9.707          	8.363
MS.168         	9.688          	7.908
MS.169         	9.67           	8.304
MS.170         	9.65           	7.668
MS.171         	9.63           	7.98
MS.172         	9.613          	7.197
MS.173         	9.592          	7.217
MS.174         	9.573          	7.573
MS.175         	9.555          	7.023
MS.176         	9.535          	7.086
MS.177         	9.515          	6.508
MS.178         	9.497          	6.88
MS.179         	9.477          	6.723
MS.180         	9.46           	6.397
MS.181         	9.44           	6.453
MS.182         	9.42           	6.153
MS.183         	9.403          	5.793
MS.184         	9.382          	6.188
MS.185         	9.365          	6.059
MS.186         	9.345          	5.577
MS.187         	9.327          	6.006
MS.188         	9.307          	5.376
MS.189         	9.29           	5.219
MS.190         	9.273          	5.201
MS.191         	9.252          	4.816
MS.192         	9.235          	4.86
MS.193         	9.215          	4.902
MS.194         	9.198          	5.072
MS.195         	9.18           	4.761
MS.196         	9.16           	4.447
MS.197         	9.142          	4.238
MS.198         	9.125          	4.391
MS.199         	9.105          	4.216
MS.200         	9.087          	4.284
MS.201         	9.07           	4.022
MS.202         	9.052          	3.972
MS.203         	9.033          	3.825
MS.204         	9.015          	3.903
MS.205         	8.997          	3.537
MS.206         	8.98           	3.535
MS.207         	8.962          	3.327
MS.208         	8.943          	3.287
MS.209         	8.925          	3.422
MS.210         	8.908          	3.293
MS.211         	8.89           	3.239
MS.212         	8.872          	3.303
MS.213         	8.855          	2.818
MS.214         	8.837          	3.104
MS.215         	8.82           	2.8
MS.216         	8.802          	2.711
MS.217         	8.785          	2.637
MS.218         	8.767          	2.471
MS.219         	8.75           	2.208
MS.220         	8.733          	2.435
MS.221         	8.715          	2.276
MS.222         	8.698          	2.443
MS.223         	8.68           	2.336
MS.224         	8.662          	2.171
MS.225         	8.645          	2.038
MS.226         	8.627          	2.05
MS.227         	8.61           	2.02
MS.228         	8.592          	1.917
MS.229         	8.575          	1.897
MS.230         	8.557          	1.994
MS.231         	8.542          	1.873
MS.232         	8.525          	1.803
MS.233         	8.507          	1.72
MS.234         	8.49           	1.672
MS.235         	8.472          	1.537
MS.236         	8.457          	1.585
MS.237         	8.44           	1.64
MS.238         	8.422          	1.613
MS.239         	8.405          	1.484
MS.240         	8.39           	1.424
MS.241         	8.372          	1.458
MS.242         	8.355          	1.142
MS.243         	8.34           	1.233
MS.244         	8.323          	1.488
MS.245         	8.305          	1.164
MS.246         	8.29           	1.231
MS.247         	8.273          	1.247
MS.248         	8.255          	1.142
MS.249         	8.24           	1.287
MS.250         	8.222          	1.037
MS.251         	8.207          	1.055
MS.252         	8.19           	1.088
MS.253         	8.175          	1.011
MS.254         	8.158          	0.846
MS.255         	8.142          	0.949
MS.256         	8.125          	1.158
MS.257         	8.11           	0.808
MS.258         	8.092          	0.866
MS.259         	8.077          	0.707
MS.260         	8.06           	0.985
MS.261         	8.045          	0.8
MS.262         	8.028          	0.842
MS.263         	8.012          	0.761
MS.264         	7.995          	0.741
MS.265         	7.98           	0.729
MS.266         	7.965          	0.584
MS.267         	7.947          	0.58
MS.268         	7.932          	0.508
MS.269         	7.918          	0.582
MS.270         	7.9            	0.719
MS.271         	7.885          	0.576
MS.272         	7.87           	0.489
MS.273         	7.852          	0.495
MS.274         	7.837          	0.407
MS.275         	7.822          	0.54
MS.276         	7.807          	0.5
MS.277         	7.79           	0.387
MS.278         	7.775          	0.441
MS.279         	7.76           	0.441
MS.280         	7.745          	0.417
MS.281         	7.727          	0.487
MS.282         	7.712          	0.487
MS.283         	7.697          	0.379
MS.284         	7.682          	0.51
MS.285         	7.668          	0.469
MS.286         	7.652          	0.429
MS.287         	7.637          	0.445
MS.288         	7.622          	0.373
MS.289         	7.605          	0.399
MS.290         	7.59           	0.314
MS.291         	7.575          	0.324
MS.292         	7.56           	0.435
MS.293         	7.545          	0.502
MS.294         	7.53           	0.367
MS.295         	7.515          	0.389
MS.296         	7.5            	0.447
MS.297         	7.485          	0.373
MS.298         	7.47           	0.354
MS.299         	7.455          	0.421
MS.300         	7.44           	0.421
MS.301         	7.425          	0.421
MS.302         	7.41           	0.35
MS.303         	7.395          	0.375
MS.304         	7.382          	0.379
MS.305         	7.367          	0.371
MS.306         	7.352          	0.342
MS.307         	7.337          	0.391
MS.308         	7.322          	0.411
MS.309         	7.307          	0.369
MS.310         	7.293          	0.369
MS.311         	7.277          	0.383
MS.312         	7.265          	0.354
MS.313         	7.25           	0.383
MS.314         	7.235          	0.389
MS.315         	7.22           	0.3
MS.316         	7.205          	0.361
MS.317         	7.192          	0.421
MS.318         	7.177          	0.34
MS.319         	7.162          	0.385
MS.320         	7.15           	0.354
MS.321         	7.135          	0.369
MS.322         	7.12           	0.32
MS.323         	7.105          	0.35
MS.324         	7.092          	0.387
MS.325         	7.077          	0.403
MS.326         	7.062          	0.381
MS.327         	7.05           	0.385
MS.328         	7.035          	0.385
MS.329         	7.023          	0.33
MS.330         	7.007          	0.357
MS.331         	6.992          	0.344
MS.332         	6.98           	0.348
MS.333         	6.965          	0.348
MS.334         	6.952          	0.423
MS.335         	6.938          	0.365
MS.336         	6.922          	0.322
MS.337         	6.91           	0.397
MS.338         	6.895          	0.373
MS.339         	6.882          	0.407
MS.340         	6.867          	0.363
MS.341         	6.855          	0.361
MS.342         	6.84           	0.417
MS.343         	6.827          	0.403
MS.344         	6.815          	0.346
MS.345         	6.8            	0.346
MS.346         	6.787          	0.409
MS.347         	6.773          	0.334
MS.348         	6.76           	0.401
MS.349         	6.745          	0.338
MS.350         	6.733          	0.377
MS.351         	6.72           	0.387
MS.352         	6.705          	0.354
MS.353         	6.692          	0.363
MS.354         	6.68           	0.359
MS.355         	6.665          	0.407
MS.356         	6.652          	0.427
MS.357         	6.64           	0.379
MS.358         	6.625          	0.421
MS.359         	6.612          	0.377
MS.360         	6.6            	0.375
MS.361         	6.585          	0.377
MS.362         	6.572          	0.379
MS.363         	6.56           	0.457
MS.364         	6.547          	0.445
MS.365         	6.532          	0.395
MS.366         	6.52           	0.387
MS.367         	6.507          	0.383
MS.368         	6.495          	0.359
MS.369         	6.483          	0.385
MS.370         	6.467          	0.387
MS.371         	6.455          	0.377
MS.372         	6.442          	0.395
MS.373         	6.43           	0.441
MS.374         	6.418          	0.332
MS.375         	6.405          	0.441
MS.376         	6.392          	0.383
MS.377         	6.378          	0.389
MS.378         	6.365          	0.379
MS.379         	6.352          	0.348
MS.380         	6.34           	0.383
MS.381         	6.327          	0.395
MS.382         	6.315          	0.405
MS.383         	6.302          	0.381
MS.384         	6.29           	0.381
MS.385         	6.277          	0.399
MS.386         	6.265          	0.391
MS.387         	6.253          	0.395
MS.388         	6.24           	0.365
MS.389         	6.227          	0.415
MS.390         	6.215          	0.395
MS.391         	6.202          	0.407
MS.392         	6.19           	0.397
MS.393         	6.177          	0.371
MS.394         	6.165          	0.381
MS.395         	6.152          	0.395
MS.396         	6.14           	0.405
MS.397         	6.128          	0.389
MS.398         	6.115          	0.407
MS.399         	6.105          	0.435
MS.400         	6.092          	0.393
MS.401         	6.08           	0.379
MS.402         	6.067          	0.393
MS.403         	6.055          	0.397
MS.404         	6.043          	0.383
MS.405         	6.03           	0.397
MS.406         	6.02           	0.383
MS.407         	6.007          	0.411
MS.408         	5.995          	0.377
MS.409         	5.983          	0.383
MS.410         	5.97           	0.405
MS.411         	5.96           	0.445
MS.412         	5.947          	0.371
MS.413         	5.935          	0.455
MS.414         	5.922          	0.401
MS.415         	5.912          	0.381
MS.416         	5.9            	0.419
MS.417         	5.887          	0.467
MS.418         	5.878          	0.294
MS.419         	5.865          	0.292
MS.420         	5.852          	0.338
MS.421         	5.842          	0.411
MS.422         	5.83           	0.425
MS.423         	5.817          	0.318
MS.424         	5.807          	0.375
MS.425         	5.795          	0.415
MS.426         	5.782          	0.417
MS.427         	5.773          	0.306
MS.428         	5.76           	0.332
MS.429         	5.747          	0.296
MS.430         	5.737          	0.342
MS.431         	5.725          	0.322
MS.432         	5.715          	0.35
MS.433         	5.702          	0.304
MS.434         	5.692          	0.334
MS.435         	5.68           	0.324
MS.436         	5.668          	0.304
MS.437         	5.657          	0.278
MS.438         	5.645          	0.316
MS.439         	5.635          	0.312
MS.440         	5.622          	0.304
MS.441         	5.612          	0.338
MS.442         	5.6            	0.304
MS.443         	5.59           	0.32
MS.444         	5.577          	0.294
MS.445         	5.567          	0.312
MS.446         	5.557          	0.31
MS.447         	5.545          	0.292
MS.448         	5.535          	0.332
MS.449         	5.523          	0.308
MS.450         	5.512          	0.332
MS.451         	5.5            	0.31
MS.452         	5.49           	0.296
MS.453         	5.48           	0.35
MS.454         	5.467          	0.294
MS.455         	5.457          	0.318
MS.456         	5.447          	0.308
MS.457         	5.435          	0.332
MS.458         	5.425          	0.282
MS.459         	5.415          	0.288
MS.460         	5.402          	0.334
MS.461         	5.392          	0.324
MS.462         	5.382          	0.373
MS.463         	5.37           	0.33
MS.464         	5.36           	0.328
MS.465         	5.35           	0.318
MS.466         	5.338          	0.316
MS.467         	5.327          	0.296
MS.468         	5.318          	0.326
MS.469         	5.307          	0.336
MS.470         	5.295          	0.316
MS.471         	5.285          	0.363
MS.472         	5.275          	0.361
MS.473         	5.265          	0.359
MS.474         	5.255          	0.288
MS.475         	5.242          	0.306
MS.476         	5.233          	0.252
MS.477         	5.222          	0.314
MS.478         	5.213          	0.332
MS.479         	5.202          	0.298
MS.480         	5.19           	0.322
MS.481         	5.18           	0.316
MS.482         	5.17           	0.322
MS.483         	5.16           	0.328
MS.484         	5.15           	0.342
MS.485         	5.14           	0.318
MS.486         	5.13           	0.3
MS.487         	5.12           	0.284
MS.488         	5.108          	0.314
MS.489         	5.097          	0.326
MS.490         	5.088          	0.306
MS.491         	5.077          	0.298
MS.492         	5.068          	0.312
MS.493         	5.057          	0.334
MS.494         	5.047          	0.326
MS.495         	5.037          	0.324
MS.496         	5.027          	0.371
MS.497         	5.017          	0.3
