File:              	C:\Qtrac\Data\Daniel M Sørensen\MScan multicentre study\Data from centres\Odense\Processed data\TKC01014B (2).QZD
Name:              	DK.ODE.NC.6.1
Protocol:          	MSCAN-R2
Date:              	14/10/20
Start time:        	13:38:21
Age:               	50
Sex:               	F
Temperature:       	31.4
S/R sites:         	ADM
NC/disease:        	NC
Operator:          	TK
Comments:
M-SCAN DATA (7.7-0.6m)
Scanpts: 136, 144, 734, 755
Stim. (mA)     	Amp. (mV)
MS.1           	18             	10.711
MS.2           	18             	10.657
MS.3           	18             	10.754
MS.4           	18             	10.695
MS.5           	18             	10.713
MS.6           	18             	10.586
MS.7           	18             	10.651
MS.8           	18             	10.744
MS.9           	18             	10.707
MS.10          	18             	10.733
MS.11          	18             	10.756
MS.12          	18             	10.77
MS.13          	18             	10.758
MS.14          	18             	10.8
MS.15          	18             	10.784
MS.16          	18             	10.733
MS.17          	18             	10.729
MS.18          	18             	10.742
MS.19          	18             	10.727
MS.20          	18             	10.699
MS.21          	18             	10.725
MS.22          	18             	10.709
MS.23          	17.927         	10.671
MS.24          	17.892         	10.737
MS.25          	17.858         	10.637
MS.26          	17.82          	10.742
MS.27          	17.785         	10.748
MS.28          	17.75          	10.697
MS.29          	17.715         	10.679
MS.30          	17.68          	10.655
MS.31          	17.642         	10.705
MS.32          	17.608         	10.689
MS.33          	17.573         	10.663
MS.34          	17.538         	10.687
MS.35          	17.503         	10.623
MS.36          	17.467         	10.673
MS.37          	17.432         	10.685
MS.38          	17.397         	10.717
MS.39          	17.362         	10.705
MS.40          	17.33          	10.679
MS.41          	17.295         	10.717
MS.42          	17.26          	10.705
MS.43          	17.225         	10.611
MS.44          	17.19          	10.679
MS.45          	17.157         	10.687
MS.46          	17.122         	10.723
MS.47          	17.087         	10.663
MS.48          	17.052         	10.701
MS.49          	17.02          	10.643
MS.50          	16.985         	10.655
MS.51          	16.952         	10.653
MS.52          	16.917         	10.619
MS.53          	16.885         	10.655
MS.54          	16.85          	10.691
MS.55          	16.817         	10.721
MS.56          	16.782         	10.683
MS.57          	16.75          	10.655
MS.58          	16.715         	10.635
MS.59          	16.682         	10.639
MS.60          	16.65          	10.715
MS.61          	16.615         	10.667
MS.62          	16.583         	10.669
MS.63          	16.55          	10.727
MS.64          	16.517         	10.707
MS.65          	16.483         	10.717
MS.66          	16.45          	10.641
MS.67          	16.417         	10.637
MS.68          	16.385         	10.711
MS.69          	16.352         	10.715
MS.70          	16.32          	10.715
MS.71          	16.288         	10.673
MS.72          	16.255         	10.685
MS.73          	16.222         	10.635
MS.74          	16.19          	10.729
MS.75          	16.157         	10.697
MS.76          	16.125         	10.653
MS.77          	16.092         	10.695
MS.78          	16.06          	10.756
MS.79          	16.028         	10.721
MS.80          	15.997         	10.735
MS.81          	15.965         	10.683
MS.82          	15.932         	10.687
MS.83          	15.9           	10.685
MS.84          	15.87          	10.737
MS.85          	15.837         	10.723
MS.86          	15.805         	10.727
MS.87          	15.775         	10.635
MS.88          	15.742         	10.742
MS.89          	15.71          	10.675
MS.90          	15.68          	10.768
MS.91          	15.648         	10.709
MS.92          	15.617         	10.663
MS.93          	15.585         	10.733
MS.94          	15.555         	10.673
MS.95          	15.523         	10.733
MS.96          	15.492         	10.721
MS.97          	15.462         	10.717
MS.98          	15.43          	10.737
MS.99          	15.4           	10.715
MS.100         	15.37          	10.715
MS.101         	15.337         	10.719
MS.102         	15.307         	10.691
MS.103         	15.277         	10.693
MS.104         	15.247         	10.639
MS.105         	15.217         	10.776
MS.106         	15.185         	10.617
MS.107         	15.155         	10.697
MS.108         	15.125         	10.641
MS.109         	15.095         	10.594
MS.110         	15.065         	10.719
MS.111         	15.035         	10.691
MS.112         	15.005         	10.729
MS.113         	14.975         	10.649
MS.114         	14.945         	10.683
MS.115         	14.915         	10.723
MS.116         	14.885         	10.697
MS.117         	14.855         	10.691
MS.118         	14.825         	10.723
MS.119         	14.795         	10.744
MS.120         	14.767         	10.661
MS.121         	14.737         	10.671
MS.122         	14.707         	10.691
MS.123         	14.677         	10.758
MS.124         	14.65          	10.772
MS.125         	14.62          	10.721
MS.126         	14.59          	10.854
MS.127         	14.562         	10.681
MS.128         	14.532         	10.653
MS.129         	14.502         	10.796
MS.130         	14.475         	10.826
MS.131         	14.445         	10.784
MS.132         	14.417         	10.784
MS.133         	14.387         	10.725
MS.134         	14.36          	10.81
MS.135         	14.33          	10.8
MS.136         	14.302         	10.788
MS.137         	14.273         	10.74
MS.138         	14.245         	10.713
MS.139         	14.215         	10.746
MS.140         	14.188         	10.715
MS.141         	14.16          	10.774
MS.142         	14.13          	10.776
MS.143         	14.102         	10.76
MS.144         	14.075         	10.721
MS.145         	14.047         	10.699
MS.146         	14.017         	10.744
MS.147         	13.99          	10.744
MS.148         	13.962         	10.772
MS.149         	13.935         	10.756
MS.150         	13.907         	10.713
MS.151         	13.88          	10.655
MS.152         	13.85          	10.649
MS.153         	13.822         	10.707
MS.154         	13.795         	10.699
MS.155         	13.767         	10.659
MS.156         	13.74          	10.74
MS.157         	13.712         	10.687
MS.158         	13.685         	10.689
MS.159         	13.657         	10.673
MS.160         	13.632         	10.627
MS.161         	13.605         	10.689
MS.162         	13.577         	10.651
MS.163         	13.55          	10.699
MS.164         	13.523         	10.637
MS.165         	13.495         	10.645
MS.166         	13.467         	10.647
MS.167         	13.443         	10.677
MS.168         	13.415         	10.574
MS.169         	13.387         	10.679
MS.170         	13.362         	10.651
MS.171         	13.335         	10.699
MS.172         	13.307         	10.655
MS.173         	13.282         	10.671
MS.174         	13.255         	10.691
MS.175         	13.227         	10.689
MS.176         	13.202         	10.653
MS.177         	13.175         	10.643
MS.178         	13.15          	10.572
MS.179         	13.122         	10.584
MS.180         	13.097         	10.641
MS.181         	13.07          	10.635
MS.182         	13.045         	10.574
MS.183         	13.017         	10.599
MS.184         	12.992         	10.677
MS.185         	12.967         	10.574
MS.186         	12.94          	10.619
MS.187         	12.915         	10.605
MS.188         	12.89          	10.588
MS.189         	12.862         	10.544
MS.190         	12.837         	10.544
MS.191         	12.812         	10.609
MS.192         	12.785         	10.464
MS.193         	12.76          	10.476
MS.194         	12.735         	10.576
MS.195         	12.71          	10.449
MS.196         	12.685         	10.548
MS.197         	12.66          	10.399
MS.198         	12.632         	10.429
MS.199         	12.608         	10.466
MS.200         	12.582         	10.544
MS.201         	12.557         	10.53
MS.202         	12.532         	10.462
MS.203         	12.507         	10.55
MS.204         	12.483         	10.601
MS.205         	12.457         	10.657
MS.206         	12.432         	10.447
MS.207         	12.407         	10.566
MS.208         	12.382         	10.562
MS.209         	12.36          	10.586
MS.210         	12.335         	10.429
MS.211         	12.31          	10.56
MS.212         	12.285         	10.548
MS.213         	12.26          	10.46
MS.214         	12.235         	10.56
MS.215         	12.212         	10.439
MS.216         	12.188         	10.548
MS.217         	12.162         	10.365
MS.218         	12.137         	10.49
MS.219         	12.115         	10.451
MS.220         	12.09          	10.429
MS.221         	12.065         	10.49
MS.222         	12.042         	10.451
MS.223         	12.017         	10.31
MS.224         	11.992         	10.329
MS.225         	11.97          	10.399
MS.226         	11.945         	10.333
MS.227         	11.922         	10.359
MS.228         	11.898         	10.31
MS.229         	11.875         	10.232
MS.230         	11.85          	10.31
MS.231         	11.827         	10.214
MS.232         	11.802         	10.359
MS.233         	11.78          	10.341
MS.234         	11.755         	10.248
MS.235         	11.733         	10.238
MS.236         	11.71          	10.178
MS.237         	11.685         	10.272
MS.238         	11.662         	9.99
MS.239         	11.64          	10.127
MS.240         	11.615         	10.055
MS.241         	11.592         	10.087
MS.242         	11.57          	10.202
MS.243         	11.547         	10.107
MS.244         	11.523         	10.244
MS.245         	11.5           	9.93
MS.246         	11.477         	10.073
MS.247         	11.455         	10.071
MS.248         	11.432         	10.016
MS.249         	11.407         	10.043
MS.250         	11.385         	10.079
MS.251         	11.363         	9.769
MS.252         	11.34          	10.008
MS.253         	11.318         	9.9
MS.254         	11.295         	9.94
MS.255         	11.273         	9.74
MS.256         	11.25          	9.783
MS.257         	11.227         	9.896
MS.258         	11.205         	9.606
MS.259         	11.182         	9.642
MS.260         	11.16          	9.521
MS.261         	11.137         	9.545
MS.262         	11.115         	9.593
MS.263         	11.092         	9.646
MS.264         	11.073         	9.164
MS.265         	11.05          	9.573
MS.266         	11.028         	9.505
MS.267         	11.005         	9.301
MS.268         	10.983         	9.745
MS.269         	10.962         	9.263
MS.270         	10.94          	9.531
MS.271         	10.917         	9.257
MS.272         	10.895         	9.39
MS.273         	10.875         	8.985
MS.274         	10.852         	9.285
MS.275         	10.83          	9.191
MS.276         	10.81          	9.046
MS.277         	10.787         	9.162
MS.278         	10.765         	8.915
MS.279         	10.745         	9.116
MS.280         	10.722         	8.882
MS.281         	10.702         	9.106
MS.282         	10.68          	8.558
MS.283         	10.657         	8.874
MS.284         	10.637         	8.661
MS.285         	10.615         	8.78
MS.286         	10.595         	8.427
MS.287         	10.573         	8.369
MS.288         	10.552         	8.476
MS.289         	10.532         	8.173
MS.290         	10.51          	8.596
MS.291         	10.49          	7.99
MS.292         	10.467         	8.022
MS.293         	10.448         	7.944
MS.294         	10.427         	7.881
MS.295         	10.405         	7.958
MS.296         	10.385         	7.67
MS.297         	10.365         	7.684
MS.298         	10.342         	7.684
MS.299         	10.323         	7.565
MS.300         	10.302         	7.481
MS.301         	10.282         	7.348
MS.302         	10.26          	7.344
MS.303         	10.24          	7.096
MS.304         	10.22          	7.491
MS.305         	10.2           	6.683
MS.306         	10.18          	7.084
MS.307         	10.16          	7.076
MS.308         	10.14          	7.112
MS.309         	10.117         	7.213
MS.310         	10.097         	7.283
MS.311         	10.077         	6.598
MS.312         	10.057         	6.721
MS.313         	10.037         	6.427
MS.314         	10.017         	6.427
MS.315         	9.997          	6.27
MS.316         	9.977          	6.214
MS.317         	9.957          	6.427
MS.318         	9.938          	5.992
MS.319         	9.917          	6.151
MS.320         	9.898          	5.918
MS.321         	9.877          	5.702
MS.322         	9.86           	6.198
MS.323         	9.84           	5.611
MS.324         	9.82           	5.845
MS.325         	9.8            	5.658
MS.326         	9.78           	5.521
MS.327         	9.76           	5.362
MS.328         	9.74           	5.634
MS.329         	9.722          	5.356
MS.330         	9.702          	5.462
MS.331         	9.682          	5.424
MS.332         	9.662          	4.77
MS.333         	9.645          	4.923
MS.334         	9.625          	4.62
MS.335         	9.605          	4.969
MS.336         	9.587          	4.808
MS.337         	9.568          	4.689
MS.338         	9.547          	4.324
MS.339         	9.53           	4.681
MS.340         	9.51           	4.643
MS.341         	9.49           	4.417
MS.342         	9.472          	4.193
MS.343         	9.452          	4.099
MS.344         	9.435          	3.974
MS.345         	9.415          	3.966
MS.346         	9.398          	4.159
MS.347         	9.377          	3.831
MS.348         	9.36           	4.018
MS.349         	9.34           	3.827
MS.350         	9.323          	3.593
MS.351         	9.302          	3.666
MS.352         	9.285          	3.211
MS.353         	9.265          	3.762
MS.354         	9.247          	3.672
MS.355         	9.23           	3.601
MS.356         	9.21           	3.231
MS.357         	9.193          	3.344
MS.358         	9.175          	3.253
MS.359         	9.155          	3.257
MS.360         	9.137          	3.233
MS.361         	9.12           	3.396
MS.362         	9.1            	3.476
MS.363         	9.082          	2.933
MS.364         	9.065          	3.066
MS.365         	9.047          	2.937
MS.366         	9.028          	2.87
MS.367         	9.01           	2.955
MS.368         	8.992          	2.971
MS.369         	8.975          	2.765
MS.370         	8.957          	2.647
MS.371         	8.938          	2.683
MS.372         	8.92           	2.713
MS.373         	8.903          	2.544
MS.374         	8.885          	2.757
MS.375         	8.867          	2.469
MS.376         	8.85           	2.399
MS.377         	8.832          	2.375
MS.378         	8.815          	2.316
MS.379         	8.797          	2.405
MS.380         	8.78           	2.23
MS.381         	8.762          	2.473
MS.382         	8.745          	2.185
MS.383         	8.727          	2.135
MS.384         	8.71           	2.089
MS.385         	8.693          	2.185
MS.386         	8.675          	2.187
MS.387         	8.658          	2.135
MS.388         	8.64           	2.062
MS.389         	8.622          	2.04
MS.390         	8.605          	2.01
MS.391         	8.587          	2.135
MS.392         	8.57           	1.915
MS.393         	8.552          	1.934
MS.394         	8.537          	2.022
MS.395         	8.52           	1.978
MS.396         	8.502          	1.869
MS.397         	8.485          	1.809
MS.398         	8.467          	1.805
MS.399         	8.452          	1.732
MS.400         	8.435          	1.742
MS.401         	8.417          	1.64
MS.402         	8.4            	1.75
MS.403         	8.385          	1.529
MS.404         	8.367          	1.656
MS.405         	8.35           	1.72
MS.406         	8.335          	1.386
MS.407         	8.318          	1.698
MS.408         	8.3            	1.664
MS.409         	8.285          	1.364
MS.410         	8.267          	1.41
MS.411         	8.252          	1.605
MS.412         	8.235          	1.291
MS.413         	8.217          	1.285
MS.414         	8.202          	1.265
MS.415         	8.185          	1.261
MS.416         	8.17           	1.464
MS.417         	8.153          	1.46
MS.418         	8.137          	1.281
MS.419         	8.12           	1.223
MS.420         	8.105          	1.223
MS.421         	8.087          	1.241
MS.422         	8.073          	1.237
MS.423         	8.055          	1.267
MS.424         	8.04           	1.289
MS.425         	8.023          	1.202
MS.426         	8.007          	1.17
MS.427         	7.992          	1.206
MS.428         	7.975          	1.136
MS.429         	7.96           	1.172
MS.430         	7.942          	1.128
MS.431         	7.927          	1.063
MS.432         	7.912          	1.12
MS.433         	7.895          	1.041
MS.434         	7.88           	1.084
MS.435         	7.865          	1.114
MS.436         	7.85           	1.061
MS.437         	7.832          	1.084
MS.438         	7.817          	1.07
MS.439         	7.802          	0.953
MS.440         	7.787          	1.078
MS.441         	7.77           	0.979
MS.442         	7.755          	1.072
MS.443         	7.74           	0.955
MS.444         	7.725          	0.985
MS.445         	7.71           	0.953
MS.446         	7.692          	0.862
MS.447         	7.677          	0.935
MS.448         	7.662          	0.957
MS.449         	7.648          	0.888
MS.450         	7.632          	0.872
MS.451         	7.617          	0.876
MS.452         	7.602          	0.739
MS.453         	7.587          	0.802
MS.454         	7.572          	0.816
MS.455         	7.555          	0.86
MS.456         	7.54           	0.759
MS.457         	7.525          	0.755
MS.458         	7.51           	0.649
MS.459         	7.495          	0.826
MS.460         	7.48           	0.721
MS.461         	7.465          	0.777
MS.462         	7.45           	0.743
MS.463         	7.438          	0.729
MS.464         	7.422          	0.723
MS.465         	7.407          	0.729
MS.466         	7.392          	0.651
MS.467         	7.378          	0.697
MS.468         	7.362          	0.679
MS.469         	7.347          	0.713
MS.470         	7.332          	0.727
MS.471         	7.317          	0.641
MS.472         	7.302          	0.719
MS.473         	7.29           	0.699
MS.474         	7.275          	0.723
MS.475         	7.26           	0.703
MS.476         	7.245          	0.681
MS.477         	7.23           	0.665
MS.478         	7.217          	0.638
MS.479         	7.202          	0.675
MS.480         	7.188          	0.671
MS.481         	7.172          	0.564
MS.482         	7.16           	0.612
MS.483         	7.145          	0.675
MS.484         	7.13           	0.588
MS.485         	7.115          	0.566
MS.486         	7.102          	0.576
MS.487         	7.087          	0.598
MS.488         	7.072          	0.632
MS.489         	7.06           	0.634
MS.490         	7.045          	0.534
MS.491         	7.032          	0.576
MS.492         	7.017          	0.634
MS.493         	7.003          	0.459
MS.494         	6.99           	0.606
