File:              	C:\Qtrac\Data\Daniel M Sørensen\MScan multicentre study\Data from centres\Odense\Processed data\TKC01021B.QZD
Name:              	DK.ODE.NC.6.2
Protocol:          	MSCAN-R2
Date:              	21/10/20
Start time:        	11:38:14
Age:               	50
Sex:               	F
Temperature:       	31.9
S/R sites:         	ADM
NC/disease:        	NC
Operator:          	TK
Comments:
M-SCAN DATA (10.2-0.7m)
Scanpts: 83, 91, 750, 760
Stim. (mA)     	Amp. (mV)
MS.1           	24             	9.444
MS.2           	24             	9.444
MS.3           	23.905         	9.38
MS.4           	23.858         	9.446
MS.5           	23.807         	9.37
MS.6           	23.76          	9.456
MS.7           	23.712         	9.338
MS.8           	23.665         	9.39
MS.9           	23.62          	9.418
MS.10          	23.573         	9.432
MS.11          	23.525         	9.39
MS.12          	23.477         	9.394
MS.13          	23.43          	9.442
MS.14          	23.385         	9.376
MS.15          	23.337         	9.458
MS.16          	23.29          	9.372
MS.17          	23.245         	9.366
MS.18          	23.198         	9.412
MS.19          	23.153         	9.402
MS.20          	23.105         	9.356
MS.21          	23.06          	9.473
MS.22          	23.012         	9.469
MS.23          	22.967         	9.448
MS.24          	22.92          	9.388
MS.25          	22.875         	9.348
MS.26          	22.83          	9.406
MS.27          	22.785         	9.33
MS.28          	22.737         	9.366
MS.29          	22.692         	9.301
MS.30          	22.647         	9.251
MS.31          	22.602         	9.43
MS.32          	22.557         	9.386
MS.33          	22.512         	9.344
MS.34          	22.467         	9.392
MS.35          	22.422         	9.34
MS.36          	22.377         	9.384
MS.37          	22.332         	9.454
MS.38          	22.288         	9.382
MS.39          	22.243         	9.402
MS.40          	22.2           	9.374
MS.41          	22.155         	9.384
MS.42          	22.11          	9.39
MS.43          	22.067         	9.392
MS.44          	22.022         	9.43
MS.45          	21.977         	9.392
MS.46          	21.935         	9.301
MS.47          	21.89          	9.271
MS.48          	21.847         	9.336
MS.49          	21.802         	9.318
MS.50          	21.76          	9.32
MS.51          	21.715         	9.396
MS.52          	21.672         	9.384
MS.53          	21.63          	9.533
MS.54          	21.585         	9.479
MS.55          	21.542         	9.461
MS.56          	21.5           	9.481
MS.57          	21.458         	9.537
MS.58          	21.415         	9.551
MS.59          	21.372         	9.461
MS.60          	21.327         	9.489
MS.61          	21.285         	9.509
MS.62          	21.243         	9.539
MS.63          	21.2           	9.509
MS.64          	21.157         	9.501
MS.65          	21.118         	9.499
MS.66          	21.075         	9.499
MS.67          	21.032         	9.537
MS.68          	20.99          	9.545
MS.69          	20.948         	9.471
MS.70          	20.907         	9.533
MS.71          	20.865         	9.616
MS.72          	20.823         	9.585
MS.73          	20.78          	9.547
MS.74          	20.74          	9.579
MS.75          	20.698         	9.567
MS.76          	20.657         	9.469
MS.77          	20.615         	9.44
MS.78          	20.575         	9.511
MS.79          	20.532         	9.477
MS.80          	20.493         	9.499
MS.81          	20.452         	9.513
MS.82          	20.41          	9.527
MS.83          	20.37          	9.527
MS.84          	20.33          	9.545
MS.85          	20.288         	9.531
MS.86          	20.247         	9.565
MS.87          	20.208         	9.489
MS.88          	20.167         	9.533
MS.89          	20.127         	9.557
MS.90          	20.087         	9.553
MS.91          	20.047         	9.495
MS.92          	20.007         	9.555
MS.93          	19.967         	9.555
MS.94          	19.927         	9.467
MS.95          	19.887         	9.372
MS.96          	19.847         	9.539
MS.97          	19.807         	9.493
MS.98          	19.767         	9.533
MS.99          	19.727         	9.515
MS.100         	19.69          	9.533
MS.101         	19.65          	9.529
MS.102         	19.61          	9.499
MS.103         	19.57          	9.656
MS.104         	19.532         	9.479
MS.105         	19.493         	9.531
MS.106         	19.455         	9.497
MS.107         	19.415         	9.491
MS.108         	19.377         	9.463
MS.109         	19.337         	9.442
MS.110         	19.3           	9.428
MS.111         	19.26          	9.491
MS.112         	19.222         	9.428
MS.113         	19.182         	9.404
MS.114         	19.145         	9.44
MS.115         	19.108         	9.444
MS.116         	19.067         	9.406
MS.117         	19.03          	9.388
MS.118         	18.993         	9.404
MS.119         	18.955         	9.428
MS.120         	18.917         	9.39
MS.121         	18.88          	9.442
MS.122         	18.842         	9.368
MS.123         	18.802         	9.358
MS.124         	18.765         	9.348
MS.125         	18.727         	9.38
MS.126         	18.69          	9.354
MS.127         	18.655         	9.434
MS.128         	18.618         	9.461
MS.129         	18.58          	9.386
MS.130         	18.542         	9.356
MS.131         	18.505         	9.378
MS.132         	18.467         	9.392
MS.133         	18.432         	9.38
MS.134         	18.395         	9.414
MS.135         	18.358         	9.414
MS.136         	18.32          	9.324
MS.137         	18.285         	9.392
MS.138         	18.247         	9.386
MS.139         	18.212         	9.344
MS.140         	18.175         	9.348
MS.141         	18.137         	9.358
MS.142         	18.102         	9.388
MS.143         	18.067         	9.376
MS.144         	18.03          	9.352
MS.145         	17.995         	9.414
MS.146         	17.958         	9.408
MS.147         	17.922         	9.374
MS.148         	17.887         	9.386
MS.149         	17.85          	9.412
MS.150         	17.815         	9.434
MS.151         	17.78          	9.358
MS.152         	17.745         	9.388
MS.153         	17.708         	9.456
MS.154         	17.672         	9.426
MS.155         	17.637         	9.382
MS.156         	17.602         	9.444
MS.157         	17.567         	9.414
MS.158         	17.532         	9.424
MS.159         	17.497         	9.432
MS.160         	17.462         	9.4
MS.161         	17.427         	9.424
MS.162         	17.392         	9.481
MS.163         	17.358         	9.519
MS.164         	17.323         	9.473
MS.165         	17.288         	9.438
MS.166         	17.255         	9.402
MS.167         	17.22          	9.452
MS.168         	17.185         	9.32
MS.169         	17.15          	9.422
MS.170         	17.118         	9.42
MS.171         	17.083         	9.444
MS.172         	17.047         	9.442
MS.173         	17.015         	9.408
MS.174         	16.98          	9.326
MS.175         	16.948         	9.469
MS.176         	16.913         	9.394
MS.177         	16.878         	9.428
MS.178         	16.845         	9.426
MS.179         	16.812         	9.446
MS.180         	16.778         	9.328
MS.181         	16.745         	9.44
MS.182         	16.71          	9.332
MS.183         	16.677         	9.281
MS.184         	16.645         	9.328
MS.185         	16.61          	9.245
MS.186         	16.577         	9.189
MS.187         	16.545         	9.261
MS.188         	16.512         	9.179
MS.189         	16.477         	9.237
MS.190         	16.445         	9.154
MS.191         	16.413         	9.05
MS.192         	16.38          	9.112
MS.193         	16.347         	9.16
MS.194         	16.315         	9.08
MS.195         	16.282         	9.052
MS.196         	16.25          	9.156
MS.197         	16.217         	9.118
MS.198         	16.185         	9.036
MS.199         	16.153         	9.11
MS.200         	16.12          	9.11
MS.201         	16.087         	9.144
MS.202         	16.055         	9.042
MS.203         	16.022         	9.138
MS.204         	15.992         	9.088
MS.205         	15.96          	9.044
MS.206         	15.927         	9.056
MS.207         	15.895         	8.969
MS.208         	15.865         	9.094
MS.209         	15.832         	9.072
MS.210         	15.8           	8.987
MS.211         	15.77          	9.122
MS.212         	15.737         	9.036
MS.213         	15.705         	9.023
MS.214         	15.675         	8.927
MS.215         	15.642         	9.08
MS.216         	15.612         	8.995
MS.217         	15.58          	9.04
MS.218         	15.55          	9.017
MS.219         	15.52          	8.999
MS.220         	15.487         	9.086
MS.221         	15.457         	9.054
MS.222         	15.425         	8.979
MS.223         	15.395         	8.957
MS.224         	15.365         	8.997
MS.225         	15.332         	8.933
MS.226         	15.302         	9.116
MS.227         	15.273         	8.983
MS.228         	15.242         	8.991
MS.229         	15.212         	8.925
MS.230         	15.18          	8.949
MS.231         	15.15          	8.957
MS.232         	15.12          	8.971
MS.233         	15.09          	8.866
MS.234         	15.06          	8.872
MS.235         	15.03          	8.905
MS.236         	15             	9.027
MS.237         	14.97          	8.917
MS.238         	14.94          	8.903
MS.239         	14.91          	8.788
MS.240         	14.88          	8.741
MS.241         	14.85          	8.878
MS.242         	14.82          	8.862
MS.243         	14.792         	8.897
MS.244         	14.762         	8.814
MS.245         	14.733         	8.931
MS.246         	14.702         	8.808
MS.247         	14.672         	8.739
MS.248         	14.645         	8.695
MS.249         	14.615         	8.762
MS.250         	14.585         	8.747
MS.251         	14.557         	8.655
MS.252         	14.527         	8.695
MS.253         	14.497         	8.713
MS.254         	14.47          	8.719
MS.255         	14.44          	8.667
MS.256         	14.412         	8.627
MS.257         	14.382         	8.713
MS.258         	14.355         	8.596
MS.259         	14.325         	8.542
MS.260         	14.297         	8.403
MS.261         	14.267         	8.306
MS.262         	14.24          	8.494
MS.263         	14.212         	8.288
MS.264         	14.182         	8.447
MS.265         	14.155         	8.304
MS.266         	14.127         	8.294
MS.267         	14.097         	8.306
MS.268         	14.07          	8.294
MS.269         	14.042         	8.103
MS.270         	14.015         	8.026
MS.271         	13.985         	8.177
MS.272         	13.957         	8.153
MS.273         	13.93          	8.18
MS.274         	13.903         	7.942
MS.275         	13.875         	8.234
MS.276         	13.847         	8.111
MS.277         	13.82          	7.974
MS.278         	13.792         	7.962
MS.279         	13.765         	7.998
MS.280         	13.737         	8.002
MS.281         	13.71          	8.143
MS.282         	13.682         	7.851
MS.283         	13.655         	7.869
MS.284         	13.627         	7.982
MS.285         	13.6           	7.97
MS.286         	13.572         	7.809
MS.287         	13.545         	7.918
MS.288         	13.517         	7.948
MS.289         	13.492         	7.912
MS.290         	13.465         	7.944
MS.291         	13.438         	7.855
MS.292         	13.41          	7.926
MS.293         	13.385         	7.932
MS.294         	13.358         	7.938
MS.295         	13.33          	7.875
MS.296         	13.305         	7.831
MS.297         	13.278         	7.839
MS.298         	13.25          	7.765
MS.299         	13.225         	7.757
MS.300         	13.197         	7.861
MS.301         	13.172         	7.916
MS.302         	13.145         	7.843
MS.303         	13.12          	7.898
MS.304         	13.092         	7.755
MS.305         	13.068         	7.904
MS.306         	13.04          	7.783
MS.307         	13.015         	7.65
MS.308         	12.987         	7.714
MS.309         	12.962         	7.676
MS.310         	12.938         	7.783
MS.311         	12.91          	7.7
MS.312         	12.885         	7.678
MS.313         	12.86          	7.551
MS.314         	12.832         	7.559
MS.315         	12.807         	7.44
MS.316         	12.782         	7.644
MS.317         	12.757         	7.654
MS.318         	12.73          	7.567
MS.319         	12.705         	7.42
MS.320         	12.68          	7.489
MS.321         	12.655         	7.515
MS.322         	12.63          	7.394
MS.323         	12.605         	7.34
MS.324         	12.58          	7.281
MS.325         	12.555         	7.195
MS.326         	12.53          	7.039
MS.327         	12.505         	7.118
MS.328         	12.48          	7.166
MS.329         	12.455         	7.056
MS.330         	12.43          	7.118
MS.331         	12.405         	6.963
MS.332         	12.38          	6.798
MS.333         	12.355         	7.015
MS.334         	12.33          	6.598
MS.335         	12.305         	6.774
MS.336         	12.28          	6.55
MS.337         	12.257         	6.526
MS.338         	12.233         	6.371
MS.339         	12.207         	6.715
MS.340         	12.182         	6.276
MS.341         	12.16          	6.391
MS.342         	12.135         	6.179
MS.343         	12.11          	6.48
MS.344         	12.085         	6.314
MS.345         	12.062         	6.113
MS.346         	12.037         	6.01
MS.347         	12.012         	5.954
MS.348         	11.99          	6.238
MS.349         	11.965         	5.992
MS.350         	11.943         	6.083
MS.351         	11.917         	5.982
MS.352         	11.895         	5.934
MS.353         	11.87          	5.781
MS.354         	11.847         	5.976
MS.355         	11.822         	5.891
MS.356         	11.8           	5.771
MS.357         	11.775         	5.69
MS.358         	11.752         	5.688
MS.359         	11.73          	5.704
MS.360         	11.705         	5.843
MS.361         	11.682         	5.553
MS.362         	11.657         	5.692
MS.363         	11.635         	5.521
MS.364         	11.613         	5.414
MS.365         	11.59          	5.62
MS.366         	11.565         	5.106
MS.367         	11.542         	5.027
MS.368         	11.52          	5.056
MS.369         	11.497         	5.035
MS.370         	11.472         	4.896
MS.371         	11.45          	5.275
MS.372         	11.427         	4.927
MS.373         	11.405         	4.745
MS.374         	11.382         	4.786
MS.375         	11.36          	4.596
MS.376         	11.337         	4.677
MS.377         	11.315         	4.834
MS.378         	11.292         	4.667
MS.379         	11.27          	4.54
MS.380         	11.247         	4.633
MS.381         	11.225         	4.256
MS.382         	11.202         	4.461
MS.383         	11.18          	4.389
MS.384         	11.157         	4.441
MS.385         	11.135         	4.332
MS.386         	11.113         	4.316
MS.387         	11.09          	4.167
MS.388         	11.068         	3.932
MS.389         	11.045         	4.065
MS.390         	11.023         	4.008
MS.391         	11.002         	3.758
MS.392         	10.98          	3.676
MS.393         	10.957         	3.909
MS.394         	10.935         	3.831
MS.395         	10.915         	3.855
MS.396         	10.892         	3.722
MS.397         	10.87          	3.37
MS.398         	10.85          	3.589
MS.399         	10.827         	3.321
MS.400         	10.805         	3.289
MS.401         	10.785         	3.027
MS.402         	10.762         	2.908
MS.403         	10.74          	2.846
MS.404         	10.72          	2.884
MS.405         	10.698         	2.989
MS.406         	10.677         	3.265
MS.407         	10.655         	2.955
MS.408         	10.635         	2.842
MS.409         	10.613         	2.653
MS.410         	10.592         	2.776
MS.411         	10.57          	2.729
MS.412         	10.55          	2.653
MS.413         	10.528         	2.58
MS.414         	10.507         	2.508
MS.415         	10.485         	2.49
MS.416         	10.465         	2.498
MS.417         	10.445         	2.431
MS.418         	10.422         	2.502
MS.419         	10.403         	2.514
MS.420         	10.382         	2.546
MS.421         	10.36          	2.421
MS.422         	10.34          	2.417
MS.423         	10.32          	2.155
MS.424         	10.3           	2.383
MS.425         	10.278         	2.383
MS.426         	10.257         	2.355
MS.427         	10.238         	2.256
MS.428         	10.217         	2.187
MS.429         	10.198         	2.05
MS.430         	10.175         	2.133
MS.431         	10.155         	2.101
MS.432         	10.135         	2.103
MS.433         	10.115         	2.014
MS.434         	10.095         	2.083
MS.435         	10.075         	1.869
MS.436         	10.055         	1.809
MS.437         	10.035         	1.821
MS.438         	10.015         	1.865
MS.439         	9.995          	1.706
MS.440         	9.975          	1.726
MS.441         	9.955          	1.633
MS.442         	9.935          	1.668
MS.443         	9.915          	1.871
MS.444         	9.895          	1.704
MS.445         	9.875          	1.593
MS.446         	9.855          	1.587
MS.447         	9.835          	1.66
MS.448         	9.818          	1.515
MS.449         	9.797          	1.486
MS.450         	9.778          	1.617
MS.451         	9.757          	1.444
MS.452         	9.738          	1.501
MS.453         	9.717          	1.438
MS.454         	9.7            	1.507
MS.455         	9.68           	1.428
MS.456         	9.66           	1.376
MS.457         	9.64           	1.317
MS.458         	9.622          	1.382
MS.459         	9.602          	1.281
MS.460         	9.582          	1.134
MS.461         	9.565          	1.273
MS.462         	9.545          	1.364
MS.463         	9.525          	1.225
MS.464         	9.507          	1.208
MS.465         	9.488          	1.164
MS.466         	9.47           	1.202
MS.467         	9.45           	1.12
MS.468         	9.432          	1.19
MS.469         	9.412          	1.227
MS.470         	9.395          	1.096
MS.471         	9.375          	1.055
MS.472         	9.358          	1.241
MS.473         	9.337          	1.061
MS.474         	9.32           	0.945
MS.475         	9.3            	0.989
MS.476         	9.283          	1.001
MS.477         	9.262          	1.001
MS.478         	9.245          	1.029
MS.479         	9.225          	0.945
MS.480         	9.207          	0.87
MS.481         	9.19           	1.037
MS.482         	9.17           	0.999
MS.483         	9.153          	0.904
MS.484         	9.135          	0.943
MS.485         	9.115          	0.898
MS.486         	9.097          	0.947
MS.487         	9.08           	0.892
MS.488         	9.062          	0.86
MS.489         	9.042          	0.868
MS.490         	9.025          	0.874
MS.491         	9.007          	0.87
MS.492         	8.99           	0.786
MS.493         	8.972          	0.735
MS.494         	8.952          	0.824
MS.495         	8.935          	0.719
MS.496         	8.917          	0.673
MS.497         	8.9            	0.745
MS.498         	8.882          	0.761
MS.499         	8.865          	0.739
MS.500         	8.847          	0.687
MS.501         	8.83           	0.675
