File:              	C:\Qtrac\Data\Daniel M Sørensen\MScan multicentre study\Data from centres\Odense\Processed data\TKC01104A.QZD
Name:              	DK.ODE.NC.8.1
Protocol:          	MSCAN-R2
Date:              	4/11/20
Start time:        	09:02:43
Age:               	46
Sex:               	M
Temperature:       	32.4
S/R sites:         	APB
NC/disease:        	NC
Operator:          	TK
Comments:
M-SCAN DATA (4.9-0.8m)
Scanpts: 86, 94, 399, 407
Stim. (mA)     	Amp. (mV)
MS.1           	23.5           	10.584
MS.2           	23.5           	10.556
MS.3           	23.5           	10.562
MS.4           	23.5           	10.713
MS.5           	23.5           	10.639
MS.6           	23.5           	10.637
MS.7           	23.5           	10.909
MS.8           	23.5           	11.04
MS.9           	23.5           	11.124
MS.10          	23.5           	11.102
MS.11          	23.5           	11.017
MS.12          	23.5           	11.104
MS.13          	23.5           	11.181
MS.14          	23.5           	11.181
MS.15          	23.5           	11.156
MS.16          	23.5           	11.281
MS.17          	23.5           	11.324
MS.18          	23.5           	11.37
MS.19          	23.5           	11.477
MS.20          	23.5           	11.513
MS.21          	23.5           	11.501
MS.22          	23.5           	11.541
MS.23          	23.405         	11.624
MS.24          	23.36          	11.612
MS.25          	23.312         	11.652
MS.26          	23.265         	11.68
MS.27          	23.22          	11.674
MS.28          	23.172         	11.688
MS.29          	23.127         	11.716
MS.30          	23.08          	11.755
MS.31          	23.035         	11.712
MS.32          	22.987         	11.708
MS.33          	22.942         	11.732
MS.34          	22.897         	11.722
MS.35          	22.85          	11.749
MS.36          	22.805         	11.765
MS.37          	22.76          	11.761
MS.38          	22.715         	11.755
MS.39          	22.67          	11.749
MS.40          	22.622         	11.777
MS.41          	22.577         	11.761
MS.42          	22.532         	11.737
MS.43          	22.487         	11.781
MS.44          	22.442         	11.783
MS.45          	22.397         	11.783
MS.46          	22.355         	11.789
MS.47          	22.31          	11.777
MS.48          	22.265         	11.803
MS.49          	22.22          	11.801
MS.50          	22.175         	11.809
MS.51          	22.132         	11.837
MS.52          	22.087         	11.829
MS.53          	22.042         	11.815
MS.54          	22             	11.837
MS.55          	21.955         	11.857
MS.56          	21.91          	11.861
MS.57          	21.868         	11.845
MS.58          	21.823         	11.871
MS.59          	21.78          	11.88
MS.60          	21.737         	11.888
MS.61          	21.692         	11.9
MS.62          	21.65          	11.88
MS.63          	21.608         	11.892
MS.64          	21.562         	11.886
MS.65          	21.52          	11.884
MS.66          	21.477         	11.91
MS.67          	21.435         	11.944
MS.68          	21.392         	11.914
MS.69          	21.35          	11.916
MS.70          	21.305         	11.944
MS.71          	21.262         	11.93
MS.72          	21.22          	11.948
MS.73          	21.177         	11.978
MS.74          	21.137         	11.998
MS.75          	21.095         	12.008
MS.76          	21.052         	12
MS.77          	21.01          	11.988
MS.78          	20.967         	11.98
MS.79          	20.925         	12
MS.80          	20.885         	12
MS.81          	20.842         	12.002
MS.82          	20.8           	12.016
MS.83          	20.76          	12.018
MS.84          	20.717         	12.01
MS.85          	20.677         	12.018
MS.86          	20.635         	12.023
MS.87          	20.595         	12.027
MS.88          	20.552         	12
MS.89          	20.512         	12.021
MS.90          	20.47          	12.029
MS.91          	20.43          	12.039
MS.92          	20.39          	12.023
MS.93          	20.347         	12.027
MS.94          	20.307         	12.037
MS.95          	20.267         	12.033
MS.96          	20.227         	12.077
MS.97          	20.185         	12.043
MS.98          	20.145         	12.035
MS.99          	20.105         	11.946
MS.100         	20.065         	11.922
MS.101         	20.025         	11.944
MS.102         	19.985         	11.952
MS.103         	19.945         	11.944
MS.104         	19.905         	11.94
MS.105         	19.865         	11.968
MS.106         	19.825         	11.902
MS.107         	19.788         	11.992
MS.108         	19.747         	11.97
MS.109         	19.708         	11.871
MS.110         	19.667         	11.898
MS.111         	19.63          	11.932
MS.112         	19.59          	11.894
MS.113         	19.55          	11.926
MS.114         	19.512         	11.952
MS.115         	19.472         	11.894
MS.116         	19.432         	11.902
MS.117         	19.395         	11.863
MS.118         	19.355         	11.89
MS.119         	19.317         	11.918
MS.120         	19.278         	11.898
MS.121         	19.24          	11.88
MS.122         	19.202         	11.867
MS.123         	19.163         	11.656
MS.124         	19.125         	11.314
MS.125         	19.087         	11.598
MS.126         	19.047         	11.825
MS.127         	19.01          	11.823
MS.128         	18.972         	10.756
MS.129         	18.935         	11.052
MS.130         	18.897         	11.626
MS.131         	18.86          	10.729
MS.132         	18.823         	10.548
MS.133         	18.785         	10.699
MS.134         	18.747         	10.28
MS.135         	18.71          	10.119
MS.136         	18.672         	10.075
MS.137         	18.635         	10.02
MS.138         	18.597         	10.198
MS.139         	18.56          	9.964
MS.140         	18.522         	10.085
MS.141         	18.485         	9.479
MS.142         	18.448         	9.481
MS.143         	18.413         	9.328
MS.144         	18.375         	9.765
MS.145         	18.337         	9.654
MS.146         	18.302         	8.891
MS.147         	18.265         	9.058
MS.148         	18.227         	8.886
MS.149         	18.192         	8.909
MS.150         	18.155         	9.025
MS.151         	18.12          	8.363
MS.152         	18.083         	8.884
MS.153         	18.047         	8.858
MS.154         	18.01          	8.333
MS.155         	17.975         	8.137
MS.156         	17.94          	8.055
MS.157         	17.903         	8.236
MS.158         	17.868         	7.865
MS.159         	17.833         	8.202
MS.160         	17.797         	7.74
MS.161         	17.76          	7.668
MS.162         	17.725         	7.63
MS.163         	17.69          	7.547
MS.164         	17.655         	7.547
MS.165         	17.62          	7.609
MS.166         	17.585         	7.547
MS.167         	17.55          	7.396
MS.168         	17.515         	7.257
MS.169         	17.48          	6.939
MS.170         	17.445         	7.332
MS.171         	17.41          	6.886
MS.172         	17.375         	6.931
MS.173         	17.34          	6.296
MS.174         	17.305         	6.888
MS.175         	17.27          	5.982
MS.176         	17.235         	6.103
MS.177         	17.202         	5.823
MS.178         	17.167         	6.536
MS.179         	17.132         	5.891
MS.180         	17.097         	5.936
MS.181         	17.065         	5.477
MS.182         	17.03          	5.666
MS.183         	16.997         	5.182
MS.184         	16.962         	5.452
MS.185         	16.927         	5.235
MS.186         	16.895         	5.44
MS.187         	16.86          	5.158
MS.188         	16.827         	5.178
MS.189         	16.792         	5.09
MS.190         	16.76          	4.747
MS.191         	16.727         	5.156
MS.192         	16.692         	4.971
MS.193         	16.66          	4.735
MS.194         	16.628         	4.663
MS.195         	16.592         	4.57
MS.196         	16.56          	4.596
MS.197         	16.528         	4.389
MS.198         	16.495         	4.272
MS.199         	16.46          	4.218
MS.200         	16.427         	4.292
MS.201         	16.395         	4.175
MS.202         	16.362         	3.867
MS.203         	16.33          	3.839
MS.204         	16.297         	4.01
MS.205         	16.265         	3.907
MS.206         	16.233         	3.845
MS.207         	16.2           	3.791
MS.208         	16.167         	3.408
MS.209         	16.135         	3.331
MS.210         	16.102         	3.247
MS.211         	16.07          	3.378
MS.212         	16.038         	3.396
MS.213         	16.007         	2.947
MS.214         	15.975         	3.072
MS.215         	15.943         	2.919
MS.216         	15.91          	2.864
MS.217         	15.88          	2.639
MS.218         	15.847         	2.81
MS.219         	15.815         	2.731
MS.220         	15.785         	2.58
MS.221         	15.752         	2.568
MS.222         	15.72          	2.324
MS.223         	15.69          	2.598
MS.224         	15.657         	2.393
MS.225         	15.627         	2.288
MS.226         	15.595         	2.379
MS.227         	15.565         	2.197
MS.228         	15.532         	2.216
MS.229         	15.502         	2.322
MS.230         	15.472         	2.242
MS.231         	15.44          	2.079
MS.232         	15.41          	2.268
MS.233         	15.38          	2.135
MS.234         	15.347         	1.869
MS.235         	15.318         	1.889
MS.236         	15.287         	1.885
MS.237         	15.257         	1.793
MS.238         	15.225         	1.676
MS.239         	15.195         	1.915
MS.240         	15.165         	1.879
MS.241         	15.135         	1.736
MS.242         	15.105         	1.609
MS.243         	15.075         	1.583
MS.244         	15.045         	1.607
MS.245         	15.015         	1.67
MS.246         	14.985         	1.72
MS.247         	14.955         	1.565
MS.248         	14.925         	1.49
MS.249         	14.895         	1.583
MS.250         	14.865         	1.36
MS.251         	14.835         	1.551
MS.252         	14.805         	1.349
MS.253         	14.775         	1.412
MS.254         	14.747         	1.301
MS.255         	14.717         	1.307
MS.256         	14.688         	1.307
MS.257         	14.657         	1.043
MS.258         	14.63          	1.112
MS.259         	14.6           	1.13
MS.260         	14.57          	1.128
MS.261         	14.542         	1.168
MS.262         	14.512         	1.013
MS.263         	14.483         	1.021
MS.264         	14.455         	1.039
MS.265         	14.425         	1.08
MS.266         	14.398         	1.015
MS.267         	14.367         	0.931
MS.268         	14.34          	0.983
MS.269         	14.31          	1.096
MS.270         	14.282         	0.858
MS.271         	14.252         	0.624
MS.272         	14.225         	0.685
MS.273         	14.197         	0.649
MS.274         	14.167         	0.604
MS.275         	14.14          	0.651
MS.276         	14.112         	0.435
MS.277         	14.082         	0.699
MS.278         	14.055         	0.556
MS.279         	14.028         	0.433
MS.280         	14             	0.441
MS.281         	13.97          	0.352
MS.282         	13.943         	0.409
MS.283         	13.915         	0.306
MS.284         	13.887         	0.284
MS.285         	13.86          	0.286
MS.286         	13.832         	0.173
MS.287         	13.805         	0.421
MS.288         	13.778         	0.423
MS.289         	13.75          	0.181
MS.290         	13.722         	0.151
MS.291         	13.695         	0.197
MS.292         	13.667         	0.147
MS.293         	13.64          	0.145
MS.294         	13.612         	0.153
MS.295         	13.585         	0.125
MS.296         	13.557         	0.218
MS.297         	13.53          	0.147
MS.298         	13.505         	0.218
MS.299         	13.477         	0.207
MS.300         	13.45          	0.149
MS.301         	13.422         	0.133
MS.302         	13.398         	0.147
MS.303         	13.37          	0.147
MS.304         	13.342         	0.131
MS.305         	13.318         	0.135
MS.306         	13.29          	0.135
MS.307         	13.262         	0.113
MS.308         	13.237         	0.131
MS.309         	13.21          	0.109
MS.310         	13.185         	0.113
MS.311         	13.157         	0.109
MS.312         	13.132         	0.133
MS.313         	13.105         	0.099
MS.314         	13.08          	0.109
MS.315         	13.052         	0.113
MS.316         	13.028         	0.107
MS.317         	13             	0.105
MS.318         	12.975         	0.101
MS.319         	12.947         	0.107
MS.320         	12.922         	0.107
MS.321         	12.898         	0.097
MS.322         	12.87          	0.101
MS.323         	12.845         	0.093
MS.324         	12.82          	0.097
MS.325         	12.795         	0.091
MS.326         	12.767         	0.107
MS.327         	12.742         	0.111
MS.328         	12.717         	0.089
MS.329         	12.693         	0.111
MS.330         	12.667         	0.099
MS.331         	12.642         	0.107
MS.332         	12.617         	0.105
MS.333         	12.59          	0.107
MS.334         	12.565         	0.075
MS.335         	12.54          	0.083
MS.336         	12.515         	0.081
MS.337         	12.49          	0.087
MS.338         	12.465         	0.109
MS.339         	12.44          	0.085
MS.340         	12.415         	0.095
MS.341         	12.392         	0.087
MS.342         	12.367         	0.06
MS.343         	12.342         	0.091
MS.344         	12.318         	0.093
MS.345         	12.292         	0.083
MS.346         	12.267         	0.089
MS.347         	12.242         	0.089
MS.348         	12.22          	0.107
MS.349         	12.195         	0.073
MS.350         	12.17          	0.056
MS.351         	12.145         	0.054
MS.352         	12.122         	0.054
MS.353         	12.097         	0.048
MS.354         	12.072         	0.06
MS.355         	12.05          	0.093
MS.356         	12.025         	0.052
MS.357         	12             	0.068
MS.358         	11.977         	0.06
MS.359         	11.952         	0.06
MS.360         	11.93          	0.064
MS.361         	11.905         	0.054
MS.362         	11.882         	0.095
MS.363         	11.858         	0.05
MS.364         	11.835         	0.068
MS.365         	11.81          	0.058
MS.366         	11.787         	0.07
MS.367         	11.762         	0.07
MS.368         	11.74          	0.054
MS.369         	11.717         	0.052
MS.370         	11.693         	0.064
MS.371         	11.67          	0.062
MS.372         	11.648         	0.056
MS.373         	11.622         	0.056
MS.374         	11.6           	0.093
MS.375         	11.577         	0.066
MS.376         	11.552         	0.062
MS.377         	11.53          	0.054
MS.378         	11.507         	0.054
MS.379         	11.485         	0.058
MS.380         	11.462         	0.058
MS.381         	11.438         	0.075
MS.382         	11.415         	0.05
MS.383         	11.392         	0.064
MS.384         	11.37          	0.064
MS.385         	11.347         	0.054
MS.386         	11.325         	0.06
MS.387         	11.302         	0.062
MS.388         	11.28          	0.056
MS.389         	11.257         	0.058
MS.390         	11.235         	0.054
MS.391         	11.212         	0.052
MS.392         	11.19          	0.052
MS.393         	11.167         	0.056
MS.394         	11.145         	0.056
MS.395         	11.122         	0.05
MS.396         	11.1           	0.068
MS.397         	11.077         	0.062
MS.398         	11.055         	0.056
MS.399         	11.035         	0.06
MS.400         	11.012         	0.052
MS.401         	10.99          	0.05
MS.402         	10.967         	0.062
MS.403         	10.945         	0.052
MS.404         	10.925         	0.048
MS.405         	10.903         	0.05
MS.406         	10.88          	0.06
MS.407         	10.86          	0.052
MS.408         	10.837         	0.054
MS.409         	10.815         	0.066
MS.410         	10.795         	0.06
MS.411         	10.773         	0.052
MS.412         	10.75          	0.058
MS.413         	10.73          	0.056
MS.414         	10.707         	0.052
MS.415         	10.688         	0.054
MS.416         	10.665         	0.05
MS.417         	10.645         	0.058
MS.418         	10.622         	0.048
MS.419         	10.602         	0.056
MS.420         	10.58          	0.048
MS.421         	10.56          	0.046
MS.422         	10.537         	0.05
MS.423         	10.517         	0.06
MS.424         	10.495         	0.046
MS.425         	10.475         	0.054
MS.426         	10.455         	0.052
MS.427         	10.432         	0.052
MS.428         	10.412         	0.056
MS.429         	10.392         	0.052
MS.430         	10.37          	0.046
MS.431         	10.35          	0.064
MS.432         	10.33          	0.048
MS.433         	10.31          	0.06
MS.434         	10.287         	0.054
MS.435         	10.267         	0.054
MS.436         	10.247         	0.05
MS.437         	10.227         	0.06
MS.438         	10.205         	0.056
MS.439         	10.185         	0.048
MS.440         	10.165         	0.052
MS.441         	10.145         	0.052
MS.442         	10.125         	0.06
MS.443         	10.105         	0.05
MS.444         	10.085         	0.056
MS.445         	10.065         	0.054
MS.446         	10.045         	0.054
MS.447         	10.025         	0.058
MS.448         	10.005         	0.07
MS.449         	9.985          	0.06
MS.450         	9.965          	0.058
MS.451         	9.945          	0.048
MS.452         	9.925          	0.054
MS.453         	9.905          	0.054
MS.454         	9.885          	0.044
MS.455         	9.865          	0.058
MS.456         	9.845          	0.05
MS.457         	9.825          	0.048
MS.458         	9.805          	0.044
DERIVED EXCITABILITY VARIABLES
Program = QTracP 9/10/2021
Threshold method = 6 (optimised for CAP, using data for present condition only)
SR method = 1 (using actual data values)
6.                 	0.000               	Peak response\(mV)
9.                 	32.4                	Temperature ( C)
17.                	46                  	Age (years)
18.                	1                   	Sex (M=1, F=2)

EXTRA VARIABLES

MScPeak(mV) = 11.01
MScS5(mA) = 14.09
MScS50(mA) = 17.05
MScS95(mA) = 18.76
MScNSteps = 6
MScSteps(%) = 17.8
MScStepMax(%) = 4.5
MScD50 = 30
MScSlope = 7.97
MScDuration(min) = 4.1
MSFTraces = 322
MSFPeakAmp(mV) = 12
MSFNUnits = 171
MSFMeanUnitAmp(uV) = 70
MSFHuntTime(m) = 2.75
MSFError(%) = 6.2
MSFNLarge = 47.69
MSFMedianAmp(%) = 0.474
MSFMedianAmp(mV) = 0.0567
MSFHalfAmpAmp(%) = 0.675
MSFHalfAmpAmp(mV) = 0.0808
MSFLargestAmp(%) = 4.06
MSFLargestAmp(mV) = 0.487
MSFMeanRS(%) = 1.99
MSFSizeLimit(uV) = 29.9
MSFLimitType = 1
MSFSmallestAmp(uV) = 30.4
MSFOpts = 10106121

EXTRA WAVEFORMS


!MScan Model
!171
	1	12.07	0.33	2
	2	13.25	0.28	2
	3	13.63	0.53	2
	4	13.77	0.61	2
	5	13.84	0.37	2
	6	13.91	0.54	2
	7	13.98	0.6	2
	8	14.04	0.48	2
	9	14.07	0.25	2
	10	14.1	0.34	2
	11	14.13	0.41	2
	12	14.16	0.4	2
	13	14.2	0.49	2
	14	14.24	0.41	2
	15	14.28	0.39	2
	16	14.33	0.5	2
	17	14.39	0.56	2
	18	14.45	0.49	2
	19	14.49	0.38	2
	20	14.54	0.46	2
	21	14.58	0.38	2
	22	14.61	0.27	2
	23	14.66	0.38	2
	24	14.71	0.45	2
	25	14.74	0.26	2
	26	14.76	0.31	2
	27	14.8	0.34	2
	28	14.86	0.48	2
