File:              	C:\Qtrac\Data\Daniel M Sørensen\MScan multicentre study\Data from centres\Odense\Processed data\TKC01118B.QZD
Name:              	DK.ODE.NC.8.2
Protocol:          	MSCAN-R2
Date:              	18/11/20
Start time:        	12:56:21
Age:               	46
Sex:               	M
Temperature:       	32.1
S/R sites:         	ADM
NC/disease:        	NC
Operator:          	TK
Comments:
M-SCAN DATA (6.1-1m)
Scanpts: 97, 108, 509, 520
Stim. (mA)     	Amp. (mV)
MS.1           	25.5           	10.472
MS.2           	25.5           	10.462
MS.3           	25.5           	10.437
MS.4           	25.5           	10.472
MS.5           	25.5           	10.466
MS.6           	25.5           	10.46
MS.7           	25.5           	10.456
MS.8           	25.5           	10.433
MS.9           	25.5           	10.429
MS.10          	25.5           	10.484
MS.11          	25.5           	10.409
MS.12          	25.5           	10.419
MS.13          	25.5           	10.439
MS.14          	25.5           	10.419
MS.15          	25.5           	10.48
MS.16          	25.5           	10.407
MS.17          	25.5           	10.443
MS.18          	25.5           	10.47
MS.19          	25.5           	10.472
MS.20          	25.5           	10.504
MS.21          	25.5           	10.538
MS.22          	25.5           	10.474
MS.23          	25.397         	10.458
MS.24          	25.347         	10.441
MS.25          	25.297         	10.456
MS.26          	25.245         	10.476
MS.27          	25.195         	10.472
MS.28          	25.145         	10.482
MS.29          	25.095         	10.447
MS.30          	25.045         	10.431
MS.31          	24.995         	10.443
MS.32          	24.945         	10.458
MS.33          	24.895         	10.552
MS.34          	24.845         	10.498
MS.35          	24.795         	10.508
MS.36          	24.747         	10.458
MS.37          	24.698         	10.441
MS.38          	24.647         	10.401
MS.39          	24.597         	10.405
MS.40          	24.55          	10.395
MS.41          	24.5           	10.397
MS.42          	24.45          	10.466
MS.43          	24.403         	10.453
MS.44          	24.352         	10.405
MS.45          	24.305         	10.397
MS.46          	24.257         	10.409
MS.47          	24.207         	10.395
MS.48          	24.16          	10.417
MS.49          	24.11          	10.361
MS.50          	24.062         	10.387
MS.51          	24.015         	10.415
MS.52          	23.967         	10.423
MS.53          	23.92          	10.369
MS.54          	23.87          	10.395
MS.55          	23.823         	10.397
MS.56          	23.775         	10.393
MS.57          	23.727         	10.339
MS.58          	23.68          	10.383
MS.59          	23.632         	10.383
MS.60          	23.587         	10.371
MS.61          	23.54          	10.361
MS.62          	23.493         	10.359
MS.63          	23.445         	10.367
MS.64          	23.397         	10.365
MS.65          	23.352         	10.373
MS.66          	23.305         	10.379
MS.67          	23.257         	10.397
MS.68          	23.212         	10.431
MS.69          	23.165         	10.484
MS.70          	23.12          	10.393
MS.71          	23.073         	10.405
MS.72          	23.028         	10.437
MS.73          	22.98          	10.468
MS.74          	22.935         	10.534
MS.75          	22.89          	10.474
MS.76          	22.842         	10.516
MS.77          	22.797         	10.464
MS.78          	22.752         	10.504
MS.79          	22.707         	10.492
MS.80          	22.663         	10.536
MS.81          	22.618         	10.48
MS.82          	22.57          	10.502
MS.83          	22.525         	10.506
MS.84          	22.48          	10.546
MS.85          	22.435         	10.568
MS.86          	22.392         	10.546
MS.87          	22.347         	10.574
MS.88          	22.302         	10.544
MS.89          	22.257         	10.52
MS.90          	22.212         	10.544
MS.91          	22.167         	10.5
MS.92          	22.125         	10.53
MS.93          	22.08          	10.56
MS.94          	22.035         	10.528
MS.95          	21.993         	10.52
MS.96          	21.948         	10.504
MS.97          	21.905         	10.504
MS.98          	21.86          	10.546
MS.99          	21.817         	10.603
MS.100         	21.772         	10.538
MS.101         	21.73          	10.526
MS.102         	21.685         	10.506
MS.103         	21.642         	10.542
MS.104         	21.6           	10.582
MS.105         	21.557         	10.53
MS.106         	21.512         	10.492
MS.107         	21.47          	10.504
MS.108         	21.427         	10.51
MS.109         	21.385         	10.562
MS.110         	21.342         	10.556
MS.111         	21.3           	10.5
MS.112         	21.257         	10.522
MS.113         	21.215         	10.564
MS.114         	21.172         	10.558
MS.115         	21.13          	10.534
MS.116         	21.087         	10.532
MS.117         	21.045         	10.522
MS.118         	21.002         	10.538
MS.119         	20.96          	10.534
MS.120         	20.92          	10.5
MS.121         	20.877         	10.458
MS.122         	20.835         	10.512
MS.123         	20.795         	10.506
MS.124         	20.752         	10.518
MS.125         	20.71          	10.48
MS.126         	20.67          	10.47
MS.127         	20.627         	10.46
MS.128         	20.587         	10.51
MS.129         	20.545         	10.55
MS.130         	20.505         	10.449
MS.131         	20.465         	10.425
MS.132         	20.422         	10.468
MS.133         	20.382         	10.47
MS.134         	20.342         	10.466
MS.135         	20.3           	10.393
MS.136         	20.26          	10.3
MS.137         	20.22          	10.433
MS.138         	20.18          	10.395
MS.139         	20.14          	10.323
MS.140         	20.1           	10.355
MS.141         	20.06          	10.399
MS.142         	20.02          	10.397
MS.143         	19.98          	10.383
MS.144         	19.94          	10.411
MS.145         	19.9           	10.395
MS.146         	19.86          	10.377
MS.147         	19.82          	10.248
MS.148         	19.78          	10.345
MS.149         	19.74          	10.27
MS.150         	19.7           	10.296
MS.151         	19.663         	10.353
MS.152         	19.622         	10.236
MS.153         	19.583         	10.18
MS.154         	19.545         	10.216
MS.155         	19.505         	10.276
MS.156         	19.465         	10.228
MS.157         	19.427         	10.224
MS.158         	19.387         	10.153
MS.159         	19.35          	10.188
MS.160         	19.31          	10.242
MS.161         	19.272         	10.218
MS.162         	19.235         	10.198
MS.163         	19.195         	10.111
MS.164         	19.157         	10.117
MS.165         	19.12          	10.151
MS.166         	19.08          	10.151
MS.167         	19.042         	10.075
MS.168         	19.005         	10.043
MS.169         	18.967         	10.139
MS.170         	18.927         	10.121
MS.171         	18.89          	10.151
MS.172         	18.852         	10.026
MS.173         	18.815         	10.041
MS.174         	18.778         	9.978
MS.175         	18.74          	10.067
MS.176         	18.702         	10.077
MS.177         	18.665         	9.998
MS.178         	18.628         	9.94
MS.179         	18.59          	10.067
MS.180         	18.555         	10.008
MS.181         	18.517         	10.095
MS.182         	18.48          	9.974
MS.183         	18.442         	9.888
MS.184         	18.405         	9.845
MS.185         	18.37          	9.906
MS.186         	18.333         	9.888
MS.187         	18.295         	9.924
MS.188         	18.26          	9.742
MS.189         	18.222         	9.736
MS.190         	18.188         	9.809
MS.191         	18.15          	9.773
MS.192         	18.115         	9.722
MS.193         	18.077         	9.724
MS.194         	18.042         	9.698
MS.195         	18.005         	9.684
MS.196         	17.97          	9.753
MS.197         	17.932         	9.65
MS.198         	17.897         	9.608
MS.199         	17.862         	9.638
MS.200         	17.827         	9.622
MS.201         	17.79          	9.662
MS.202         	17.755         	9.497
MS.203         	17.72          	9.295
MS.204         	17.685         	9.12
MS.205         	17.65          	9.291
MS.206         	17.612         	9.166
MS.207         	17.577         	9.064
MS.208         	17.542         	9.04
MS.209         	17.507         	9.174
MS.210         	17.472         	9.297
MS.211         	17.438         	9.285
MS.212         	17.403         	8.838
MS.213         	17.37          	9.066
MS.214         	17.335         	9.092
MS.215         	17.3           	8.804
MS.216         	17.265         	8.886
MS.217         	17.23          	8.629
MS.218         	17.195         	8.56
MS.219         	17.163         	8.355
MS.220         	17.128         	8.27
MS.221         	17.092         	8.506
MS.222         	17.06          	8.351
MS.223         	17.025         	8.115
MS.224         	16.99          	8.234
MS.225         	16.958         	8.395
MS.226         	16.922         	8.417
MS.227         	16.89          	8.169
MS.228         	16.855         	8.095
MS.229         	16.823         	8.022
MS.230         	16.788         	8.002
MS.231         	16.755         	7.893
MS.232         	16.72          	7.877
MS.233         	16.688         	7.839
MS.234         	16.655         	7.674
MS.235         	16.62          	7.648
MS.236         	16.587         	7.694
MS.237         	16.555         	7.487
MS.238         	16.522         	7.418
MS.239         	16.487         	7.388
MS.240         	16.455         	7.541
MS.241         	16.422         	7.499
MS.242         	16.39          	7.285
MS.243         	16.358         	7.172
MS.244         	16.325         	7.201
MS.245         	16.292         	7.257
MS.246         	16.26          	7.098
MS.247         	16.227         	7.064
MS.248         	16.195         	6.999
MS.249         	16.163         	6.874
MS.250         	16.13          	6.844
MS.251         	16.097         	6.896
MS.252         	16.065         	6.888
MS.253         	16.032         	6.709
MS.254         	16.003         	6.826
MS.255         	15.97          	6.697
MS.256         	15.938         	6.566
MS.257         	15.905         	6.592
MS.258         	15.875         	6.852
MS.259         	15.842         	6.486
MS.260         	15.81          	6.339
MS.261         	15.78          	6.478
MS.262         	15.747         	6.278
MS.263         	15.715         	6.304
MS.264         	15.685         	6.133
MS.265         	15.652         	6.145
MS.266         	15.622         	6.091
MS.267         	15.59          	6.19
MS.268         	15.56          	6.194
MS.269         	15.527         	5.982
MS.270         	15.497         	5.962
MS.271         	15.467         	5.94
MS.272         	15.435         	5.825
MS.273         	15.405         	5.714
MS.274         	15.375         	5.901
MS.275         	15.342         	5.712
MS.276         	15.312         	5.819
MS.277         	15.282         	5.805
MS.278         	15.252         	5.716
MS.279         	15.22          	5.477
MS.280         	15.19          	5.674
MS.281         	15.16          	5.688
MS.282         	15.13          	5.46
MS.283         	15.1           	5.319
MS.284         	15.07          	5.358
MS.285         	15.04          	5.491
MS.286         	15.01          	5.39
MS.287         	14.98          	5.235
MS.288         	14.95          	5.122
MS.289         	14.92          	5.084
MS.290         	14.89          	5.275
MS.291         	14.86          	5.186
MS.292         	14.83          	5.223
MS.293         	14.8           	5.17
MS.294         	14.77          	5.086
MS.295         	14.742         	5.074
MS.296         	14.712         	5.054
MS.297         	14.682         	5.027
MS.298         	14.652         	5.052
MS.299         	14.625         	5.108
MS.300         	14.595         	4.991
MS.301         	14.565         	4.963
MS.302         	14.537         	4.852
MS.303         	14.507         	4.9
MS.304         	14.477         	4.888
MS.305         	14.45          	4.776
MS.306         	14.42          	4.902
MS.307         	14.392         	4.737
MS.308         	14.362         	4.786
MS.309         	14.335         	4.749
MS.310         	14.305         	4.768
MS.311         	14.278         	4.828
MS.312         	14.25          	4.772
MS.313         	14.22          	4.667
MS.314         	14.193         	4.663
MS.315         	14.162         	4.669
MS.316         	14.135         	4.59
MS.317         	14.108         	4.659
MS.318         	14.08          	4.6
MS.319         	14.05          	4.524
MS.320         	14.023         	4.608
MS.321         	13.995         	4.409
MS.322         	13.967         	4.379
MS.323         	13.94          	4.395
MS.324         	13.91          	4.258
MS.325         	13.882         	4.187
MS.326         	13.855         	4.449
MS.327         	13.827         	4.242
MS.328         	13.8           	4.161
MS.329         	13.773         	4.109
MS.330         	13.745         	4.254
MS.331         	13.717         	4.195
MS.332         	13.69          	4.115
MS.333         	13.662         	4.145
MS.334         	13.635         	4.187
MS.335         	13.608         	4.095
MS.336         	13.58          	4.075
MS.337         	13.555         	4
MS.338         	13.528         	4.018
MS.339         	13.5           	4.03
MS.340         	13.472         	3.833
MS.341         	13.445         	3.577
MS.342         	13.42          	3.809
MS.343         	13.392         	3.974
MS.344         	13.365         	3.752
MS.345         	13.34          	3.785
MS.346         	13.312         	3.823
MS.347         	13.285         	3.903
MS.348         	13.26          	3.402
MS.349         	13.233         	3.575
MS.350         	13.205         	3.39
MS.351         	13.18          	3.182
MS.352         	13.153         	3.708
MS.353         	13.127         	3.118
MS.354         	13.1           	3.148
MS.355         	13.075         	2.884
MS.356         	13.047         	3.225
MS.357         	13.023         	3.003
MS.358         	12.997         	2.671
MS.359         	12.97          	2.701
MS.360         	12.945         	3.168
MS.361         	12.917         	2.741
MS.362         	12.892         	2.771
MS.363         	12.867         	2.562
MS.364         	12.842         	2.89
MS.365         	12.815         	2.639
MS.366         	12.79          	2.481
MS.367         	12.765         	2.921
MS.368         	12.74          	2.502
MS.369         	12.712         	2.407
MS.370         	12.688         	2.405
MS.371         	12.662         	2.661
MS.372         	12.637         	2.294
MS.373         	12.613         	2.153
MS.374         	12.587         	2.157
MS.375         	12.562         	1.825
MS.376         	12.537         	2.181
MS.377         	12.512         	2.165
MS.378         	12.488         	1.855
MS.379         	12.462         	1.855
MS.380         	12.438         	1.851
MS.381         	12.412         	1.984
MS.382         	12.387         	1.859
MS.383         	12.363         	2.058
MS.384         	12.337         	1.968
MS.385         	12.312         	1.585
MS.386         	12.287         	1.772
MS.387         	12.265         	2.073
MS.388         	12.24          	1.676
MS.389         	12.215         	1.579
MS.390         	12.19          	1.42
MS.391         	12.167         	1.722
MS.392         	12.142         	1.601
MS.393         	12.117         	1.605
MS.394         	12.092         	1.49
MS.395         	12.07          	1.325
MS.396         	12.045         	1.436
MS.397         	12.02          	1.223
MS.398         	11.997         	1.565
MS.399         	11.972         	1.45
MS.400         	11.95          	1.352
MS.401         	11.925         	1.019
MS.402         	11.903         	1.434
MS.403         	11.877         	1.196
MS.404         	11.855         	1.021
MS.405         	11.83          	1.16
MS.406         	11.807         	0.961
MS.407         	11.782         	1.144
MS.408         	11.76          	0.947
MS.409         	11.735         	1.025
MS.410         	11.712         	1.269
MS.411         	11.69          	0.993
MS.412         	11.665         	1.051
MS.413         	11.642         	0.898
MS.414         	11.62          	0.997
MS.415         	11.595         	0.83
MS.416         	11.572         	0.967
MS.417         	11.55          	0.858
MS.418         	11.528         	0.844
MS.419         	11.505         	0.876
MS.420         	11.48          	0.888
MS.421         	11.457         	0.826
MS.422         	11.435         	0.683
MS.423         	11.412         	0.747
MS.424         	11.39          	0.802
MS.425         	11.367         	0.781
MS.426         	11.345         	0.59
MS.427         	11.32          	0.755
MS.428         	11.297         	0.691
MS.429         	11.275         	0.715
MS.430         	11.252         	0.62
MS.431         	11.23          	0.632
MS.432         	11.207         	0.604
MS.433         	11.185         	0.636
MS.434         	11.165         	0.528
MS.435         	11.142         	0.556
MS.436         	11.12          	0.512
MS.437         	11.097         	0.53
MS.438         	11.075         	0.574
MS.439         	11.052         	0.556
MS.440         	11.03          	0.461
MS.441         	11.007         	0.524
MS.442         	10.988         	0.562
MS.443         	10.965         	0.435
MS.444         	10.943         	0.504
MS.445         	10.92          	0.449
MS.446         	10.9           	0.459
MS.447         	10.877         	0.445
MS.448         	10.855         	0.473
MS.449         	10.835         	0.419
MS.450         	10.812         	0.433
MS.451         	10.79          	0.465
MS.452         	10.77          	0.405
MS.453         	10.747         	0.435
MS.454         	10.725         	0.409
MS.455         	10.705         	0.423
MS.456         	10.682         	0.411
MS.457         	10.662         	0.459
MS.458         	10.64          	0.439
MS.459         	10.62          	0.433
MS.460         	10.597         	0.385
MS.461         	10.577         	0.35
MS.462         	10.555         	0.338
MS.463         	10.535         	0.238
MS.464         	10.512         	0.391
MS.465         	10.492         	0.248
MS.466         	10.472         	0.199
MS.467         	10.45          	0.352
MS.468         	10.43          	0.328
MS.469         	10.41          	0.361
MS.470         	10.387         	0.272
MS.471         	10.367         	0.228
MS.472         	10.347         	0.133
MS.473         	10.325         	0.101
MS.474         	10.305         	0.175
MS.475         	10.285         	0.101
MS.476         	10.265         	0.191
MS.477         	10.245         	0.052
MS.478         	10.222         	0.107
MS.479         	10.202         	0.139
MS.480         	10.182         	0.038
MS.481         	10.162         	0.026
MS.482         	10.142         	0.008
MS.483         	10.122         	0.127
MS.484         	10.102         	0.026
MS.485         	10.08          	0.083
MS.486         	10.06          	-0.01
MS.487         	10.04          	-0.026
MS.488         	10.02          	-0.024
MS.489         	10             	0.006
MS.490         	9.98           	0.03
MS.491         	9.96           	0.004
MS.492         	9.94           	-0.028
MS.493         	9.92           	-0.034
MS.494         	9.903          	-0.02
MS.495         	9.882          	-0.048
MS.496         	9.863          	-0.04
MS.497         	9.842          	-0.016
