File:              	C:\Qtrac\Data\Daniel M Sørensen\MScan multicentre study\Data from centres\Antalya\Processed data\TR.NC.ANT.5.2- NCC00623D.QZD
Name:              	TR.NC.ANT.5.2
Protocol:          	MSCAN-R2
Date:              	23/6/20
Start time:        	19:41:24
Age:               	63
Sex:               	m
Temperature:       	34.1
S/R sites:         	ADM
NC/disease:        	NC
Operator:          	ab
Comments:
M-SCAN DATA (6.7-1m)
Scanpts: 118, 123, 598, 619
Stim. (mA)     	Amp. (mV)
MS.1           	36             	6.985
MS.2           	36             	6.937
MS.3           	36             	6.927
MS.4           	36             	6.935
MS.5           	36             	6.921
MS.6           	36             	6.909
MS.7           	36             	6.907
MS.8           	36             	6.921
MS.9           	36             	6.909
MS.10          	36             	6.905
MS.11          	36             	6.844
MS.12          	36             	6.905
MS.13          	36             	6.872
MS.14          	36             	6.838
MS.15          	36             	6.84
MS.16          	36             	6.828
MS.17          	36             	6.856
MS.18          	36             	6.907
MS.19          	36             	6.838
MS.20          	36             	6.84
MS.21          	36             	6.894
MS.22          	36             	6.854
MS.23          	36             	6.868
MS.24          	35.855         	6.844
MS.25          	35.785         	6.848
MS.26          	35.712         	6.82
MS.27          	35.642         	6.864
MS.28          	35.57          	6.896
MS.29          	35.5           	6.822
MS.30          	35.427         	6.85
MS.31          	35.357         	6.87
MS.32          	35.287         	6.856
MS.33          	35.217         	6.898
MS.34          	35.145         	6.878
MS.35          	35.075         	6.858
MS.36          	35.005         	6.886
MS.37          	34.935         	6.937
MS.38          	34.865         	6.955
MS.39          	34.798         	6.995
MS.40          	34.728         	6.975
MS.41          	34.657         	6.987
MS.42          	34.587         	6.979
MS.43          	34.52          	6.989
MS.44          	34.45          	6.997
MS.45          	34.382         	6.977
MS.46          	34.312         	7.001
MS.47          	34.245         	7.011
MS.48          	34.175         	7.021
MS.49          	34.107         	7.009
MS.50          	34.04          	7.011
MS.51          	33.972         	6.979
MS.52          	33.903         	6.981
MS.53          	33.835         	6.951
MS.54          	33.767         	6.995
MS.55          	33.7           	6.971
MS.56          	33.632         	6.983
MS.57          	33.565         	7.003
MS.58          	33.5           	6.969
MS.59          	33.432         	6.955
MS.60          	33.365         	6.947
MS.61          	33.298         	6.915
MS.62          	33.232         	6.933
MS.63          	33.165         	7.003
MS.64          	33.1           	7.005
MS.65          	33.032         	6.987
MS.66          	32.967         	6.967
MS.67          	32.903         	6.987
MS.68          	32.835         	6.975
MS.69          	32.77          	7.009
MS.70          	32.705         	7.007
MS.71          	32.64          	6.981
MS.72          	32.575         	7.011
MS.73          	32.51          	6.993
MS.74          	32.445         	7.003
MS.75          	32.38          	6.987
MS.76          	32.315         	6.973
MS.77          	32.25          	7.003
MS.78          	32.185         	7.017
MS.79          	32.12          	7.031
MS.80          	32.057         	7.023
MS.81          	31.992         	6.977
MS.82          	31.93          	7.023
MS.83          	31.865         	6.999
MS.84          	31.802         	7.062
MS.85          	31.737         	6.971
MS.86          	31.675         	6.975
MS.87          	31.612         	7.021
MS.88          	31.547         	7.031
MS.89          	31.485         	6.955
MS.90          	31.422         	6.969
MS.91          	31.36          	7.003
MS.92          	31.297         	7.005
MS.93          	31.235         	7.021
MS.94          	31.172         	6.965
MS.95          	31.11          	7.015
MS.96          	31.047         	7.001
MS.97          	30.985         	6.963
MS.98          	30.922         	6.965
MS.99          	30.862         	7.027
MS.100         	30.8           	7.007
MS.101         	30.737         	6.973
MS.102         	30.677         	7.027
MS.103         	30.615         	6.983
MS.104         	30.555         	6.963
MS.105         	30.492         	6.975
MS.106         	30.432         	6.997
MS.107         	30.372         	6.977
MS.108         	30.31          	7.007
MS.109         	30.25          	7.011
MS.110         	30.19          	7.003
MS.111         	30.13          	7.005
MS.112         	30.07          	7.003
MS.113         	30.01          	7.021
MS.114         	29.95          	6.973
MS.115         	29.89          	7.009
MS.116         	29.83          	7.025
MS.117         	29.77          	6.999
MS.118         	29.71          	7.023
MS.119         	29.653         	6.977
MS.120         	29.592         	7.009
MS.121         	29.532         	7.001
MS.122         	29.475         	7.033
MS.123         	29.415         	7.005
MS.124         	29.358         	7.021
MS.125         	29.297         	7.001
MS.126         	29.24          	6.989
MS.127         	29.18          	7.027
MS.128         	29.122         	7.005
MS.129         	29.065         	7.013
MS.130         	29.007         	7.046
MS.131         	28.948         	7.039
MS.132         	28.89          	7.013
MS.133         	28.832         	7.015
MS.134         	28.775         	7.023
MS.135         	28.717         	7.084
MS.136         	28.66          	7.037
MS.137         	28.602         	7.015
MS.138         	28.545         	7.039
MS.139         	28.49          	7.011
MS.140         	28.432         	6.999
MS.141         	28.375         	7.054
MS.142         	28.317         	6.975
MS.143         	28.262         	7.068
MS.144         	28.205         	7.031
MS.145         	28.15          	7.062
MS.146         	28.092         	7.027
MS.147         	28.037         	7.039
MS.148         	27.98          	7.027
MS.149         	27.925         	7.09
MS.150         	27.87          	7.027
MS.151         	27.812         	7.019
MS.152         	27.757         	7.05
MS.153         	27.702         	7.009
MS.154         	27.647         	7.046
MS.155         	27.592         	6.993
MS.156         	27.537         	6.993
MS.157         	27.483         	7.039
MS.158         	27.427         	7.001
MS.159         	27.372         	7.052
MS.160         	27.317         	6.985
MS.161         	27.262         	7.015
MS.162         	27.207         	6.977
MS.163         	27.153         	7.001
MS.164         	27.1           	6.995
MS.165         	27.045         	6.993
MS.166         	26.993         	6.987
MS.167         	26.938         	6.884
MS.168         	26.882         	6.991
MS.169         	26.83          	7.033
MS.170         	26.775         	6.917
MS.171         	26.722         	6.915
MS.172         	26.67          	6.915
MS.173         	26.615         	6.951
MS.174         	26.562         	6.911
MS.175         	26.51          	6.762
MS.176         	26.457         	6.929
MS.177         	26.405         	6.874
MS.178         	26.35          	6.88
MS.179         	26.297         	6.786
MS.180         	26.245         	6.909
MS.181         	26.192         	6.844
MS.182         	26.14          	6.733
MS.183         	26.09          	6.846
MS.184         	26.037         	6.836
MS.185         	25.985         	6.911
MS.186         	25.932         	6.87
MS.187         	25.88          	6.878
MS.188         	25.83          	6.711
MS.189         	25.778         	6.884
MS.190         	25.727         	6.876
MS.191         	25.675         	6.764
MS.192         	25.622         	6.782
MS.193         	25.573         	6.884
MS.194         	25.522         	6.749
MS.195         	25.47          	6.741
MS.196         	25.42          	6.772
MS.197         	25.368         	6.764
MS.198         	25.317         	6.707
MS.199         	25.267         	6.709
MS.200         	25.217         	6.814
MS.201         	25.167         	6.782
MS.202         	25.115         	6.727
MS.203         	25.065         	6.743
MS.204         	25.015         	6.798
MS.205         	24.965         	6.707
MS.206         	24.915         	6.753
MS.207         	24.868         	6.731
MS.208         	24.817         	6.645
MS.209         	24.767         	6.659
MS.210         	24.717         	6.683
MS.211         	24.667         	6.675
MS.212         	24.62          	6.592
MS.213         	24.57          	6.659
MS.214         	24.52          	6.731
MS.215         	24.472         	6.558
MS.216         	24.422         	6.409
MS.217         	24.375         	6.496
MS.218         	24.325         	6.633
MS.219         	24.278         	6.463
MS.220         	24.227         	6.586
MS.221         	24.18          	6.576
MS.222         	24.132         	6.409
MS.223         	24.082         	6.59
MS.224         	24.035         	6.288
MS.225         	23.987         	6.355
MS.226         	23.94          	6.536
MS.227         	23.892         	6.429
MS.228         	23.842         	6.357
MS.229         	23.795         	6.544
MS.230         	23.747         	6.449
MS.231         	23.7           	6.198
MS.232         	23.653         	6.282
MS.233         	23.608         	6.417
MS.234         	23.56          	6.248
MS.235         	23.512         	6.24
MS.236         	23.465         	6.347
MS.237         	23.417         	6.121
MS.238         	23.372         	6.129
MS.239         	23.325         	6.242
MS.240         	23.278         	6.053
MS.241         	23.233         	6.113
MS.242         	23.185         	6.071
MS.243         	23.14          	5.908
MS.244         	23.092         	5.908
MS.245         	23.047         	6.028
MS.246         	23             	6.157
MS.247         	22.955         	5.918
MS.248         	22.907         	5.95
MS.249         	22.862         	5.936
MS.250         	22.817         	5.97
MS.251         	22.772         	5.821
MS.252         	22.725         	6.032
MS.253         	22.68          	5.918
MS.254         	22.635         	5.944
MS.255         	22.59          	5.805
MS.256         	22.545         	6.002
MS.257         	22.5           	6.061
MS.258         	22.455         	5.899
MS.259         	22.41          	5.972
MS.260         	22.365         	5.68
MS.261         	22.32          	5.726
MS.262         	22.275         	5.541
MS.263         	22.233         	5.605
MS.264         	22.188         	5.69
MS.265         	22.142         	5.448
MS.266         	22.097         	5.577
MS.267         	22.055         	5.7
MS.268         	22.01          	5.348
MS.269         	21.967         	5.652
MS.270         	21.922         	5.382
MS.271         	21.877         	5.607
MS.272         	21.835         	5.434
MS.273         	21.792         	5.561
MS.274         	21.747         	5.221
MS.275         	21.705         	5.456
MS.276         	21.66          	5.396
MS.277         	21.618         	5.688
MS.278         	21.575         	5.362
MS.279         	21.532         	5.283
MS.280         	21.487         	5.021
MS.281         	21.445         	5.15
MS.282         	21.403         	5.295
MS.283         	21.36          	5.436
MS.284         	21.317         	5.253
MS.285         	21.275         	5.418
MS.286         	21.233         	5.062
MS.287         	21.19          	5.136
MS.288         	21.147         	5.184
MS.289         	21.105         	5.182
MS.290         	21.062         	5.13
MS.291         	21.02          	5.168
MS.292         	20.98          	5.215
MS.293         	20.938         	4.85
MS.294         	20.895         	4.89
MS.295         	20.852         	4.927
MS.296         	20.812         	5.033
MS.297         	20.77          	4.719
MS.298         	20.727         	4.82
MS.299         	20.688         	4.745
MS.300         	20.645         	4.784
MS.301         	20.605         	4.651
MS.302         	20.562         	4.633
MS.303         	20.522         	4.506
MS.304         	20.483         	4.415
MS.305         	20.44          	4.461
MS.306         	20.4           	4.008
MS.307         	20.36          	4.22
MS.308         	20.317         	4.528
MS.309         	20.278         	4.057
MS.310         	20.237         	4.258
MS.311         	20.198         	3.911
MS.312         	20.157         	4.05
MS.313         	20.115         	4.123
MS.314         	20.075         	4.147
MS.315         	20.035         	3.958
MS.316         	19.995         	3.883
MS.317         	19.955         	3.71
MS.318         	19.915         	3.424
MS.319         	19.875         	3.67
MS.320         	19.837         	3.666
MS.321         	19.797         	3.928
MS.322         	19.757         	3.392
MS.323         	19.717         	3.442
MS.324         	19.677         	3.499
MS.325         	19.64          	3.46
MS.326         	19.6           	3.213
MS.327         	19.56          	3.487
MS.328         	19.522         	3.031
MS.329         	19.483         	3.289
MS.330         	19.442         	3.005
MS.331         	19.405         	3.229
MS.332         	19.365         	3.366
MS.333         	19.327         	3.186
MS.334         	19.288         	3.124
MS.335         	19.25          	3.072
MS.336         	19.212         	3.311
MS.337         	19.172         	3.184
MS.338         	19.135         	2.902
MS.339         	19.097         	3.049
MS.340         	19.057         	3.136
MS.341         	19.02          	2.941
MS.342         	18.983         	2.84
MS.343         	18.945         	3.126
MS.344         	18.907         	2.886
MS.345         	18.87          	2.767
MS.346         	18.83          	2.886
MS.347         	18.792         	2.985
MS.348         	18.755         	2.872
MS.349         	18.717         	2.842
MS.350         	18.68          	2.78
MS.351         	18.645         	2.524
MS.352         	18.608         	2.614
MS.353         	18.57          	2.492
MS.354         	18.532         	2.266
MS.355         	18.495         	2.201
MS.356         	18.458         	2.351
MS.357         	18.422         	2.252
MS.358         	18.385         	2.242
MS.359         	18.347         	2.212
MS.360         	18.31          	2.115
MS.361         	18.275         	2.367
MS.362         	18.237         	2.185
MS.363         	18.202         	2.201
MS.364         	18.165         	2.058
MS.365         	18.13          	1.915
MS.366         	18.092         	2.073
MS.367         	18.057         	1.692
MS.368         	18.02          	2.181
MS.369         	17.985         	1.928
MS.370         	17.948         	1.698
MS.371         	17.913         	1.444
MS.372         	17.878         	1.907
MS.373         	17.842         	1.726
MS.374         	17.805         	1.613
MS.375         	17.77          	1.621
MS.376         	17.735         	1.672
MS.377         	17.7           	1.549
MS.378         	17.665         	1.686
MS.379         	17.628         	1.579
MS.380         	17.592         	1.325
MS.381         	17.557         	1.539
MS.382         	17.522         	1.356
MS.383         	17.487         	1.503
MS.384         	17.452         	1.309
MS.385         	17.417         	1.345
MS.386         	17.382         	1.2
MS.387         	17.347         	1.217
MS.388         	17.315         	1.082
MS.389         	17.28          	1.202
MS.390         	17.245         	1.194
MS.391         	17.21          	1.166
MS.392         	17.175         	1.231
MS.393         	17.142         	0.991
MS.394         	17.108         	1.178
MS.395         	17.073         	0.991
MS.396         	17.04          	1.092
MS.397         	17.005         	0.814
MS.398         	16.97          	0.886
MS.399         	16.938         	1.063
MS.400         	16.903         	0.959
MS.401         	16.87          	1.031
MS.402         	16.835         	1.112
MS.403         	16.802         	0.834
MS.404         	16.767         	0.896
MS.405         	16.735         	1.045
MS.406         	16.702         	0.842
MS.407         	16.667         	0.816
MS.408         	16.635         	0.737
MS.409         	16.602         	0.804
MS.410         	16.567         	0.681
MS.411         	16.535         	0.604
MS.412         	16.503         	0.6
MS.413         	16.47          	0.661
MS.414         	16.438         	0.743
MS.415         	16.405         	0.651
MS.416         	16.37          	0.618
MS.417         	16.337         	0.647
MS.418         	16.305         	0.469
MS.419         	16.272         	0.399
MS.420         	16.24          	0.56
MS.421         	16.208         	0.554
MS.422         	16.175         	0.481
MS.423         	16.142         	0.381
MS.424         	16.11          	0.54
MS.425         	16.08          	0.397
MS.426         	16.047         	0.413
MS.427         	16.015         	0.506
MS.428         	15.983         	0.443
MS.429         	15.95          	0.421
MS.430         	15.92          	0.369
MS.431         	15.887         	0.336
MS.432         	15.855         	0.302
MS.433         	15.825         	0.423
MS.434         	15.792         	0.292
MS.435         	15.76          	0.401
MS.436         	15.73          	0.336
MS.437         	15.697         	0.284
MS.438         	15.667         	0.292
MS.439         	15.635         	0.22
MS.440         	15.605         	0.318
MS.441         	15.572         	0.216
MS.442         	15.542         	0.167
MS.443         	15.51          	0.191
MS.444         	15.48          	0.211
MS.445         	15.447         	0.185
MS.446         	15.417         	0.187
MS.447         	15.387         	0.175
MS.448         	15.355         	0.173
MS.449         	15.325         	0.149
MS.450         	15.295         	0.211
MS.451         	15.265         	0.143
MS.452         	15.235         	0.125
MS.453         	15.202         	0.093
MS.454         	15.172         	0.141
MS.455         	15.142         	0.143
MS.456         	15.112         	0.115
MS.457         	15.082         	0.117
MS.458         	15.052         	0.113
MS.459         	15.023         	0.097
MS.460         	14.992         	0.167
MS.461         	14.962         	0.075
MS.462         	14.932         	0.07
MS.463         	14.902         	0.091
MS.464         	14.872         	0.083
MS.465         	14.842         	0.064
MS.466         	14.812         	0.095
MS.467         	14.782         	0.095
MS.468         	14.755         	0.079
MS.469         	14.725         	0.173
MS.470         	14.695         	0.109
MS.471         	14.665         	0.097
MS.472         	14.637         	0.117
MS.473         	14.608         	0.036
MS.474         	14.577         	0.099
MS.475         	14.55          	0.105
MS.476         	14.52          	0.115
MS.477         	14.49          	0.111
MS.478         	14.462         	0.058
MS.479         	14.432         	0.095
MS.480         	14.405         	0.038
MS.481         	14.375         	0.085
MS.482         	14.347         	0.044
MS.483         	14.318         	0.125
MS.484         	14.29          	0.093
MS.485         	14.26          	0.099
MS.486         	14.233         	0.113
MS.487         	14.205         	0.099
MS.488         	14.175         	0.034
MS.489         	14.148         	0.056
MS.490         	14.12          	0.052
MS.491         	14.09          	0.05
MS.492         	14.062         	0.054
MS.493         	14.035         	0.036
MS.494         	14.007         	0.06
MS.495         	13.977         	0.024
MS.496         	13.95          	0.034
MS.497         	13.922         	0.036
MS.498         	13.895         	0.052
MS.499         	13.867         	0.042
MS.500         	13.84          	0.038
