File:              	C:\Qtrac\Data\Daniel M Sørensen\MScan multicentre study\Data from centres\Antalya\Processed data\TR.NC.ANT.2.1- NCC00315A.QZD
Name:              	TR.NC.ANT.2.1
Protocol:          	MSCAN-R2
Date:              	15/3/20
Start time:        	14:33:39
Age:               	38
Sex:               	m
Temperature:       	31.6
S/R sites:         	APB
NC/disease:        	NC
Operator:          	ab
Comments:          	left APB
M-SCAN DATA (8.1-4.3m)
Scanpts: 57, 61, 408, 420
Stim. (mA)     	Amp. (mV)
MS.1           	15             	13.785
MS.2           	15             	13.755
MS.3           	15             	13.753
MS.4           	15             	13.755
MS.5           	15             	13.735
MS.6           	15             	13.747
MS.7           	15             	13.737
MS.8           	15             	13.72
MS.9           	15             	13.716
MS.10          	15             	13.731
MS.11          	15             	13.759
MS.12          	15             	13.757
MS.13          	15             	13.741
MS.14          	15             	13.753
MS.15          	15             	13.737
MS.16          	15             	13.787
MS.17          	15             	13.759
MS.18          	15             	13.737
MS.19          	15             	13.777
MS.20          	15             	13.777
MS.21          	15             	13.783
MS.22          	15             	13.777
MS.23          	15             	13.769
MS.24          	14.94          	13.737
MS.25          	14.91          	13.761
MS.26          	14.88          	13.751
MS.27          	14.85          	13.757
MS.28          	14.82          	13.749
MS.29          	14.792         	13.743
MS.30          	14.762         	13.743
MS.31          	14.733         	13.735
MS.32          	14.702         	13.737
MS.33          	14.672         	13.716
MS.34          	14.645         	13.72
MS.35          	14.615         	13.722
MS.36          	14.585         	13.724
MS.37          	14.557         	13.722
MS.38          	14.527         	13.708
MS.39          	14.497         	13.716
MS.40          	14.47          	13.716
MS.41          	14.44          	13.714
MS.42          	14.412         	13.718
MS.43          	14.382         	13.714
MS.44          	14.355         	13.712
MS.45          	14.325         	13.714
MS.46          	14.297         	13.716
MS.47          	14.267         	13.731
MS.48          	14.24          	13.745
MS.49          	14.212         	13.741
MS.50          	14.182         	13.716
MS.51          	14.155         	13.72
MS.52          	14.127         	13.729
MS.53          	14.097         	13.737
MS.54          	14.07          	13.743
MS.55          	14.042         	13.735
MS.56          	14.015         	13.739
MS.57          	13.985         	13.731
MS.58          	13.957         	13.722
MS.59          	13.93          	13.737
MS.60          	13.903         	13.731
MS.61          	13.875         	13.731
MS.62          	13.847         	13.739
MS.63          	13.82          	13.739
MS.64          	13.792         	13.737
MS.65          	13.765         	13.737
MS.66          	13.737         	13.722
MS.67          	13.71          	13.731
MS.68          	13.682         	13.618
MS.69          	13.655         	13.743
MS.70          	13.627         	13.735
MS.71          	13.6           	13.739
MS.72          	13.572         	13.733
MS.73          	13.545         	13.731
MS.74          	13.517         	13.749
MS.75          	13.492         	13.737
MS.76          	13.465         	13.733
MS.77          	13.438         	13.731
MS.78          	13.41          	13.745
MS.79          	13.385         	13.735
MS.80          	13.358         	13.743
MS.81          	13.33          	13.704
MS.82          	13.305         	13.729
MS.83          	13.278         	13.731
MS.84          	13.25          	13.708
MS.85          	13.225         	13.704
MS.86          	13.197         	13.712
MS.87          	13.172         	13.729
MS.88          	13.145         	13.712
MS.89          	13.12          	13.571
MS.90          	13.092         	13.698
MS.91          	13.068         	13.551
MS.92          	13.04          	13.555
MS.93          	13.015         	13.551
MS.94          	12.987         	13.708
MS.95          	12.962         	13.557
MS.96          	12.938         	13.559
MS.97          	12.91          	13.567
MS.98          	12.885         	13.557
MS.99          	12.86          	13.7
MS.100         	12.832         	13.547
MS.101         	12.807         	13.553
MS.102         	12.782         	13.551
MS.103         	12.757         	13.545
MS.104         	12.73          	13.545
MS.105         	12.705         	13.551
MS.106         	12.68          	13.543
MS.107         	12.655         	13.541
MS.108         	12.63          	13.559
MS.109         	12.605         	13.541
MS.110         	12.58          	13.545
MS.111         	12.555         	13.545
MS.112         	12.53          	13.537
MS.113         	12.505         	13.541
MS.114         	12.48          	13.537
MS.115         	12.455         	13.537
MS.116         	12.43          	13.531
MS.117         	12.405         	13.545
MS.118         	12.38          	13.541
MS.119         	12.355         	13.525
MS.120         	12.33          	13.541
MS.121         	12.305         	13.545
MS.122         	12.28          	13.543
MS.123         	12.257         	13.541
MS.124         	12.233         	13.551
MS.125         	12.207         	13.539
MS.126         	12.182         	13.541
MS.127         	12.157         	13.545
MS.128         	12.135         	13.549
MS.129         	12.11          	13.557
MS.130         	12.085         	13.565
MS.131         	12.062         	13.543
MS.132         	12.037         	13.529
MS.133         	12.012         	13.539
MS.134         	11.99          	13.535
MS.135         	11.965         	13.527
MS.136         	11.943         	13.511
MS.137         	11.917         	13.553
MS.138         	11.895         	13.539
MS.139         	11.87          	13.521
MS.140         	11.847         	13.517
MS.141         	11.822         	13.527
MS.142         	11.8           	13.547
MS.143         	11.775         	13.523
MS.144         	11.752         	13.515
MS.145         	11.73          	13.509
MS.146         	11.705         	13.511
MS.147         	11.682         	13.503
MS.148         	11.657         	13.342
MS.149         	11.635         	13.507
MS.150         	11.613         	13.324
MS.151         	11.59          	13.33
MS.152         	11.565         	13.465
MS.153         	11.542         	13.455
MS.154         	11.52          	13.277
MS.155         	11.497         	13.32
MS.156         	11.472         	13.32
MS.157         	11.45          	13.233
MS.158         	11.427         	13.247
MS.159         	11.405         	13.227
MS.160         	11.382         	13.275
MS.161         	11.36          	13.241
MS.162         	11.337         	13.269
MS.163         	11.315         	13.281
MS.164         	11.292         	13.187
MS.165         	11.27          	13.255
MS.166         	11.247         	13.207
MS.167         	11.225         	13.189
MS.168         	11.202         	13.189
MS.169         	11.18          	13.201
MS.170         	11.157         	13.233
MS.171         	11.135         	13.199
MS.172         	11.113         	13.203
MS.173         	11.09          	12.518
MS.174         	11.068         	13.126
MS.175         	11.045         	12.875
MS.176         	11.023         	13.14
MS.177         	11.002         	12.425
MS.178         	10.98          	12.381
MS.179         	10.957         	12.798
MS.180         	10.935         	12.8
MS.181         	10.915         	12.339
MS.182         	10.892         	11.942
MS.183         	10.87          	11.89
MS.184         	10.847         	11.873
MS.185         	10.827         	12.792
MS.186         	10.805         	11.859
MS.187         	10.785         	11.821
MS.188         	10.762         	11.555
MS.189         	10.74          	11.287
MS.190         	10.72          	11.249
MS.191         	10.698         	11.303
MS.192         	10.677         	11.271
MS.193         	10.655         	11.65
MS.194         	10.635         	11.269
MS.195         	10.613         	11.219
MS.196         	10.592         	11.108
MS.197         	10.57          	11.219
MS.198         	10.55          	11.132
MS.199         	10.528         	11.193
MS.200         	10.507         	11.094
MS.201         	10.485         	11.07
MS.202         	10.465         	10.909
MS.203         	10.445         	11.05
MS.204         	10.422         	10.963
MS.205         	10.403         	10.407
MS.206         	10.382         	10.746
MS.207         	10.36          	10.762
MS.208         	10.34          	10.733
MS.209         	10.32          	10.735
MS.210         	10.3           	10.643
MS.211         	10.278         	10.788
MS.212         	10.257         	10.421
MS.213         	10.238         	10.065
MS.214         	10.217         	9.747
MS.215         	10.198         	10.282
MS.216         	10.175         	10.276
MS.217         	10.155         	9.676
MS.218         	10.135         	9.42
MS.219         	10.115         	9.632
MS.220         	10.095         	9.338
MS.221         	10.075         	9.396
MS.222         	10.055         	9.303
MS.223         	10.035         	8.826
MS.224         	10.015         	9.257
MS.225         	9.995          	8.316
MS.226         	9.975          	8.804
MS.227         	9.955          	8.254
MS.228         	9.935          	8.391
MS.229         	9.915          	7.601
MS.230         	9.895          	8.091
MS.231         	9.875          	7.39
MS.232         	9.855          	7.628
MS.233         	9.835          	7.841
MS.234         	9.818          	7.025
MS.235         	9.797          	7.299
MS.236         	9.778          	6.977
MS.237         	9.757          	6.852
MS.238         	9.738          	5.622
MS.239         	9.717          	5.738
MS.240         	9.7            	5.499
MS.241         	9.68           	5.611
MS.242         	9.66           	5.501
MS.243         	9.64           	5.638
MS.244         	9.622          	5.178
MS.245         	9.602          	4.782
MS.246         	9.582          	4.997
MS.247         	9.565          	4.902
MS.248         	9.545          	4.663
MS.249         	9.525          	4.683
MS.250         	9.507          	4.56
MS.251         	9.488          	4.703
MS.252         	9.47           	4.544
MS.253         	9.45           	4.524
MS.254         	9.432          	4.147
MS.255         	9.412          	3.994
MS.256         	9.395          	4.242
MS.257         	9.375          	4.034
MS.258         	9.358          	4.083
MS.259         	9.337          	4.085
MS.260         	9.32           	3.813
MS.261         	9.3            	3.835
MS.262         	9.283          	3.704
MS.263         	9.262          	3.746
MS.264         	9.245          	3.521
MS.265         	9.225          	3.897
MS.266         	9.207          	3.599
MS.267         	9.19           	3.19
MS.268         	9.17           	3.098
MS.269         	9.153          	3.192
MS.270         	9.135          	2.973
MS.271         	9.115          	2.776
MS.272         	9.097          	2.959
MS.273         	9.08           	2.681
MS.274         	9.062          	2.792
MS.275         	9.042          	2.326
MS.276         	9.025          	2.363
MS.277         	9.007          	2.046
MS.278         	8.99           	1.867
MS.279         	8.972          	2.155
MS.280         	8.952          	1.942
MS.281         	8.935          	1.698
MS.282         	8.917          	1.837
MS.283         	8.9            	1.547
MS.284         	8.882          	1.593
MS.285         	8.865          	1.716
MS.286         	8.847          	1.531
MS.287         	8.83           	1.527
MS.288         	8.812          	1.547
MS.289         	8.795          	1.102
MS.290         	8.775          	1.11
MS.291         	8.757          	0.959
MS.292         	8.74           	1.251
MS.293         	8.722          	1.241
MS.294         	8.707          	0.838
MS.295         	8.69           	1.023
MS.296         	8.672          	0.945
MS.297         	8.655          	0.876
MS.298         	8.637          	0.721
MS.299         	8.62           	1.027
MS.300         	8.602          	0.657
MS.301         	8.585          	0.566
MS.302         	8.568          	0.502
MS.303         	8.55           	0.504
MS.304         	8.535          	0.536
MS.305         	8.517          	0.514
MS.306         	8.5            	0.495
MS.307         	8.483          	0.439
MS.308         	8.465          	0.461
MS.309         	8.45           	0.451
MS.310         	8.432          	0.433
MS.311         	8.415          	0.445
MS.312         	8.398          	0.407
MS.313         	8.382          	0.508
MS.314         	8.365          	0.504
MS.315         	8.347          	0.395
MS.316         	8.332          	0.318
MS.317         	8.315          	0.288
MS.318         	8.297          	0.322
MS.319         	8.283          	0.395
MS.320         	8.265          	0.359
MS.321         	8.247          	0.405
MS.322         	8.233          	0.433
MS.323         	8.215          	0.32
MS.324         	8.2            	0.316
MS.325         	8.182          	0.318
MS.326         	8.167          	0.286
MS.327         	8.15           	0.268
MS.328         	8.135          	0.24
MS.329         	8.117          	0.248
MS.330         	8.102          	0.171
MS.331         	8.085          	0.153
MS.332         	8.07           	0.129
MS.333         	8.052          	0.151
MS.334         	8.037          	0.133
MS.335         	8.02           	0.095
MS.336         	8.005          	0.129
MS.337         	7.99           	0.097
MS.338         	7.972          	0.099
MS.339         	7.957          	0.137
MS.340         	7.94           	0.073
MS.341         	7.925          	0.101
MS.342         	7.91           	0.127
MS.343         	7.892          	0.046
MS.344         	7.878          	0.05
MS.345         	7.862          	0.095
MS.346         	7.847          	0.097
MS.347         	7.83           	0.05
MS.348         	7.815          	0.05
MS.349         	7.8            	0.099
MS.350         	7.785          	0.046
MS.351         	7.767          	0.048
MS.352         	7.753          	0.046
MS.353         	7.737          	0.046
MS.354         	7.722          	0.052
MS.355         	7.707          	0.044
MS.356         	7.69           	0.048
MS.357         	7.675          	0.048
MS.358         	7.66           	0.05
MS.359         	7.645          	0.048
MS.360         	7.63           	0.046
MS.361         	7.615          	0.05
MS.362         	7.6            	0.048
MS.363         	7.585          	0.048
MS.364         	7.57           	0.05
MS.365         	7.555          	0.046
MS.366         	7.537          	0.048
MS.367         	7.523          	0.046
MS.368         	7.507          	0.048
MS.369         	7.492          	0.048
MS.370         	7.477          	0.048
MS.371         	7.462          	0.048
MS.372         	7.447          	0.046
MS.373         	7.435          	0.05
MS.374         	7.42           	0.048
MS.375         	7.405          	0.048
MS.376         	7.39           	0.05
MS.377         	7.375          	0.05
MS.378         	7.36           	0.048
MS.379         	7.345          	0.048
MS.380         	7.33           	0.048
MS.381         	7.315          	0.046
MS.382         	7.302          	0.046
MS.383         	7.287          	0.046
MS.384         	7.273          	0.046
MS.385         	7.257          	0.048
MS.386         	7.242          	0.048
MS.387         	7.227          	0.048
MS.388         	7.215          	0.05
MS.389         	7.2            	0.048
MS.390         	7.185          	0.044
MS.391         	7.17           	0.046
MS.392         	7.157          	0.046
MS.393         	7.142          	0.048
MS.394         	7.128          	0.046
MS.395         	7.115          	0.048
MS.396         	7.1            	0.046
MS.397         	7.085          	0.046
MS.398         	7.072          	0.048
MS.399         	7.057          	0.044
MS.400         	7.043          	0.048
MS.401         	7.03           	0.044
MS.402         	7.015          	0.048
MS.403         	7              	0.048
MS.404         	6.987          	0.052
MS.405         	6.972          	0.046
MS.406         	6.96           	0.05
MS.407         	6.945          	0.046
MS.408         	6.932          	0.046
MS.409         	6.918          	0.026
MS.410         	6.902          	0.048
MS.411         	6.89           	0.048
MS.412         	6.875          	0.048
MS.413         	6.862          	0.046
MS.414         	6.847          	0.046
MS.415         	6.835          	0.024
MS.416         	6.822          	0.046
MS.417         	6.807          	0.026
MS.418         	6.795          	0.046
MS.419         	6.78           	0.046
MS.420         	6.767          	0.046
DERIVED EXCITABILITY VARIABLES
Program = QTracP 3/4/2020
Threshold method = 6 (optimised for CAP, using data for present condition only)
SR method = 1 (using actual data values)
6.                 	0.000               	Peak response\(mV)
9.                 	31.6                	Temperature ( C)
17.                	38                  	Age (years)
18.                	1                   	Sex (M=1, F=2)

EXTRA VARIABLES

MScPeak(mV) = 13.71
MScS5(mA) = 8.6
MScS50(mA) = 9.76
MScS95(mA) = 11.06
MScNSteps = 7
MScSteps(%) = 22.1
MScStepMax(%) = 8.1
MScD50 = 22
MScSlope = 9.62
MSFPeakAmp(mV) = 13.7
MSFNUnits = 147
MSFMeanUnitAmp(uV) = 93.1
MSFHuntTime(m) = 2.07
MSFError(%) = 5.65
MSFNLarge = 42.68
MSFMedianAmp(%) = 0.548
MSFMedianAmp(mV) = 0.0751
MSFHalfAmpAmp(%) = 0.839
MSFHalfAmpAmp(mV) = 0.115
MSFLargestAmp(%) = 2.93
MSFLargestAmp(mV) = 0.401
MSFMeanRS(%) = 2.01
MSFOpts = 10106121
MScDuration(min) = 3.8
MSFTraces = 364
MSFSizeLimit(uV) = 34.2
MSFLimitType = 1
MSFSmallestAmp(uV) = 35

EXTRA WAVEFORMS


!MScan Model
!147
	1	7.91	0.35	2
	2	8.06	0.47	2
	3	8.1	0.27	2
	4	8.14	0.56	2
	5	8.23	0.55	2
	6	8.46	0.99	2
	7	8.52	0.33	2
	8	8.54	0.43	2
	9	8.58	0.54	2
	10	8.6	0.26	2
	11	8.61	0.37	2
	12	8.65	0.97	2
	13	8.71	1.2	2
	14	8.74	0.53	2
	15	8.76	0.47	2
	16	8.78	0.48	2
	17	8.8	0.55	2
	18	8.82	0.52	2
	19	8.83	0.54	2
	20	8.85	0.59	2
	21	8.87	0.54	2
	22	8.89	0.5	2
	23	8.91	0.51	2
	24	8.92	0.39	2
	25	8.94	0.42	2
	26	8.95	0.45	2
	27	8.96	0.3	2
	28	8.97	0.3	2
	29	8.97	0.3	2
	30	8.98	0.29	2
	31	8.99	0.29	2
	32	8.99	0.29	2
	33	9	0.29	2
	34	9.01	0.29	2
	35	9.01	0.27	2
	36	9.02	0.27	2
	37	9.03	0.27	2
	38	9.03	0.28	2
	39	9.04	0.28	2
	40	9.05	0.31	2
	41	9.05	0.31	2
	42	9.06	0.31	2
	43	9.07	0.31	2
	44	9.07	0.31	2
	45	9.08	0.36	2
	46	9.09	0.51	2
	47	9.1	0.6	2
	48	9.12	0.64	2
	49	9.13	0.58	2
	50	9.14	0.55	2
	51	9.15	0.45	2
	52	9.16	0.5	2
	53	9.17	0.54	2
	54	9.19	0.54	2
	55	9.2	0.47	2
	56	9.21	0.43	2
	57	9.23	0.42	2
	58	9.24	0.43	2
	59	9.25	0.43	2
	60	9.26	0.42	2
	61	9.28	0.4	2
	62	9.29	0.34	2
	63	9.3	0.27	2
	64	9.33	0.51	2
	65	9.34	0.33	2
	66	9.35	0.39	2
	67	9.37	0.39	2
	68	9.38	0.43	2
	69	9.4	0.47	2
	70	9.41	0.54	2
	71	9.43	0.4	2
	72	9.44	0.4	2
	73	9.45	0.38	2
	74	9.47	0.35	2
	75	9.48	0.44	2
	76	9.49	0.45	2
	77	9.51	0.44	2
	78	9.52	0.46	2
	79	9.54	0.87	2
	80	9.58	1.18	2
	81	9.61	1.09	2
	82	9.64	1.22	2
	83	9.65	0.42	2
	84	9.66	0.56	2
	85	9.67	0.99	2
	86	9.68	0.99	2
	87	9.69	0.99	2
	88	9.7	0.95	2
	89	9.72	0.9	2
	90	9.73	1.1	2
	91	9.74	1.14	2
	92	9.75	1.14	2
	93	9.77	0.84	2
	94	9.78	0.79	2
	95	9.79	0.86	2
	96	9.81	1	2
	97	9.82	1.04	2
	98	9.83	1.04	2
	99	9.85	1.21	2
	100	9.87	1.11	2
	101	9.88	1.06	2
	102	9.9	1.04	2
	103	9.91	0.92	2
	104	9.92	0.73	2
	105	9.94	0.69	2
	106	9.95	0.69	2
	107	9.96	0.66	2
	108	9.97	0.62	2
	109	9.98	0.62	2
