File:              	C:\Qtrac\Data\Daniel M Sørensen\MScan multicentre study\Data from centres\Antalya\Processed data\TR.NC.ANT.3.2- NCC00326D.QZD
Name:              	TR.NC.ANT.3.2
Protocol:          	MSCAN-R2
Date:              	26/3/20
Start time:        	17:09:04
Age:               	37
Sex:               	f
Temperature:       	31.2
S/R sites:         	TA
NC/disease:        	NC
Operator:          	ab
Comments:          	left TA
M-SCAN DATA (12.5-1.9m)
Scanpts: 4, 7, 896, 909
Stim. (mA)     	Amp. (mV)
MS.1           	30             	7.819
MS.2           	30             	7.837
MS.3           	30             	7.821
MS.4           	30             	7.763
MS.5           	30             	7.744
MS.6           	30             	7.777
MS.7           	30             	7.765
MS.8           	30             	7.763
MS.9           	30             	7.757
MS.10          	30             	7.767
MS.11          	30             	7.787
MS.12          	30             	7.789
MS.13          	30             	7.773
MS.14          	30             	7.801
MS.15          	30             	7.819
MS.16          	30             	7.406
MS.17          	30             	7.835
MS.18          	30             	7.813
MS.19          	30             	7.829
MS.20          	30             	7.807
MS.21          	30             	7.839
MS.22          	30             	7.809
MS.23          	30             	7.9
MS.24          	29.88          	7.797
MS.25          	29.82          	7.787
MS.26          	29.76          	7.775
MS.27          	29.702         	7.813
MS.28          	29.642         	7.841
MS.29          	29.582         	7.805
MS.30          	29.522         	7.823
MS.31          	29.465         	7.767
MS.32          	29.405         	7.825
MS.33          	29.347         	7.811
MS.34          	29.287         	7.791
MS.35          	29.23          	7.805
MS.36          	29.172         	7.805
MS.37          	29.112         	7.827
MS.38          	29.055         	7.791
MS.39          	28.997         	7.795
MS.40          	28.94          	7.748
MS.41          	28.882         	7.845
MS.42          	28.823         	7.813
MS.43          	28.765         	7.761
MS.44          	28.707         	7.773
MS.45          	28.65          	7.829
MS.46          	28.595         	7.875
MS.47          	28.537         	7.833
MS.48          	28.48          	7.807
MS.49          	28.422         	7.785
MS.50          	28.365         	7.682
MS.51          	28.31          	7.734
MS.52          	28.252         	7.684
MS.53          	28.198         	7.73
MS.54          	28.14          	7.799
MS.55          	28.085         	7.616
MS.56          	28.028         	7.68
MS.57          	27.972         	7.618
MS.58          	27.915         	7.579
MS.59          	27.86          	7.63
MS.60          	27.805         	7.624
MS.61          	27.75          	7.616
MS.62          	27.692         	7.547
MS.63          	27.637         	7.573
MS.64          	27.582         	7.531
MS.65          	27.528         	7.521
MS.66          	27.472         	7.555
MS.67          	27.417         	7.503
MS.68          	27.362         	7.531
MS.69          	27.307         	7.503
MS.70          	27.255         	7.436
MS.71          	27.2           	7.493
MS.72          	27.145         	7.507
MS.73          	27.09          	7.382
MS.74          	27.037         	7.374
MS.75          	26.983         	7.37
MS.76          	26.927         	7.442
MS.77          	26.875         	7.366
MS.78          	26.82          	7.352
MS.79          	26.767         	7.454
MS.80          	26.715         	7.422
MS.81          	26.66          	7.287
MS.82          	26.608         	7.394
MS.83          	26.555         	7.309
MS.84          	26.502         	7.257
MS.85          	26.448         	7.211
MS.86          	26.395         	7.249
MS.87          	26.342         	7.203
MS.88          	26.29          	7.217
MS.89          	26.237         	7.185
MS.90          	26.185         	7.1
MS.91          	26.132         	7.148
MS.92          	26.08          	7.243
MS.93          	26.028         	7.158
MS.94          	25.977         	7.056
MS.95          	25.925         	7.005
MS.96          	25.872         	7.154
MS.97          	25.82          	7.062
MS.98          	25.77          	7.191
MS.99          	25.717         	7.12
MS.100         	25.667         	7.044
MS.101         	25.615         	6.959
MS.102         	25.565         	7.017
MS.103         	25.512         	6.973
MS.104         	25.462         	6.987
MS.105         	25.413         	6.872
MS.106         	25.36          	6.955
MS.107         	25.31          	6.961
MS.108         	25.26          	6.836
MS.109         	25.21          	6.872
MS.110         	25.157         	6.782
MS.111         	25.108         	6.812
MS.112         	25.057         	6.921
MS.113         	25.007         	6.733
MS.114         	24.957         	6.82
MS.115         	24.907         	6.715
MS.116         	24.858         	6.713
MS.117         	24.807         	6.747
MS.118         	24.76          	6.677
MS.119         	24.71          	6.669
MS.120         	24.66          	6.655
MS.121         	24.61          	6.615
MS.122         	24.562         	6.564
MS.123         	24.512         	6.649
MS.124         	24.465         	6.544
MS.125         	24.415         	6.598
MS.126         	24.365         	6.578
MS.127         	24.317         	6.574
MS.128         	24.27          	6.518
MS.129         	24.22          	6.457
MS.130         	24.172         	6.403
MS.131         	24.122         	6.476
MS.132         	24.075         	6.417
MS.133         	24.028         	6.371
MS.134         	23.98          	6.429
MS.135         	23.932         	6.415
MS.136         	23.882         	6.419
MS.137         	23.835         	6.445
MS.138         	23.788         	6.353
MS.139         	23.74          	6.381
MS.140         	23.692         	6.413
MS.141         	23.645         	6.395
MS.142         	23.597         	6.266
MS.143         	23.552         	6.29
MS.144         	23.505         	6.314
MS.145         	23.457         	6.236
MS.146         	23.41          	6.149
MS.147         	23.365         	6.121
MS.148         	23.317         	6.111
MS.149         	23.27          	6.208
MS.150         	23.225         	6.097
MS.151         	23.177         	6.115
MS.152         	23.132         	6.19
MS.153         	23.085         	6.137
MS.154         	23.04          	6.055
MS.155         	22.993         	6.006
MS.156         	22.948         	5.895
MS.157         	22.903         	6.061
MS.158         	22.855         	5.932
MS.159         	22.81          	5.879
MS.160         	22.765         	5.855
MS.161         	22.72          	5.787
MS.162         	22.672         	5.694
MS.163         	22.627         	5.658
MS.164         	22.582         	5.756
MS.165         	22.538         	5.791
MS.166         	22.493         	5.626
MS.167         	22.448         	5.763
MS.168         	22.403         	5.551
MS.169         	22.358         	5.688
MS.170         	22.312         	5.533
MS.171         	22.27          	5.591
MS.172         	22.225         	5.589
MS.173         	22.18          	5.559
MS.174         	22.135         	5.46
MS.175         	22.092         	5.392
MS.176         	22.047         	5.537
MS.177         	22.002         	5.503
MS.178         	21.96          	5.414
MS.179         	21.915         	5.394
MS.180         	21.872         	5.331
MS.181         	21.827         	5.444
MS.182         	21.785         	5.366
MS.183         	21.74          	5.39
MS.184         	21.698         	5.356
MS.185         	21.655         	5.255
MS.186         	21.61          	5.251
MS.187         	21.567         	5.313
MS.188         	21.525         	5.303
MS.189         	21.483         	5.259
MS.190         	21.438         	5.146
MS.191         	21.395         	5.172
MS.192         	21.352         	5.184
MS.193         	21.31          	5.118
MS.194         	21.267         	5.094
MS.195         	21.225         	5.09
MS.196         	21.182         	5.086
MS.197         	21.14          	4.977
MS.198         	21.097         	5.09
MS.199         	21.055         	5.003
MS.200         	21.015         	5.005
MS.201         	20.972         	4.981
MS.202         	20.93          	4.931
MS.203         	20.887         	4.951
MS.204         	20.847         	4.973
MS.205         	20.805         	4.856
MS.206         	20.762         	4.882
MS.207         	20.722         	4.937
MS.208         	20.68          	4.896
MS.209         	20.64          	4.826
MS.210         	20.597         	4.842
MS.211         	20.557         	4.844
MS.212         	20.515         	4.717
MS.213         	20.475         	4.763
MS.214         	20.435         	4.719
MS.215         	20.392         	4.761
MS.216         	20.352         	4.647
MS.217         	20.312         	4.552
MS.218         	20.27          	4.6
MS.219         	20.23          	4.526
MS.220         	20.19          	4.604
MS.221         	20.15          	4.516
MS.222         	20.11          	4.486
MS.223         	20.07          	4.473
MS.224         	20.03          	4.482
MS.225         	19.99          	4.586
MS.226         	19.95          	4.415
MS.227         	19.91          	4.377
MS.228         	19.87          	4.332
MS.229         	19.83          	4.208
MS.230         	19.79          	4.31
MS.231         	19.75          	4.185
MS.232         	19.712         	4.206
MS.233         	19.672         	4.232
MS.234         	19.632         	4.135
MS.235         	19.592         	4.135
MS.236         	19.555         	3.972
MS.237         	19.515         	4.097
MS.238         	19.475         	3.978
MS.239         	19.438         	3.938
MS.240         	19.397         	3.93
MS.241         	19.36          	3.823
MS.242         	19.32          	3.914
MS.243         	19.282         	3.891
MS.244         	19.245         	3.795
MS.245         	19.205         	3.863
MS.246         	19.167         	3.841
MS.247         	19.13          	3.766
MS.248         	19.09          	3.805
MS.249         	19.052         	3.744
MS.250         	19.015         	3.744
MS.251         	18.977         	3.636
MS.252         	18.938         	3.662
MS.253         	18.9           	3.589
MS.254         	18.862         	3.559
MS.255         	18.825         	3.565
MS.256         	18.788         	3.519
MS.257         	18.75          	3.644
MS.258         	18.712         	3.487
MS.259         	18.675         	3.539
MS.260         	18.637         	3.452
MS.261         	18.6           	3.581
MS.262         	18.562         	3.452
MS.263         	18.528         	3.418
MS.264         	18.49          	3.281
MS.265         	18.452         	3.366
MS.266         	18.415         	3.368
MS.267         	18.378         	3.348
MS.268         	18.342         	3.283
MS.269         	18.305         	3.231
MS.270         	18.27          	3.172
MS.271         	18.233         	3.192
MS.272         	18.195         	3.154
MS.273         	18.16          	3.209
MS.274         	18.122         	3.128
MS.275         	18.087         	3.12
MS.276         	18.05          	3.128
MS.277         	18.015         	3.09
MS.278         	17.98          	3.043
MS.279         	17.942         	3.062
MS.280         	17.907         	3.017
MS.281         	17.87          	2.9
MS.282         	17.835         	2.997
MS.283         	17.8           	2.884
MS.284         	17.765         	2.872
MS.285         	17.73          	2.896
MS.286         	17.692         	2.844
MS.287         	17.657         	2.508
MS.288         	17.622         	2.675
MS.289         	17.587         	2.755
MS.290         	17.552         	2.711
MS.291         	17.517         	2.723
MS.292         	17.483         	2.647
MS.293         	17.448         	2.701
MS.294         	17.413         	2.673
MS.295         	17.378         	2.721
MS.296         	17.342         	2.606
MS.297         	17.307         	2.626
MS.298         	17.275         	2.57
MS.299         	17.24          	2.641
MS.300         	17.205         	2.639
MS.301         	17.17          	2.578
MS.302         	17.135         	2.598
MS.303         	17.102         	2.447
MS.304         	17.067         	2.479
MS.305         	17.032         	2.498
MS.306         	17             	2.395
MS.307         	16.965         	2.334
MS.308         	16.932         	2.401
MS.309         	16.897         	2.3
MS.310         	16.865         	2.314
MS.311         	16.83          	2.33
MS.312         	16.797         	2.222
MS.313         	16.762         	2.214
MS.314         	16.73          	2.248
MS.315         	16.698         	2.058
MS.316         	16.663         	2.191
MS.317         	16.63          	2.127
MS.318         	16.597         	2.163
MS.319         	16.562         	2.199
MS.320         	16.53          	2.127
MS.321         	16.497         	1.99
MS.322         	16.465         	2.103
MS.323         	16.432         	2.058
MS.324         	16.397         	2.022
MS.325         	16.365         	2.071
MS.326         	16.333         	1.938
MS.327         	16.3           	2.002
MS.328         	16.267         	1.954
MS.329         	16.235         	1.934
MS.330         	16.202         	1.924
MS.331         	16.17          	1.944
MS.332         	16.137         	1.825
MS.333         	16.105         	1.772
MS.334         	16.075         	1.835
MS.335         	16.042         	1.843
MS.336         	16.01          	1.94
MS.337         	15.977         	1.817
MS.338         	15.945         	1.728
MS.339         	15.915         	1.716
MS.340         	15.882         	1.744
MS.341         	15.85          	1.694
MS.342         	15.818         	1.646
MS.343         	15.787         	1.664
MS.344         	15.755         	1.599
MS.345         	15.725         	1.593
MS.346         	15.693         	1.527
MS.347         	15.662         	1.545
MS.348         	15.63          	1.533
MS.349         	15.6           	1.497
MS.350         	15.568         	1.529
MS.351         	15.537         	1.533
MS.352         	15.505         	1.563
MS.353         	15.475         	1.464
MS.354         	15.443         	1.478
MS.355         	15.412         	1.49
MS.356         	15.382         	1.482
MS.357         	15.35          	1.378
MS.358         	15.32          	1.323
MS.359         	15.29          	1.333
MS.360         	15.26          	1.345
MS.361         	15.23          	1.287
MS.362         	15.197         	1.309
MS.363         	15.167         	1.231
MS.364         	15.137         	1.321
MS.365         	15.108         	1.251
MS.366         	15.077         	1.217
MS.367         	15.047         	1.285
MS.368         	15.017         	1.172
MS.369         	14.987         	1.184
MS.370         	14.957         	1.2
MS.371         	14.927         	1.144
MS.372         	14.898         	1.164
MS.373         	14.867         	1.192
MS.374         	14.837         	1.144
MS.375         	14.807         	1.126
MS.376         	14.78          	1.13
MS.377         	14.75          	1.19
MS.378         	14.72          	1.051
MS.379         	14.69          	1.086
MS.380         	14.66          	1.082
MS.381         	14.632         	0.916
MS.382         	14.602         	1.027
MS.383         	14.572         	1.084
MS.384         	14.545         	0.896
MS.385         	14.515         	1.051
MS.386         	14.485         	0.993
MS.387         	14.457         	0.977
MS.388         	14.427         	0.989
MS.389         	14.4           	0.951
MS.390         	14.37          	1.023
MS.391         	14.342         	0.973
MS.392         	14.312         	0.989
MS.393         	14.285         	0.927
MS.394         	14.255         	0.957
MS.395         	14.227         	0.914
MS.396         	14.2           	0.931
MS.397         	14.17          	0.814
MS.398         	14.142         	0.784
MS.399         	14.115         	0.892
MS.400         	14.085         	0.888
MS.401         	14.057         	0.912
MS.402         	14.03          	0.775
MS.403         	14.002         	0.735
MS.404         	13.975         	0.784
MS.405         	13.945         	0.689
MS.406         	13.917         	0.699
MS.407         	13.89          	0.713
MS.408         	13.862         	0.663
MS.409         	13.835         	0.771
MS.410         	13.807         	0.667
MS.411         	13.78          	0.632
MS.412         	13.752         	0.594
MS.413         	13.725         	0.626
MS.414         	13.697         	0.604
MS.415         	13.67          	0.612
MS.416         	13.642         	0.608
MS.417         	13.615         	0.598
MS.418         	13.587         	0.546
MS.419         	13.56          	0.578
MS.420         	13.535         	0.552
MS.421         	13.507         	0.54
MS.422         	13.48          	0.548
MS.423         	13.452         	0.485
MS.424         	13.425         	0.504
MS.425         	13.4           	0.489
MS.426         	13.372         	0.443
MS.427         	13.345         	0.491
MS.428         	13.32          	0.451
MS.429         	13.292         	0.455
MS.430         	13.265         	0.455
MS.431         	13.24          	0.453
MS.432         	13.212         	0.461
MS.433         	13.188         	0.443
MS.434         	13.16          	0.399
MS.435         	13.135         	0.423
MS.436         	13.108         	0.415
MS.437         	13.082         	0.423
MS.438         	13.055         	0.425
MS.439         	13.03          	0.381
MS.440         	13.002         	0.354
MS.441         	12.977         	0.361
MS.442         	12.952         	0.363
MS.443         	12.925         	0.344
MS.444         	12.9           	0.304
MS.445         	12.875         	0.306
MS.446         	12.847         	0.332
MS.447         	12.822         	0.338
MS.448         	12.797         	0.369
MS.449         	12.77          	0.31
MS.450         	12.745         	0.282
MS.451         	12.72          	0.346
MS.452         	12.695         	0.348
MS.453         	12.67          	0.27
MS.454         	12.645         	0.292
MS.455         	12.62          	0.258
MS.456         	12.592         	0.31
MS.457         	12.568         	0.276
MS.458         	12.542         	0.312
MS.459         	12.517         	0.298
MS.460         	12.492         	0.276
MS.461         	12.467         	0.228
MS.462         	12.443         	0.26
MS.463         	12.417         	0.24
MS.464         	12.395         	0.248
MS.465         	12.37          	0.236
MS.466         	12.345         	0.244
MS.467         	12.32          	0.232
MS.468         	12.295         	0.244
MS.469         	12.27          	0.232
MS.470         	12.245         	0.187
MS.471         	12.222         	0.214
MS.472         	12.197         	0.185
MS.473         	12.172         	0.211
MS.474         	12.148         	0.149
MS.475         	12.125         	0.155
MS.476         	12.1           	0.171
MS.477         	12.075         	0.163
MS.478         	12.052         	0.155
MS.479         	12.028         	0.135
MS.480         	12.002         	0.149
MS.481         	11.98          	0.139
MS.482         	11.955         	0.143
MS.483         	11.932         	0.125
MS.484         	11.907         	0.149
MS.485         	11.885         	0.145
MS.486         	11.86          	0.119
MS.487         	11.837         	0.119
MS.488         	11.812         	0.119
MS.489         	11.79          	0.117
MS.490         	11.765         	0.131
MS.491         	11.742         	0.135
MS.492         	11.72          	0.125
MS.493         	11.695         	0.121
MS.494         	11.672         	0.131
MS.495         	11.648         	0.113
MS.496         	11.625         	0.129
MS.497         	11.602         	0.135
MS.498         	11.58          	0.125
MS.499         	11.555         	0.109
MS.500         	11.532         	0.103
