File:              	C:\Qtrac\Data\Daniel M Sørensen\MScan multicentre study\Data from centres\Antalya\Processed data\TR.NC.ANT.5.2- NCC00623E.QZD
Name:              	TR.NC.ANT.5.2
Protocol:          	MSCAN-R2
Date:              	23/6/20
Start time:        	19:54:00
Age:               	63
Sex:               	m
Temperature:       	31
S/R sites:         	TA
NC/disease:        	NC
Operator:          	ab
Comments:
M-SCAN DATA (6.3-1m)
Scanpts: 42, 47, 539, 546
Stim. (mA)     	Amp. (mV)
MS.1           	43.5           	5.4
MS.2           	43.5           	5.442
MS.3           	43.5           	5.4
MS.4           	43.5           	5.152
MS.5           	43.5           	5.255
MS.6           	43.5           	5.323
MS.7           	43.5           	5.253
MS.8           	43.5           	5.329
MS.9           	43.5           	5.255
MS.10          	43.5           	5.257
MS.11          	43.5           	5.229
MS.12          	43.5           	5.239
MS.13          	43.5           	5.297
MS.14          	43.5           	5.261
MS.15          	43.5           	5.255
MS.16          	43.5           	5.331
MS.17          	43.5           	5.223
MS.18          	43.5           	5.364
MS.19          	43.5           	5.255
MS.20          	43.5           	5.307
MS.21          	43.5           	5.237
MS.22          	43.5           	5.239
MS.23          	43.5           	5.344
MS.24          	43.325         	5.307
MS.25          	43.24          	5.319
MS.26          	43.153         	5.275
MS.27          	43.067         	5.388
MS.28          	42.98          	5.313
MS.29          	42.895         	5.279
MS.30          	42.81          	5.279
MS.31          	42.725         	5.392
MS.32          	42.638         	5.275
MS.33          	42.552         	5.329
MS.34          	42.467         	5.289
MS.35          	42.382         	5.273
MS.36          	42.298         	5.267
MS.37          	42.215         	5.275
MS.38          	42.13          	5.325
MS.39          	42.045         	5.291
MS.40          	41.962         	5.327
MS.41          	41.877         	5.331
MS.42          	41.795         	5.269
MS.43          	41.71          	5.307
MS.44          	41.627         	5.291
MS.45          	41.545         	5.293
MS.46          	41.46          	5.307
MS.47          	41.377         	5.285
MS.48          	41.295         	5.289
MS.49          	41.212         	5.293
MS.50          	41.13          	5.325
MS.51          	41.048         	5.283
MS.52          	40.967         	5.293
MS.53          	40.885         	5.273
MS.54          	40.802         	5.327
MS.55          	40.722         	5.305
MS.56          	40.64          	5.295
MS.57          	40.56          	5.285
MS.58          	40.478         	5.305
MS.59          	40.397         	5.287
MS.60          	40.317         	5.303
MS.61          	40.235         	5.315
MS.62          	40.155         	5.281
MS.63          	40.075         	5.305
MS.64          	39.995         	5.251
MS.65          	39.915         	5.281
MS.66          	39.835         	5.225
MS.67          	39.755         	5.271
MS.68          	39.677         	5.265
MS.69          	39.597         	5.267
MS.70          	39.517         	5.243
MS.71          	39.44          	5.245
MS.72          	39.36          	5.257
MS.73          	39.282         	5.231
MS.74          	39.202         	5.275
MS.75          	39.125         	5.225
MS.76          	39.048         	5.225
MS.77          	38.967         	5.257
MS.78          	38.89          	5.245
MS.79          	38.812         	5.261
MS.80          	38.735         	5.275
MS.81          	38.657         	5.193
MS.82          	38.58          	5.227
MS.83          	38.505         	5.251
MS.84          	38.427         	5.201
MS.85          	38.35          	5.217
MS.86          	38.272         	5.269
MS.87          	38.197         	5.168
MS.88          	38.12          	5.227
MS.89          	38.045         	5.154
MS.90          	37.967         	5.14
MS.91          	37.892         	5.168
MS.92          	37.817         	5.231
MS.93          	37.743         	5.158
MS.94          	37.665         	5.12
MS.95          	37.59          	5.188
MS.96          	37.515         	5.142
MS.97          	37.44          	5.146
MS.98          	37.365         	5.001
MS.99          	37.29          	5.144
MS.100         	37.217         	5.128
MS.101         	37.142         	5.138
MS.102         	37.068         	5.102
MS.103         	36.995         	5.166
MS.104         	36.92          	5.088
MS.105         	36.847         	5.104
MS.106         	36.772         	5.07
MS.107         	36.7           	5.209
MS.108         	36.625         	5.275
MS.109         	36.552         	5.182
MS.110         	36.48          	5.263
MS.111         	36.407         	5.082
MS.112         	36.335         	5.035
MS.113         	36.263         	5.096
MS.114         	36.19          	5.013
MS.115         	36.118         	5.158
MS.116         	36.045         	5.201
MS.117         	35.972         	5.025
MS.118         	35.9           	5.058
MS.119         	35.83          	5.124
MS.120         	35.757         	5.054
MS.121         	35.685         	5.027
MS.122         	35.615         	4.977
MS.123         	35.542         	4.969
MS.124         	35.472         	4.989
MS.125         	35.403         	4.854
MS.126         	35.33          	4.955
MS.127         	35.26          	4.927
MS.128         	35.19          	4.911
MS.129         	35.12          	4.882
MS.130         	35.05          	4.902
MS.131         	34.98          	4.904
MS.132         	34.91          	4.868
MS.133         	34.84          	4.888
MS.134         	34.77          	4.894
MS.135         	34.7           	4.88
MS.136         	34.632         	4.786
MS.137         	34.562         	4.776
MS.138         	34.493         	4.832
MS.139         	34.425         	4.794
MS.140         	34.355         	4.834
MS.141         	34.287         	4.772
MS.142         	34.217         	4.814
MS.143         	34.15          	4.77
MS.144         	34.083         	4.766
MS.145         	34.013         	4.78
MS.146         	33.945         	4.719
MS.147         	33.877         	4.784
MS.148         	33.81          	4.745
MS.149         	33.743         	4.768
MS.150         	33.675         	4.693
MS.151         	33.607         	4.679
MS.152         	33.54          	4.717
MS.153         	33.472         	4.548
MS.154         	33.407         	4.637
MS.155         	33.34          	4.61
MS.156         	33.272         	4.57
MS.157         	33.208         	4.622
MS.158         	33.14          	4.554
MS.159         	33.075         	4.657
MS.160         	33.007         	4.558
MS.161         	32.943         	4.5
MS.162         	32.877         	4.546
MS.163         	32.81          	4.403
MS.164         	32.745         	4.496
MS.165         	32.68          	4.612
MS.166         	32.615         	4.371
MS.167         	32.55          	4.486
MS.168         	32.485         	4.588
MS.169         	32.42          	4.431
MS.170         	32.355         	4.31
MS.171         	32.29          	4.395
MS.172         	32.225         	4.383
MS.173         	32.16          	4.453
MS.174         	32.097         	4.304
MS.175         	32.032         	4.403
MS.176         	31.967         	4.258
MS.177         	31.905         	4.296
MS.178         	31.84          	4.298
MS.179         	31.778         	4.258
MS.180         	31.715         	4.256
MS.181         	31.65          	4.236
MS.182         	31.587         	4.224
MS.183         	31.525         	4.246
MS.184         	31.462         	4.232
MS.185         	31.397         	4.218
MS.186         	31.335         	4.22
MS.187         	31.272         	4.21
MS.188         	31.21          	4.218
MS.189         	31.147         	4.274
MS.190         	31.085         	4.073
MS.191         	31.025         	4.236
MS.192         	30.962         	4.274
MS.193         	30.9           	4.238
MS.194         	30.837         	4.129
MS.195         	30.778         	4.252
MS.196         	30.715         	4.23
MS.197         	30.655         	4.206
MS.198         	30.592         	4.236
MS.199         	30.532         	4.222
MS.200         	30.47          	4.258
MS.201         	30.41          	4.254
MS.202         	30.35          	4.268
MS.203         	30.287         	4.071
MS.204         	30.227         	4.232
MS.205         	30.167         	4.073
MS.206         	30.108         	4.175
MS.207         	30.047         	4.135
MS.208         	29.987         	4.014
MS.209         	29.927         	4.04
MS.210         	29.867         	4.059
MS.211         	29.807         	4.069
MS.212         	29.747         	4.089
MS.213         	29.688         	4.024
MS.214         	29.63          	4.079
MS.215         	29.57          	4.016
MS.216         	29.51          	4.036
MS.217         	29.452         	4.055
MS.218         	29.392         	4.046
MS.219         	29.335         	4.071
MS.220         	29.275         	4.061
MS.221         	29.217         	4.109
MS.222         	29.16          	4.135
MS.223         	29.1           	3.988
MS.224         	29.042         	3.944
MS.225         	28.985         	4.032
MS.226         	28.927         	4.057
MS.227         	28.868         	4.036
MS.228         	28.81          	3.998
MS.229         	28.752         	3.881
MS.230         	28.695         	3.914
MS.231         	28.637         	3.891
MS.232         	28.582         	3.889
MS.233         	28.525         	3.883
MS.234         	28.467         	3.875
MS.235         	28.41          	3.787
MS.236         	28.352         	3.895
MS.237         	28.297         	3.775
MS.238         	28.24          	3.867
MS.239         	28.185         	3.777
MS.240         	28.127         	3.821
MS.241         	28.073         	3.754
MS.242         	28.015         	3.789
MS.243         	27.96          	3.758
MS.244         	27.903         	3.555
MS.245         	27.847         	3.728
MS.246         	27.792         	3.65
MS.247         	27.737         	3.527
MS.248         	27.682         	3.664
MS.249         	27.625         	3.668
MS.250         	27.57          	3.543
MS.251         	27.515         	3.587
MS.252         	27.46          	3.688
MS.253         	27.405         	3.468
MS.254         	27.35          	3.535
MS.255         	27.297         	3.452
MS.256         	27.243         	3.45
MS.257         	27.188         	3.948
MS.258         	27.132         	3.45
MS.259         	27.08          	3.404
MS.260         	27.025         	3.384
MS.261         	26.97          	3.388
MS.262         	26.917         	3.333
MS.263         	26.862         	3.493
MS.264         	26.81          	3.547
MS.265         	26.755         	3.293
MS.266         	26.702         	3.38
MS.267         	26.65          	3.422
MS.268         	26.595         	3.289
MS.269         	26.542         	3.358
MS.270         	26.49          	3.271
MS.271         	26.438         	3.446
MS.272         	26.385         	3.414
MS.273         	26.332         	3.241
MS.274         	26.278         	3.198
MS.275         	26.225         	3.11
MS.276         	26.175         	3.271
MS.277         	26.122         	3.277
MS.278         	26.07          	3.194
MS.279         	26.017         	3.182
MS.280         	25.965         	3.203
MS.281         	25.912         	3.013
MS.282         	25.862         	3.098
MS.283         	25.81          	3.12
MS.284         	25.757         	3.194
MS.285         	25.707         	3.053
MS.286         	25.655         	3.066
MS.287         	25.605         	3.019
MS.288         	25.552         	2.9
MS.289         	25.502         	3.035
MS.290         	25.45          	2.971
MS.291         	25.4           	2.91
MS.292         	25.35          	2.834
MS.293         	25.3           	2.822
MS.294         	25.247         	2.921
MS.295         	25.198         	2.842
MS.296         	25.147         	2.83
MS.297         	25.097         	2.767
MS.298         	25.047         	2.818
MS.299         	24.997         	2.61
MS.300         	24.948         	2.637
MS.301         	24.897         	2.663
MS.302         	24.847         	2.683
MS.303         	24.797         	2.624
MS.304         	24.747         	2.584
MS.305         	24.7           	2.695
MS.306         	24.65          	2.713
MS.307         	24.6           	2.506
MS.308         	24.55          	2.586
MS.309         	24.502         	2.5
MS.310         	24.452         	2.548
MS.311         	24.405         	2.419
MS.312         	24.355         	2.485
MS.313         	24.307         	2.536
MS.314         	24.257         	2.459
MS.315         	24.21          	2.449
MS.316         	24.163         	2.461
MS.317         	24.112         	2.316
MS.318         	24.065         	2.363
MS.319         	24.017         	2.326
MS.320         	23.97          	2.385
MS.321         	23.92          	2.381
MS.322         	23.872         	2.238
MS.323         	23.825         	2.336
MS.324         	23.778         	2.379
MS.325         	23.73          	2.459
MS.326         	23.682         	2.179
MS.327         	23.635         	2.203
MS.328         	23.587         	2.165
MS.329         	23.542         	2.157
MS.330         	23.495         	2.067
MS.331         	23.448         	2.165
MS.332         	23.4           	2.137
MS.333         	23.352         	2.155
MS.334         	23.307         	2.024
MS.335         	23.26          	2.014
MS.336         	23.215         	1.978
MS.337         	23.167         	2.012
MS.338         	23.122         	1.871
MS.339         	23.075         	2.069
MS.340         	23.03          	1.915
MS.341         	22.983         	1.976
MS.342         	22.938         	1.861
MS.343         	22.892         	2.067
MS.344         	22.845         	1.74
MS.345         	22.8           	1.787
MS.346         	22.755         	1.825
MS.347         	22.71          	1.905
MS.348         	22.663         	1.676
MS.349         	22.618         	1.71
MS.350         	22.573         	1.603
MS.351         	22.528         	1.591
MS.352         	22.483         	1.561
MS.353         	22.438         	1.686
MS.354         	22.392         	1.565
MS.355         	22.347         	1.49
MS.356         	22.305         	1.539
MS.357         	22.26          	1.547
MS.358         	22.215         	1.495
MS.359         	22.17          	1.551
MS.360         	22.125         	1.507
MS.361         	22.083         	1.422
MS.362         	22.038         	1.424
MS.363         	21.993         	1.422
MS.364         	21.95          	1.345
MS.365         	21.905         	1.259
MS.366         	21.862         	1.352
MS.367         	21.817         	1.325
MS.368         	21.775         	1.281
MS.369         	21.733         	1.333
MS.370         	21.688         	1.291
MS.371         	21.645         	1.138
MS.372         	21.602         	1.263
MS.373         	21.557         	1.108
MS.374         	21.515         	1.219
MS.375         	21.472         	1.182
MS.376         	21.43          	1.204
MS.377         	21.387         	1.16
MS.378         	21.342         	1.126
MS.379         	21.3           	1.196
MS.380         	21.257         	1.279
MS.381         	21.215         	1.16
MS.382         	21.172         	1.116
MS.383         	21.132         	1.192
MS.384         	21.09          	1.055
MS.385         	21.047         	1.092
MS.386         	21.005         	1.13
MS.387         	20.962         	1.045
MS.388         	20.92          	1.118
MS.389         	20.88          	1.088
MS.390         	20.837         	1.112
MS.391         	20.795         	1.106
MS.392         	20.755         	1.096
MS.393         	20.712         	1.065
MS.394         	20.672         	1.124
MS.395         	20.63          	1.061
MS.396         	20.59          	1.059
MS.397         	20.547         	1.015
MS.398         	20.507         	0.961
MS.399         	20.465         	0.922
MS.400         	20.425         	0.981
MS.401         	20.385         	0.981
MS.402         	20.342         	0.866
MS.403         	20.302         	0.892
MS.404         	20.262         	0.796
MS.405         	20.222         	0.866
MS.406         	20.182         	0.931
MS.407         	20.14          	0.896
MS.408         	20.1           	0.777
MS.409         	20.06          	0.846
MS.410         	20.02          	0.898
MS.411         	19.98          	0.792
MS.412         	19.94          	0.792
MS.413         	19.9           	0.804
MS.414         	19.86          	0.862
MS.415         	19.823         	0.717
MS.416         	19.782         	0.937
MS.417         	19.743         	0.737
MS.418         	19.702         	0.725
MS.419         	19.663         	0.669
MS.420         	19.625         	0.677
MS.421         	19.585         	0.659
MS.422         	19.545         	0.705
MS.423         	19.507         	0.689
MS.424         	19.467         	0.58
MS.425         	19.43          	0.624
MS.426         	19.39          	0.643
MS.427         	19.352         	0.594
MS.428         	19.312         	0.616
MS.429         	19.275         	0.52
MS.430         	19.235         	0.489
MS.431         	19.198         	0.55
MS.432         	19.157         	0.556
MS.433         	19.12          	0.5
MS.434         	19.083         	0.473
MS.435         	19.045         	0.415
MS.436         	19.005         	0.497
MS.437         	18.967         	0.449
MS.438         	18.93          	0.608
MS.439         	18.892         	0.365
MS.440         	18.855         	0.415
MS.441         	18.817         	0.497
MS.442         	18.78          	0.397
MS.443         	18.743         	0.441
MS.444         	18.705         	0.431
MS.445         	18.667         	0.371
MS.446         	18.63          	0.421
MS.447         	18.592         	0.387
MS.448         	18.555         	0.365
MS.449         	18.517         	0.373
MS.450         	18.483         	0.359
MS.451         	18.445         	0.357
MS.452         	18.407         	0.415
MS.453         	18.37          	0.28
MS.454         	18.335         	0.316
MS.455         	18.297         	0.312
MS.456         	18.26          	0.322
MS.457         	18.225         	0.284
MS.458         	18.188         	0.262
MS.459         	18.153         	0.27
MS.460         	18.115         	0.294
MS.461         	18.08          	0.22
MS.462         	18.042         	0.298
MS.463         	18.007         	0.187
MS.464         	17.97          	0.274
MS.465         	17.935         	0.256
MS.466         	17.9           	0.211
MS.467         	17.862         	0.203
MS.468         	17.827         	0.175
MS.469         	17.792         	0.232
MS.470         	17.757         	0.193
MS.471         	17.72          	0.27
MS.472         	17.685         	0.211
MS.473         	17.65          	0.145
MS.474         	17.615         	0.155
MS.475         	17.58          	0.197
MS.476         	17.545         	0.06
MS.477         	17.51          	0.159
MS.478         	17.475         	0.107
MS.479         	17.44          	0.117
MS.480         	17.405         	0.089
MS.481         	17.37          	0.091
MS.482         	17.335         	-0.002
MS.483         	17.3           	0.048
MS.484         	17.267         	0.068
MS.485         	17.233         	0.111
MS.486         	17.198         	0.073
MS.487         	17.163         	0.079
MS.488         	17.128         	0.083
MS.489         	17.095         	0.046
MS.490         	17.06          	0.054
MS.491         	17.028         	0.07
MS.492         	16.993         	0.066
MS.493         	16.958         	0.056
MS.494         	16.925         	0.046
MS.495         	16.89          	0.05
MS.496         	16.858         	0.05
MS.497         	16.823         	0.044
MS.498         	16.79          	0.052
MS.499         	16.755         	0.008
MS.500         	16.722         	0.002
MS.501         	16.69          	0.012
