File:              	C:\Qtrac\Data\Daniel M Sørensen\MScan multicentre study\Data from centres\Antalya\Processed data\TR.NC.ANT.5.1-TIBIALISA- NCC00609C.QZD
Name:              	TR.NC.ANT.5.1
Protocol:          	MSCAN-R2
Date:              	9/6/20
Start time:        	14:31:48
Age:               	63
Sex:               	m
Temperature:       	30.9
S/R sites:         	TA
NC/disease:        	NC
Operator:          	ab
Comments:
M-SCAN DATA (7.4-2.6m)
Scanpts: 28, 34, 474, 486
Stim. (mA)     	Amp. (mV)
MS.1           	37.5           	5.068
MS.2           	37.5           	5.031
MS.3           	37.5           	5.158
MS.4           	37.5           	5.041
MS.5           	37.5           	5.066
MS.6           	37.5           	5.08
MS.7           	37.5           	5.074
MS.8           	37.5           	5.086
MS.9           	37.5           	5.045
MS.10          	37.5           	5.019
MS.11          	37.5           	5.148
MS.12          	37.5           	5.082
MS.13          	37.5           	5.114
MS.14          	37.5           	5.019
MS.15          	37.5           	5.056
MS.16          	37.5           	5.084
MS.17          	37.5           	5.094
MS.18          	37.5           	5.074
MS.19          	37.5           	5.136
MS.20          	37.5           	5.156
MS.21          	37.5           	5.144
MS.22          	37.5           	4.979
MS.23          	37.5           	5.09
MS.24          	37.275         	5.033
MS.25          	37.2           	5.058
MS.26          	37.127         	5.088
MS.27          	37.052         	5.062
MS.28          	36.978         	5.09
MS.29          	36.905         	5.062
MS.30          	36.83          	5.076
MS.31          	36.757         	5.068
MS.32          	36.685         	5.076
MS.33          	36.61          	5.064
MS.34          	36.537         	5.08
MS.35          	36.465         	5.062
MS.36          	36.392         	5.029
MS.37          	36.32          	5.082
MS.38          	36.247         	5.072
MS.39          	36.175         	5.041
MS.40          	36.103         	5.068
MS.41          	36.03          	5.047
MS.42          	35.958         	5.047
MS.43          	35.885         	5.054
MS.44          	35.815         	4.983
MS.45          	35.743         	5.086
MS.46          	35.67          	4.971
MS.47          	35.6           	5.017
MS.48          	35.528         	4.888
MS.49          	35.458         	5.054
MS.50          	35.388         	5.043
MS.51          	35.315         	5.058
MS.52          	35.245         	5.023
MS.53          	35.175         	4.919
MS.54          	35.105         	4.973
MS.55          	35.035         	4.961
MS.56          	34.965         	4.937
MS.57          	34.895         	5.021
MS.58          	34.825         	5.019
MS.59          	34.755         	5.015
MS.60          	34.685         	4.888
MS.61          	34.618         	4.854
MS.62          	34.548         	4.784
MS.63          	34.478         	4.902
MS.64          	34.41          	4.884
MS.65          	34.34          	4.957
MS.66          	34.272         	4.913
MS.67          	34.205         	4.818
MS.68          	34.135         	4.913
MS.69          	34.068         	4.921
MS.70          	34             	4.834
MS.71          	33.93          	4.782
MS.72          	33.862         	4.772
MS.73          	33.795         	4.804
MS.74          	33.728         	4.782
MS.75          	33.66          	4.77
MS.76          	33.592         	4.774
MS.77          	33.528         	4.782
MS.78          	33.46          	4.808
MS.79          	33.392         	4.774
MS.80          	33.325         	4.703
MS.81          	33.26          	4.735
MS.82          	33.193         	4.749
MS.83          	33.127         	4.741
MS.84          	33.06          	4.772
MS.85          	32.995         	4.751
MS.86          	32.927         	4.745
MS.87          	32.862         	4.763
MS.88          	32.798         	4.709
MS.89          	32.732         	4.749
MS.90          	32.665         	4.78
MS.91          	32.6           	4.719
MS.92          	32.535         	4.701
MS.93          	32.47          	4.693
MS.94          	32.405         	4.699
MS.95          	32.34          	4.707
MS.96          	32.278         	4.687
MS.97          	32.212         	4.675
MS.98          	32.147         	4.713
MS.99          	32.083         	4.729
MS.100         	32.02          	4.719
MS.101         	31.955         	4.691
MS.102         	31.892         	4.697
MS.103         	31.827         	4.713
MS.104         	31.765         	4.673
MS.105         	31.7           	4.679
MS.106         	31.637         	4.721
MS.107         	31.575         	4.695
MS.108         	31.51          	4.643
MS.109         	31.448         	4.582
MS.110         	31.385         	4.641
MS.111         	31.323         	4.673
MS.112         	31.26          	4.647
MS.113         	31.198         	4.641
MS.114         	31.135         	4.606
MS.115         	31.073         	4.647
MS.116         	31.01          	4.618
MS.117         	30.95          	4.59
MS.118         	30.887         	4.602
MS.119         	30.825         	4.659
MS.120         	30.762         	4.584
MS.121         	30.702         	4.683
MS.122         	30.64          	4.504
MS.123         	30.58          	4.586
MS.124         	30.517         	4.562
MS.125         	30.457         	4.552
MS.126         	30.397         	4.53
MS.127         	30.335         	4.524
MS.128         	30.275         	4.526
MS.129         	30.215         	4.556
MS.130         	30.155         	4.492
MS.131         	30.095         	4.518
MS.132         	30.035         	4.502
MS.133         	29.975         	4.633
MS.134         	29.915         	4.6
MS.135         	29.855         	4.417
MS.136         	29.795         	4.522
MS.137         	29.735         	4.49
MS.138         	29.675         	4.542
MS.139         	29.617         	4.49
MS.140         	29.557         	4.56
MS.141         	29.497         	4.508
MS.142         	29.44          	4.469
MS.143         	29.38          	4.598
MS.144         	29.323         	4.556
MS.145         	29.262         	4.512
MS.146         	29.205         	4.526
MS.147         	29.147         	4.536
MS.148         	29.087         	4.51
MS.149         	29.03          	4.522
MS.150         	28.972         	4.477
MS.151         	28.915         	4.508
MS.152         	28.858         	4.49
MS.153         	28.8           	4.415
MS.154         	28.743         	4.425
MS.155         	28.685         	4.433
MS.156         	28.627         	4.437
MS.157         	28.57          	4.486
MS.158         	28.512         	4.419
MS.159         	28.455         	4.437
MS.160         	28.397         	4.417
MS.161         	28.342         	4.417
MS.162         	28.285         	4.403
MS.163         	28.227         	4.383
MS.164         	28.172         	4.433
MS.165         	28.115         	4.381
MS.166         	28.06          	4.367
MS.167         	28.002         	4.405
MS.168         	27.948         	4.351
MS.169         	27.892         	4.341
MS.170         	27.835         	4.316
MS.171         	27.78          	4.363
MS.172         	27.725         	4.421
MS.173         	27.67          	4.326
MS.174         	27.615         	4.306
MS.175         	27.56          	4.353
MS.176         	27.505         	4.226
MS.177         	27.45          	4.343
MS.178         	27.395         	4.347
MS.179         	27.34          	4.193
MS.180         	27.285         	4.296
MS.181         	27.23          	4.298
MS.182         	27.175         	4.268
MS.183         	27.122         	4.395
MS.184         	27.067         	4.304
MS.185         	27.012         	4.24
MS.186         	26.96          	4.187
MS.187         	26.905         	4.147
MS.188         	26.852         	4.145
MS.189         	26.797         	4.153
MS.190         	26.745         	4.141
MS.191         	26.692         	4.171
MS.192         	26.637         	4.137
MS.193         	26.585         	4.087
MS.194         	26.532         	4.107
MS.195         	26.477         	4.057
MS.196         	26.425         	4.059
MS.197         	26.372         	4.046
MS.198         	26.32          	4.071
MS.199         	26.267         	3.972
MS.200         	26.215         	3.978
MS.201         	26.162         	3.839
MS.202         	26.11          	3.948
MS.203         	26.057         	3.984
MS.204         	26.005         	4.085
MS.205         	25.955         	3.829
MS.206         	25.903         	3.948
MS.207         	25.85          	3.833
MS.208         	25.8           	3.901
MS.209         	25.747         	3.783
MS.210         	25.695         	3.728
MS.211         	25.645         	3.907
MS.212         	25.592         	3.881
MS.213         	25.542         	3.861
MS.214         	25.493         	3.771
MS.215         	25.44          	3.726
MS.216         	25.39          	3.871
MS.217         	25.34          	3.877
MS.218         	25.288         	3.758
MS.219         	25.237         	3.738
MS.220         	25.188         	3.736
MS.221         	25.137         	3.837
MS.222         	25.087         	3.682
MS.223         	25.038         	3.72
MS.224         	24.987         	3.676
MS.225         	24.938         	3.708
MS.226         	24.887         	3.688
MS.227         	24.837         	3.521
MS.228         	24.788         	3.523
MS.229         	24.737         	3.571
MS.230         	24.688         	3.67
MS.231         	24.64          	3.613
MS.232         	24.59          	3.601
MS.233         	24.54          	3.414
MS.234         	24.493         	3.501
MS.235         	24.442         	3.495
MS.236         	24.395         	3.446
MS.237         	24.345         	3.414
MS.238         	24.297         	3.396
MS.239         	24.247         	3.386
MS.240         	24.2           	3.466
MS.241         	24.153         	3.37
MS.242         	24.102         	3.356
MS.243         	24.055         	3.301
MS.244         	24.007         	3.331
MS.245         	23.96          	3.301
MS.246         	23.91          	3.263
MS.247         	23.862         	3.237
MS.248         	23.815         	3.325
MS.249         	23.767         	3.196
MS.250         	23.72          	3.174
MS.251         	23.672         	3.128
MS.252         	23.625         	3.154
MS.253         	23.577         	3.136
MS.254         	23.532         	3.007
MS.255         	23.485         	3.102
MS.256         	23.438         	3.251
MS.257         	23.39          	3.057
MS.258         	23.345         	3.015
MS.259         	23.297         	3.051
MS.260         	23.25          	2.985
MS.261         	23.205         	2.987
MS.262         	23.157         	2.925
MS.263         	23.112         	2.977
MS.264         	23.065         	2.941
MS.265         	23.02          	3.003
MS.266         	22.972         	2.945
MS.267         	22.927         	2.862
MS.268         	22.882         	2.822
MS.269         	22.835         	2.884
MS.270         	22.79          	2.842
MS.271         	22.745         	2.761
MS.272         	22.7           	2.715
MS.273         	22.655         	2.685
MS.274         	22.608         	2.725
MS.275         	22.562         	2.689
MS.276         	22.517         	2.856
MS.277         	22.472         	2.735
MS.278         	22.427         	2.671
MS.279         	22.385         	2.661
MS.280         	22.34          	2.723
MS.281         	22.295         	2.633
MS.282         	22.25          	2.626
MS.283         	22.205         	2.542
MS.284         	22.16          	2.61
MS.285         	22.118         	2.528
MS.286         	22.073         	2.628
MS.287         	22.028         	2.602
MS.288         	21.985         	2.522
MS.289         	21.94          	2.487
MS.290         	21.897         	2.445
MS.291         	21.852         	2.483
MS.292         	21.81          	2.441
MS.293         	21.765         	2.395
MS.294         	21.722         	2.344
MS.295         	21.68          	2.405
MS.296         	21.635         	2.304
MS.297         	21.592         	2.284
MS.298         	21.55          	2.276
MS.299         	21.505         	2.33
MS.300         	21.462         	2.342
MS.301         	21.42          	2.268
MS.302         	21.377         	2.145
MS.303         	21.335         	2.216
MS.304         	21.292         	2.187
MS.305         	21.25          	2.22
MS.306         	21.208         	2.234
MS.307         	21.165         	2.073
MS.308         	21.122         	2.071
MS.309         	21.08          	2.018
MS.310         	21.038         	2.133
MS.311         	20.995         	2.016
MS.312         	20.955         	1.986
MS.313         	20.913         	1.821
MS.314         	20.87          	1.96
MS.315         	20.83          	1.924
MS.316         	20.788         	1.857
MS.317         	20.745         	1.907
MS.318         	20.705         	1.779
MS.319         	20.663         	1.863
MS.320         	20.622         	1.774
MS.321         	20.58          	1.801
MS.322         	20.54          	1.77
MS.323         	20.497         	1.7
MS.324         	20.458         	1.7
MS.325         	20.417         	1.684
MS.326         	20.375         	1.654
MS.327         	20.335         	1.724
MS.328         	20.295         	1.523
MS.329         	20.252         	1.505
MS.330         	20.212         	1.456
MS.331         	20.172         	1.533
MS.332         	20.132         	1.505
MS.333         	20.092         	1.356
MS.334         	20.052         	1.376
MS.335         	20.012         	1.48
MS.336         	19.972         	1.378
MS.337         	19.932         	1.352
MS.338         	19.892         	1.515
MS.339         	19.852         	1.37
MS.340         	19.812         	1.319
MS.341         	19.772         	1.267
MS.342         	19.735         	1.17
MS.343         	19.695         	1.204
MS.344         	19.655         	1.172
MS.345         	19.615         	1.211
MS.346         	19.577         	1.16
MS.347         	19.538         	1.021
MS.348         	19.497         	1.152
MS.349         	19.46          	1.086
MS.350         	19.42          	1.237
MS.351         	19.382         	1.237
MS.352         	19.342         	1.007
MS.353         	19.305         	1.001
MS.354         	19.265         	0.949
MS.355         	19.227         	0.981
MS.356         	19.19          	1.009
MS.357         	19.15          	0.777
MS.358         	19.112         	0.818
MS.359         	19.075         	0.8
MS.360         	19.035         	0.844
MS.361         	18.997         	0.796
MS.362         	18.96          	0.558
MS.363         	18.922         	0.812
MS.364         	18.885         	0.79
MS.365         	18.847         	0.816
MS.366         	18.81          	0.779
MS.367         	18.772         	0.645
MS.368         	18.735         	0.622
MS.369         	18.698         	0.638
MS.370         	18.66          	0.6
MS.371         	18.622         	0.608
MS.372         	18.585         	0.493
MS.373         	18.547         	0.582
MS.374         	18.51          	0.534
MS.375         	18.472         	0.431
MS.376         	18.438         	0.473
MS.377         	18.4           	0.514
MS.378         	18.362         	0.439
MS.379         	18.327         	0.57
MS.380         	18.29          	0.455
MS.381         	18.253         	0.433
MS.382         	18.217         	0.375
MS.383         	18.18          	0.419
MS.384         	18.145         	0.457
MS.385         	18.108         	0.389
MS.386         	18.073         	0.431
MS.387         	18.035         	0.373
MS.388         	18             	0.391
MS.389         	17.962         	0.461
MS.390         	17.927         	0.407
MS.391         	17.892         	0.395
MS.392         	17.855         	0.312
MS.393         	17.82          	0.324
MS.394         	17.785         	0.306
MS.395         	17.75          	0.26
MS.396         	17.712         	0.383
MS.397         	17.677         	0.342
MS.398         	17.642         	0.322
MS.399         	17.608         	0.256
MS.400         	17.573         	0.284
MS.401         	17.538         	0.344
MS.402         	17.503         	0.302
MS.403         	17.467         	0.304
MS.404         	17.432         	0.272
MS.405         	17.397         	0.25
MS.406         	17.362         	0.246
MS.407         	17.327         	0.234
MS.408         	17.292         	0.278
MS.409         	17.26          	0.264
MS.410         	17.225         	0.224
MS.411         	17.19          	0.298
MS.412         	17.155         	0.242
MS.413         	17.122         	0.268
MS.414         	17.087         	0.211
MS.415         	17.052         	0.222
MS.416         	17.02          	0.216
MS.417         	16.985         	0.207
MS.418         	16.95          	0.187
MS.419         	16.917         	0.169
MS.420         	16.882         	0.185
MS.421         	16.85          	0.193
MS.422         	16.815         	0.147
MS.423         	16.782         	0.185
MS.424         	16.75          	0.161
MS.425         	16.715         	0.161
MS.426         	16.682         	0.058
MS.427         	16.65          	0.161
MS.428         	16.615         	0.149
MS.429         	16.583         	0.183
MS.430         	16.55          	0.183
MS.431         	16.515         	0.175
MS.432         	16.483         	0.161
MS.433         	16.45          	0.149
MS.434         	16.417         	0.054
MS.435         	16.385         	0.127
MS.436         	16.352         	0.209
MS.437         	16.32          	0.155
MS.438         	16.288         	0.05
MS.439         	16.255         	0.058
MS.440         	16.222         	0.145
MS.441         	16.19          	0.127
MS.442         	16.157         	0.087
MS.443         	16.125         	0.03
MS.444         	16.092         	0.115
MS.445         	16.06          	0.034
MS.446         	16.028         	0.155
MS.447         	15.995         	0.173
MS.448         	15.965         	0.147
MS.449         	15.932         	0.026
MS.450         	15.9           	0.123
MS.451         	15.867         	0.002
MS.452         	15.837         	0.133
MS.453         	15.805         	0.004
MS.454         	15.773         	0.028
MS.455         	15.742         	0.131
MS.456         	15.71          	0.056
MS.457         	15.68          	0.006
MS.458         	15.648         	0.036
MS.459         	15.617         	0.123
MS.460         	15.585         	0.004
MS.461         	15.555         	0.04
MS.462         	15.523         	0.016
MS.463         	15.492         	0.002
MS.464         	15.46          	0.004
MS.465         	15.43          	0.002
MS.466         	15.4           	0.006
MS.467         	15.37          	0.01
MS.468         	15.337         	0.000
MS.469         	15.307         	0.004
MS.470         	15.277         	0.002
MS.471         	15.247         	0.006
MS.472         	15.215         	0.004
MS.473         	15.185         	0.012
MS.474         	15.155         	0.004
MS.475         	15.125         	0.004
MS.476         	15.095         	0.002
MS.477         	15.065         	0.000
MS.478         	15.035         	0.002
MS.479         	15.005         	0.006
MS.480         	14.975         	0.004
MS.481         	14.945         	0.002
MS.482         	14.915         	0.008
MS.483         	14.885         	0.004
MS.484         	14.855         	0.000
MS.485         	14.825         	0.01
MS.486         	14.795         	0.000
MS.487         	14.765         	0.004
MS.488         	14.737         	0.002
MS.489         	14.707         	0.004
MS.490         	14.677         	0.004
MS.491         	14.648         	0.002
MS.492         	14.62          	0.01
MS.493         	14.59          	0.002
MS.494         	14.56          	0.004
MS.495         	14.532         	0.004
MS.496         	14.502         	0.002
MS.497         	14.475         	0.004
MS.498         	14.445         	0.002
MS.499         	14.415         	0.004
MS.500         	14.387         	-0.002
