File:              	C:\Qtrac\Data\Daniel M Sørensen\MScan multicentre study\Data from centres\Antalya\Processed data\TR.NC.ANT.6.1- NCC00915C.QZD
Name:              	TR.NC.ANT.6.1
Protocol:          	MSCAN-R2
Date:              	15/9/20
Start time:        	15:05:52
Age:               	27
Sex:               	M
Temperature:       	31.3
S/R sites:         	TA
NC/disease:        	NC
Operator:          	AB
Comments:
M-SCAN DATA (7.9-0.9m)
Scanpts: 139, 145, 728, 750
Stim. (mA)     	Amp. (mV)
MS.1           	30             	7.849
MS.2           	30             	7.763
MS.3           	30             	8.002
MS.4           	30             	7.924
MS.5           	30             	7.96
MS.6           	30             	7.98
MS.7           	30             	7.867
MS.8           	30             	7.93
MS.9           	30             	7.912
MS.10          	30             	7.988
MS.11          	30             	7.948
MS.12          	30             	7.912
MS.13          	30             	7.938
MS.14          	30             	7.928
MS.15          	30             	7.877
MS.16          	30             	7.803
MS.17          	30             	7.797
MS.18          	30             	7.875
MS.19          	30             	7.75
MS.20          	30             	7.805
MS.21          	30             	7.813
MS.22          	30             	7.877
MS.23          	30             	7.982
MS.24          	29.88          	7.791
MS.25          	29.82          	7.958
MS.26          	29.76          	7.952
MS.27          	29.702         	7.817
MS.28          	29.642         	7.869
MS.29          	29.582         	7.811
MS.30          	29.522         	7.93
MS.31          	29.465         	8.012
MS.32          	29.405         	7.896
MS.33          	29.347         	7.944
MS.34          	29.287         	7.988
MS.35          	29.23          	7.984
MS.36          	29.172         	7.93
MS.37          	29.112         	7.986
MS.38          	29.055         	7.92
MS.39          	28.997         	7.982
MS.40          	28.94          	8.012
MS.41          	28.882         	7.879
MS.42          	28.823         	7.936
MS.43          	28.765         	7.837
MS.44          	28.707         	7.827
MS.45          	28.65          	7.728
MS.46          	28.595         	7.847
MS.47          	28.537         	7.769
MS.48          	28.48          	7.841
MS.49          	28.422         	7.74
MS.50          	28.365         	7.851
MS.51          	28.31          	7.765
MS.52          	28.252         	7.924
MS.53          	28.198         	7.682
MS.54          	28.14          	7.692
MS.55          	28.085         	7.684
MS.56          	28.028         	7.775
MS.57          	27.972         	7.771
MS.58          	27.915         	7.728
MS.59          	27.86          	7.922
MS.60          	27.805         	7.734
MS.61          	27.75          	7.781
MS.62          	27.692         	7.827
MS.63          	27.637         	7.883
MS.64          	27.582         	7.982
MS.65          	27.528         	7.956
MS.66          	27.472         	7.896
MS.67          	27.417         	7.94
MS.68          	27.362         	7.889
MS.69          	27.307         	7.859
MS.70          	27.255         	7.986
MS.71          	27.2           	8.002
MS.72          	27.145         	8.115
MS.73          	27.09          	7.93
MS.74          	27.037         	8.045
MS.75          	26.983         	7.982
MS.76          	26.927         	8.095
MS.77          	26.875         	8.012
MS.78          	26.82          	8.032
MS.79          	26.767         	8.047
MS.80          	26.715         	8.028
MS.81          	26.66          	8.049
MS.82          	26.608         	8.03
MS.83          	26.555         	8.039
MS.84          	26.502         	7.978
MS.85          	26.448         	8.083
MS.86          	26.395         	7.99
MS.87          	26.342         	7.978
MS.88          	26.29          	7.95
MS.89          	26.237         	8.01
MS.90          	26.185         	7.928
MS.91          	26.132         	8.012
MS.92          	26.08          	7.956
MS.93          	26.028         	7.95
MS.94          	25.977         	7.928
MS.95          	25.925         	7.831
MS.96          	25.872         	7.998
MS.97          	25.82          	7.861
MS.98          	25.77          	7.908
MS.99          	25.717         	7.978
MS.100         	25.667         	7.906
MS.101         	25.615         	7.922
MS.102         	25.565         	7.875
MS.103         	25.512         	7.817
MS.104         	25.462         	7.916
MS.105         	25.413         	7.966
MS.106         	25.36          	7.906
MS.107         	25.31          	8.014
MS.108         	25.26          	7.96
MS.109         	25.21          	8.077
MS.110         	25.157         	8.039
MS.111         	25.108         	8.045
MS.112         	25.057         	7.986
MS.113         	25.007         	7.954
MS.114         	24.957         	8.018
MS.115         	24.907         	7.976
MS.116         	24.858         	8.049
MS.117         	24.807         	8.047
MS.118         	24.76          	8.089
MS.119         	24.71          	8.034
MS.120         	24.66          	8.063
MS.121         	24.61          	8.063
MS.122         	24.562         	8.117
MS.123         	24.512         	8.075
MS.124         	24.465         	8.016
MS.125         	24.415         	7.976
MS.126         	24.365         	8.032
MS.127         	24.317         	7.928
MS.128         	24.27          	8.043
MS.129         	24.22          	7.976
MS.130         	24.172         	8.006
MS.131         	24.122         	7.932
MS.132         	24.075         	7.896
MS.133         	24.028         	7.976
MS.134         	23.98          	8.043
MS.135         	23.932         	7.924
MS.136         	23.882         	8.01
MS.137         	23.835         	8.065
MS.138         	23.788         	8.051
MS.139         	23.74          	8.091
MS.140         	23.692         	8.123
MS.141         	23.645         	8.073
MS.142         	23.597         	8.131
MS.143         	23.552         	8.105
MS.144         	23.505         	8.073
MS.145         	23.457         	8.065
MS.146         	23.41          	8.071
MS.147         	23.365         	8.087
MS.148         	23.317         	8.026
MS.149         	23.27          	7.91
MS.150         	23.225         	7.956
MS.151         	23.177         	7.996
MS.152         	23.132         	8.075
MS.153         	23.085         	7.92
MS.154         	23.04          	7.859
MS.155         	22.993         	7.922
MS.156         	22.948         	7.732
MS.157         	22.903         	7.801
MS.158         	22.855         	7.811
MS.159         	22.81          	7.811
MS.160         	22.765         	7.767
MS.161         	22.72          	7.767
MS.162         	22.672         	7.698
MS.163         	22.627         	7.702
MS.164         	22.582         	7.67
MS.165         	22.538         	7.817
MS.166         	22.493         	7.738
MS.167         	22.448         	7.91
MS.168         	22.403         	7.787
MS.169         	22.358         	7.898
MS.170         	22.312         	7.646
MS.171         	22.27          	7.805
MS.172         	22.225         	7.708
MS.173         	22.18          	7.773
MS.174         	22.135         	7.918
MS.175         	22.092         	7.815
MS.176         	22.047         	7.912
MS.177         	22.002         	8.008
MS.178         	21.96          	8.028
MS.179         	21.915         	7.898
MS.180         	21.872         	8.057
MS.181         	21.827         	7.994
MS.182         	21.785         	7.966
MS.183         	21.74          	7.9
MS.184         	21.698         	7.841
MS.185         	21.655         	7.879
MS.186         	21.61          	7.93
MS.187         	21.567         	8.022
MS.188         	21.525         	7.801
MS.189         	21.483         	8.069
MS.190         	21.438         	7.893
MS.191         	21.395         	7.92
MS.192         	21.352         	8.095
MS.193         	21.31          	8.022
MS.194         	21.267         	7.978
MS.195         	21.225         	8.097
MS.196         	21.182         	7.998
MS.197         	21.14          	7.988
MS.198         	21.097         	7.974
MS.199         	21.055         	8.055
MS.200         	21.015         	7.988
MS.201         	20.972         	8.02
MS.202         	20.93          	8.049
MS.203         	20.887         	8.097
MS.204         	20.847         	7.998
MS.205         	20.805         	8.077
MS.206         	20.762         	7.952
MS.207         	20.722         	7.98
MS.208         	20.68          	7.926
MS.209         	20.64          	7.94
MS.210         	20.597         	7.881
MS.211         	20.557         	7.968
MS.212         	20.515         	7.978
MS.213         	20.475         	7.906
MS.214         	20.435         	7.956
MS.215         	20.392         	7.934
MS.216         	20.352         	7.795
MS.217         	20.312         	7.855
MS.218         	20.27          	7.71
MS.219         	20.23          	7.91
MS.220         	20.19          	7.958
MS.221         	20.15          	8.004
MS.222         	20.11          	7.819
MS.223         	20.07          	7.944
MS.224         	20.03          	7.742
MS.225         	19.99          	7.789
MS.226         	19.95          	7.841
MS.227         	19.91          	7.781
MS.228         	19.87          	7.964
MS.229         	19.83          	7.771
MS.230         	19.79          	7.64
MS.231         	19.75          	7.861
MS.232         	19.712         	7.688
MS.233         	19.672         	7.539
MS.234         	19.632         	7.332
MS.235         	19.592         	7.422
MS.236         	19.555         	7.426
MS.237         	19.515         	7.42
MS.238         	19.475         	7.458
MS.239         	19.438         	7.424
MS.240         	19.397         	7.704
MS.241         	19.36          	7.593
MS.242         	19.32          	7.448
MS.243         	19.282         	7.392
MS.244         	19.245         	7.269
MS.245         	19.205         	7.342
MS.246         	19.167         	7.448
MS.247         	19.13          	7.219
MS.248         	19.09          	7.207
MS.249         	19.052         	7.211
MS.250         	19.015         	7.102
MS.251         	18.977         	7.005
MS.252         	18.938         	6.892
MS.253         	18.9           	7.066
MS.254         	18.862         	6.818
MS.255         	18.825         	6.832
MS.256         	18.788         	6.979
MS.257         	18.75          	7.227
MS.258         	18.712         	7.235
MS.259         	18.675         	7.07
MS.260         	18.637         	7.257
MS.261         	18.6           	7.16
MS.262         	18.562         	7.209
MS.263         	18.528         	7.293
MS.264         	18.49          	7.178
MS.265         	18.452         	6.884
MS.266         	18.415         	7.162
MS.267         	18.378         	7.106
MS.268         	18.342         	6.88
MS.269         	18.305         	6.959
MS.270         	18.27          	6.842
MS.271         	18.233         	6.876
MS.272         	18.195         	7.156
MS.273         	18.16          	6.794
MS.274         	18.122         	6.886
MS.275         	18.087         	6.741
MS.276         	18.05          	6.725
MS.277         	18.015         	6.776
MS.278         	17.98          	6.822
MS.279         	17.942         	6.653
MS.280         	17.907         	6.506
MS.281         	17.87          	6.411
MS.282         	17.835         	6.574
MS.283         	17.8           	6.534
MS.284         	17.765         	6.498
MS.285         	17.73          	6.353
MS.286         	17.692         	6.355
MS.287         	17.657         	6.528
MS.288         	17.622         	7.039
MS.289         	17.587         	6.83
MS.290         	17.552         	6.604
MS.291         	17.517         	6.584
MS.292         	17.483         	6.725
MS.293         	17.448         	6.822
MS.294         	17.413         	6.753
MS.295         	17.378         	6.649
MS.296         	17.342         	6.627
MS.297         	17.307         	6.6
MS.298         	17.275         	6.721
MS.299         	17.24          	6.725
MS.300         	17.205         	6.76
MS.301         	17.17          	6.594
MS.302         	17.135         	6.198
MS.303         	17.102         	6.415
MS.304         	17.067         	6.274
MS.305         	17.032         	6.427
MS.306         	17             	6.147
MS.307         	16.965         	6.073
MS.308         	16.932         	6.042
MS.309         	16.897         	6.057
MS.310         	16.865         	5.986
MS.311         	16.83          	5.891
MS.312         	16.797         	5.869
MS.313         	16.762         	5.904
MS.314         	16.73          	5.899
MS.315         	16.698         	5.738
MS.316         	16.663         	5.716
MS.317         	16.63          	5.69
MS.318         	16.597         	5.756
MS.319         	16.562         	5.811
MS.320         	16.53          	5.682
MS.321         	16.497         	5.599
MS.322         	16.465         	5.708
MS.323         	16.432         	5.636
MS.324         	16.397         	5.503
MS.325         	16.365         	5.573
MS.326         	16.333         	5.607
MS.327         	16.3           	5.39
MS.328         	16.267         	5.537
MS.329         	16.235         	5.567
MS.330         	16.202         	5.527
MS.331         	16.17          	5.531
MS.332         	16.137         	5.567
MS.333         	16.105         	5.472
MS.334         	16.075         	5.454
MS.335         	16.042         	5.479
MS.336         	16.01          	5.376
MS.337         	15.977         	5.388
MS.338         	15.945         	5.199
MS.339         	15.915         	5.201
MS.340         	15.882         	5.245
MS.341         	15.85          	5.195
MS.342         	15.818         	5.11
MS.343         	15.787         	5.062
MS.344         	15.755         	5.092
MS.345         	15.725         	5.211
MS.346         	15.693         	5.035
MS.347         	15.662         	5.025
MS.348         	15.63          	4.969
MS.349         	15.6           	4.981
MS.350         	15.568         	5.019
MS.351         	15.537         	5.005
MS.352         	15.505         	4.959
MS.353         	15.475         	4.904
MS.354         	15.443         	4.975
MS.355         	15.412         	4.945
MS.356         	15.382         	4.836
MS.357         	15.35          	4.886
MS.358         	15.32          	4.78
MS.359         	15.29          	4.949
MS.360         	15.26          	4.772
MS.361         	15.23          	4.832
MS.362         	15.197         	4.838
MS.363         	15.167         	4.651
MS.364         	15.137         	4.709
MS.365         	15.108         	4.596
MS.366         	15.077         	4.604
MS.367         	15.047         	4.677
MS.368         	15.017         	4.705
MS.369         	14.987         	4.631
MS.370         	14.957         	4.606
MS.371         	14.927         	4.488
MS.372         	14.898         	4.457
MS.373         	14.867         	4.594
MS.374         	14.837         	4.518
MS.375         	14.807         	4.351
MS.376         	14.78          	4.24
MS.377         	14.75          	4.125
MS.378         	14.72          	4.198
MS.379         	14.69          	4.099
MS.380         	14.66          	4.175
MS.381         	14.632         	4.083
MS.382         	14.602         	4.167
MS.383         	14.572         	4.252
MS.384         	14.545         	4.052
MS.385         	14.515         	4.131
MS.386         	14.485         	4.032
MS.387         	14.457         	3.863
MS.388         	14.427         	3.962
MS.389         	14.4           	3.972
MS.390         	14.37          	3.817
MS.391         	14.342         	3.859
MS.392         	14.312         	3.726
MS.393         	14.285         	3.65
MS.394         	14.255         	3.625
MS.395         	14.227         	3.678
MS.396         	14.2           	3.555
MS.397         	14.17          	3.605
MS.398         	14.142         	3.48
MS.399         	14.115         	3.442
MS.400         	14.085         	3.422
MS.401         	14.057         	3.428
MS.402         	14.03          	3.386
MS.403         	14.002         	3.35
MS.404         	13.975         	3.358
MS.405         	13.945         	3.227
MS.406         	13.917         	3.231
MS.407         	13.89          	3.243
MS.408         	13.862         	3.12
MS.409         	13.835         	3.164
MS.410         	13.807         	3.072
MS.411         	13.78          	3.118
MS.412         	13.752         	3.068
MS.413         	13.725         	3.062
MS.414         	13.697         	3.118
MS.415         	13.67          	2.923
MS.416         	13.642         	3.009
MS.417         	13.615         	2.882
MS.418         	13.587         	2.908
MS.419         	13.56          	2.84
MS.420         	13.535         	2.844
MS.421         	13.507         	2.771
MS.422         	13.48          	2.804
MS.423         	13.452         	2.794
MS.424         	13.425         	2.818
MS.425         	13.4           	2.711
MS.426         	13.372         	2.749
MS.427         	13.345         	2.637
MS.428         	13.32          	2.556
MS.429         	13.292         	2.62
MS.430         	13.265         	2.62
MS.431         	13.24          	2.457
MS.432         	13.212         	2.52
MS.433         	13.188         	2.562
MS.434         	13.16          	2.508
MS.435         	13.135         	2.471
MS.436         	13.108         	2.496
MS.437         	13.082         	2.401
MS.438         	13.055         	2.385
MS.439         	13.03          	2.445
MS.440         	13.002         	2.326
MS.441         	12.977         	2.403
MS.442         	12.952         	2.377
MS.443         	12.925         	2.395
MS.444         	12.9           	2.23
MS.445         	12.875         	2.264
MS.446         	12.847         	2.191
MS.447         	12.822         	2.175
MS.448         	12.797         	2.073
MS.449         	12.77          	2.135
MS.450         	12.745         	2.216
MS.451         	12.72          	2.105
MS.452         	12.695         	2.04
MS.453         	12.67          	2.014
MS.454         	12.645         	1.972
MS.455         	12.62          	1.984
MS.456         	12.592         	1.928
MS.457         	12.568         	1.913
MS.458         	12.542         	2.02
MS.459         	12.517         	1.909
MS.460         	12.492         	1.917
MS.461         	12.467         	1.976
MS.462         	12.443         	1.881
MS.463         	12.417         	1.849
MS.464         	12.395         	1.871
MS.465         	12.37          	1.797
MS.466         	12.345         	1.742
MS.467         	12.32          	1.797
MS.468         	12.295         	1.744
MS.469         	12.27          	1.764
MS.470         	12.245         	1.629
MS.471         	12.222         	1.631
MS.472         	12.197         	1.654
MS.473         	12.172         	1.692
MS.474         	12.148         	1.646
MS.475         	12.125         	1.799
MS.476         	12.1           	1.472
MS.477         	12.075         	1.601
MS.478         	12.052         	1.535
MS.479         	12.028         	1.503
MS.480         	12.002         	1.339
MS.481         	11.98          	1.446
MS.482         	11.955         	1.356
MS.483         	11.932         	1.384
MS.484         	11.907         	1.37
MS.485         	11.885         	1.372
MS.486         	11.86          	1.287
MS.487         	11.837         	1.327
MS.488         	11.812         	1.208
MS.489         	11.79          	1.333
MS.490         	11.765         	1.45
MS.491         	11.742         	1.303
MS.492         	11.72          	1.269
MS.493         	11.695         	1.202
MS.494         	11.672         	1.176
MS.495         	11.648         	1.275
MS.496         	11.625         	1.237
MS.497         	11.602         	1.152
MS.498         	11.58          	1.128
MS.499         	11.555         	1.192
MS.500         	11.532         	1.027
MS.501         	11.51          	1.225
