File:              	C:\Qtrac\Data\Daniel M Sørensen\MScan multicentre study\Data from centres\Antalya\Processed data\TR.NC.ANT.10.2-  NCC01209C.QZD
Name:              	TR.NC.ANT.10.2
Protocol:          	MSCAN-R2
Date:              	9/12/20
Start time:        	16:10:26
Age:               	52
Sex:               	m
Temperature:       	32.2
S/R sites:         	TA
NC/disease:        	NC
Operator:          	ab
Comments:
M-SCAN DATA (9.7-0.7m)
Scanpts: 9, 14, 857, 868
Stim. (mA)     	Amp. (mV)
MS.1           	36             	5.013
MS.2           	36             	5.009
MS.3           	36             	5.013
MS.4           	36             	5.007
MS.5           	36             	5.005
MS.6           	36             	5.007
MS.7           	36             	4.999
MS.8           	36             	5.017
MS.9           	36             	4.995
MS.10          	36             	5.013
MS.11          	36             	5.001
MS.12          	36             	5.019
MS.13          	36             	4.995
MS.14          	36             	4.989
MS.15          	36             	4.981
MS.16          	36             	4.977
MS.17          	36             	5.019
MS.18          	36             	4.995
MS.19          	36             	4.999
MS.20          	36             	5.007
MS.21          	36             	5.017
MS.22          	36             	4.969
MS.23          	36             	4.999
MS.24          	35.855         	4.983
MS.25          	35.785         	4.997
MS.26          	35.712         	5.003
MS.27          	35.642         	5.013
MS.28          	35.57          	4.987
MS.29          	35.5           	4.967
MS.30          	35.427         	4.961
MS.31          	35.357         	4.965
MS.32          	35.287         	4.935
MS.33          	35.217         	4.935
MS.34          	35.145         	4.947
MS.35          	35.075         	4.917
MS.36          	35.005         	4.957
MS.37          	34.935         	4.925
MS.38          	34.865         	4.898
MS.39          	34.798         	4.904
MS.40          	34.728         	4.917
MS.41          	34.657         	4.892
MS.42          	34.587         	4.892
MS.43          	34.52          	4.89
MS.44          	34.45          	4.882
MS.45          	34.382         	4.892
MS.46          	34.312         	4.898
MS.47          	34.245         	4.89
MS.48          	34.175         	4.902
MS.49          	34.107         	4.904
MS.50          	34.04          	4.87
MS.51          	33.972         	4.84
MS.52          	33.903         	4.88
MS.53          	33.835         	4.86
MS.54          	33.767         	4.862
MS.55          	33.7           	4.858
MS.56          	33.632         	4.852
MS.57          	33.565         	4.854
MS.58          	33.5           	4.858
MS.59          	33.432         	4.848
MS.60          	33.365         	4.844
MS.61          	33.298         	4.832
MS.62          	33.232         	4.834
MS.63          	33.165         	4.832
MS.64          	33.1           	4.85
MS.65          	33.032         	4.836
MS.66          	32.967         	4.842
MS.67          	32.903         	4.824
MS.68          	32.835         	4.836
MS.69          	32.77          	4.828
MS.70          	32.705         	4.818
MS.71          	32.64          	4.812
MS.72          	32.575         	4.822
MS.73          	32.51          	4.828
MS.74          	32.445         	4.82
MS.75          	32.38          	4.806
MS.76          	32.315         	4.806
MS.77          	32.25          	4.822
MS.78          	32.185         	4.794
MS.79          	32.12          	4.792
MS.80          	32.057         	4.794
MS.81          	31.992         	4.782
MS.82          	31.93          	4.79
MS.83          	31.865         	4.784
MS.84          	31.802         	4.798
MS.85          	31.737         	4.782
MS.86          	31.675         	4.768
MS.87          	31.612         	4.786
MS.88          	31.547         	4.78
MS.89          	31.485         	4.774
MS.90          	31.422         	4.768
MS.91          	31.36          	4.778
MS.92          	31.297         	4.792
MS.93          	31.235         	4.774
MS.94          	31.172         	4.766
MS.95          	31.11          	4.772
MS.96          	31.047         	4.768
MS.97          	30.985         	4.737
MS.98          	30.922         	4.751
MS.99          	30.862         	4.753
MS.100         	30.8           	4.753
MS.101         	30.737         	4.753
MS.102         	30.677         	4.749
MS.103         	30.615         	4.749
MS.104         	30.555         	4.741
MS.105         	30.492         	4.703
MS.106         	30.432         	4.699
MS.107         	30.372         	4.685
MS.108         	30.31          	4.709
MS.109         	30.25          	4.699
MS.110         	30.19          	4.689
MS.111         	30.13          	4.689
MS.112         	30.07          	4.681
MS.113         	30.01          	4.693
MS.114         	29.95          	4.663
MS.115         	29.89          	4.667
MS.116         	29.83          	4.635
MS.117         	29.77          	4.659
MS.118         	29.71          	4.653
MS.119         	29.653         	4.643
MS.120         	29.592         	4.651
MS.121         	29.532         	4.653
MS.122         	29.475         	4.651
MS.123         	29.415         	4.649
MS.124         	29.358         	4.633
MS.125         	29.297         	4.633
MS.126         	29.24          	4.641
MS.127         	29.18          	4.655
MS.128         	29.122         	4.659
MS.129         	29.065         	4.625
MS.130         	29.007         	4.651
MS.131         	28.948         	4.633
MS.132         	28.89          	4.62
MS.133         	28.832         	4.631
MS.134         	28.775         	4.602
MS.135         	28.717         	4.614
MS.136         	28.66          	4.62
MS.137         	28.602         	4.568
MS.138         	28.545         	4.612
MS.139         	28.49          	4.55
MS.140         	28.432         	4.556
MS.141         	28.375         	4.588
MS.142         	28.317         	4.556
MS.143         	28.262         	4.548
MS.144         	28.205         	4.564
MS.145         	28.15          	4.57
MS.146         	28.092         	4.55
MS.147         	28.037         	4.56
MS.148         	27.98          	4.508
MS.149         	27.925         	4.516
MS.150         	27.87          	4.512
MS.151         	27.812         	4.51
MS.152         	27.757         	4.524
MS.153         	27.702         	4.5
MS.154         	27.647         	4.512
MS.155         	27.592         	4.479
MS.156         	27.537         	4.524
MS.157         	27.483         	4.441
MS.158         	27.427         	4.449
MS.159         	27.372         	4.475
MS.160         	27.317         	4.463
MS.161         	27.262         	4.471
MS.162         	27.207         	4.449
MS.163         	27.153         	4.439
MS.164         	27.1           	4.473
MS.165         	27.045         	4.439
MS.166         	26.993         	4.453
MS.167         	26.938         	4.439
MS.168         	26.882         	4.433
MS.169         	26.83          	4.437
MS.170         	26.775         	4.437
MS.171         	26.722         	4.421
MS.172         	26.67          	4.415
MS.173         	26.615         	4.411
MS.174         	26.562         	4.407
MS.175         	26.51          	4.417
MS.176         	26.457         	4.411
MS.177         	26.405         	4.399
MS.178         	26.35          	4.385
MS.179         	26.297         	4.407
MS.180         	26.245         	4.357
MS.181         	26.192         	4.371
MS.182         	26.14          	4.375
MS.183         	26.09          	4.361
MS.184         	26.037         	4.371
MS.185         	25.985         	4.345
MS.186         	25.932         	4.403
MS.187         	25.88          	4.421
MS.188         	25.83          	4.339
MS.189         	25.778         	4.332
MS.190         	25.727         	4.304
MS.191         	25.675         	4.306
MS.192         	25.622         	4.33
MS.193         	25.573         	4.232
MS.194         	25.522         	4.274
MS.195         	25.47          	4.33
MS.196         	25.42          	4.282
MS.197         	25.368         	4.334
MS.198         	25.317         	4.314
MS.199         	25.267         	4.294
MS.200         	25.217         	4.224
MS.201         	25.167         	4.272
MS.202         	25.115         	4.284
MS.203         	25.065         	4.336
MS.204         	25.015         	4.29
MS.205         	24.965         	4.322
MS.206         	24.915         	4.381
MS.207         	24.868         	4.328
MS.208         	24.817         	4.28
MS.209         	24.767         	4.278
MS.210         	24.717         	4.212
MS.211         	24.667         	4.371
MS.212         	24.62          	4.349
MS.213         	24.57          	4.334
MS.214         	24.52          	4.173
MS.215         	24.472         	4.324
MS.216         	24.422         	4.204
MS.217         	24.375         	4.218
MS.218         	24.325         	4.272
MS.219         	24.278         	4.224
MS.220         	24.227         	4.198
MS.221         	24.18          	4.214
MS.222         	24.132         	4.127
MS.223         	24.082         	4.167
MS.224         	24.035         	4.193
MS.225         	23.987         	4.232
MS.226         	23.94          	4.143
MS.227         	23.892         	4.177
MS.228         	23.842         	4.268
MS.229         	23.795         	4.248
MS.230         	23.747         	4.242
MS.231         	23.7           	4.25
MS.232         	23.653         	4.248
MS.233         	23.608         	4.208
MS.234         	23.56          	4.208
MS.235         	23.512         	4.282
MS.236         	23.465         	4.302
MS.237         	23.417         	4.308
MS.238         	23.372         	4.403
MS.239         	23.325         	4.33
MS.240         	23.278         	4.339
MS.241         	23.233         	4.355
MS.242         	23.185         	4.286
MS.243         	23.14          	4.359
MS.244         	23.092         	4.355
MS.245         	23.047         	4.258
MS.246         	23             	4.425
MS.247         	22.955         	4.441
MS.248         	22.907         	4.328
MS.249         	22.862         	4.365
MS.250         	22.817         	4.322
MS.251         	22.772         	4.417
MS.252         	22.725         	4.403
MS.253         	22.68          	4.278
MS.254         	22.635         	4.425
MS.255         	22.59          	4.312
MS.256         	22.545         	4.226
MS.257         	22.5           	4.359
MS.258         	22.455         	4.326
MS.259         	22.41          	4.175
MS.260         	22.365         	4.139
MS.261         	22.32          	4.248
MS.262         	22.275         	4.212
MS.263         	22.233         	4.167
MS.264         	22.188         	4.302
MS.265         	22.142         	4.232
MS.266         	22.097         	4.234
MS.267         	22.055         	4.202
MS.268         	22.01          	4.195
MS.269         	21.967         	4.282
MS.270         	21.922         	4.21
MS.271         	21.877         	4.179
MS.272         	21.835         	4.2
MS.273         	21.792         	4.113
MS.274         	21.747         	4.143
MS.275         	21.705         	4.175
MS.276         	21.66          	4.179
MS.277         	21.618         	4.057
MS.278         	21.575         	4.079
MS.279         	21.532         	4.173
MS.280         	21.487         	4.123
MS.281         	21.445         	4.02
MS.282         	21.403         	3.964
MS.283         	21.36          	4.048
MS.284         	21.317         	3.901
MS.285         	21.275         	3.74
MS.286         	21.233         	3.744
MS.287         	21.19          	3.72
MS.288         	21.147         	3.744
MS.289         	21.105         	3.474
MS.290         	21.062         	3.623
MS.291         	21.02          	3.444
MS.292         	20.98          	3.495
MS.293         	20.938         	3.45
MS.294         	20.895         	3.346
MS.295         	20.852         	3.305
MS.296         	20.812         	3.261
MS.297         	20.77          	3.261
MS.298         	20.727         	3.279
MS.299         	20.688         	3.203
MS.300         	20.645         	3.291
MS.301         	20.605         	3.142
MS.302         	20.562         	3.289
MS.303         	20.522         	3.096
MS.304         	20.483         	3.09
MS.305         	20.44          	3.033
MS.306         	20.4           	3.045
MS.307         	20.36          	3.092
MS.308         	20.317         	3.049
MS.309         	20.278         	3.029
MS.310         	20.237         	2.955
MS.311         	20.198         	3.092
MS.312         	20.157         	3.098
MS.313         	20.115         	2.846
MS.314         	20.075         	2.874
MS.315         	20.035         	2.896
MS.316         	19.995         	2.884
MS.317         	19.955         	2.838
MS.318         	19.915         	2.935
MS.319         	19.875         	2.864
MS.320         	19.837         	2.661
MS.321         	19.797         	2.874
MS.322         	19.757         	2.626
MS.323         	19.717         	2.715
MS.324         	19.677         	2.691
MS.325         	19.64          	2.578
MS.326         	19.6           	2.637
MS.327         	19.56          	2.568
MS.328         	19.522         	2.683
MS.329         	19.483         	2.691
MS.330         	19.442         	2.548
MS.331         	19.405         	2.534
MS.332         	19.365         	2.641
MS.333         	19.327         	2.401
MS.334         	19.288         	2.502
MS.335         	19.25          	2.53
MS.336         	19.212         	2.54
MS.337         	19.172         	2.481
MS.338         	19.135         	2.475
MS.339         	19.097         	2.481
MS.340         	19.057         	2.487
MS.341         	19.02          	2.473
MS.342         	18.983         	2.457
MS.343         	18.945         	2.399
MS.344         	18.907         	2.361
MS.345         	18.87          	2.429
MS.346         	18.83          	2.336
MS.347         	18.792         	2.355
MS.348         	18.755         	2.357
MS.349         	18.717         	2.365
MS.350         	18.68          	2.33
MS.351         	18.645         	2.415
MS.352         	18.608         	2.242
MS.353         	18.57          	2.381
MS.354         	18.532         	2.373
MS.355         	18.495         	2.304
MS.356         	18.458         	2.306
MS.357         	18.422         	2.397
MS.358         	18.385         	2.282
MS.359         	18.347         	2.159
MS.360         	18.31          	2.191
MS.361         	18.275         	2.105
MS.362         	18.237         	2.222
MS.363         	18.202         	2.191
MS.364         	18.165         	2.161
MS.365         	18.13          	2.107
MS.366         	18.092         	2.147
MS.367         	18.057         	2.153
MS.368         	18.02          	2.058
MS.369         	17.985         	2.087
MS.370         	17.948         	2.054
MS.371         	17.913         	2.169
MS.372         	17.878         	2.028
MS.373         	17.842         	2.032
MS.374         	17.805         	1.986
MS.375         	17.77          	2.046
MS.376         	17.735         	2.004
MS.377         	17.7           	1.913
MS.378         	17.665         	1.911
MS.379         	17.628         	1.867
MS.380         	17.592         	1.837
MS.381         	17.557         	1.897
MS.382         	17.522         	1.861
MS.383         	17.487         	1.917
MS.384         	17.452         	1.887
MS.385         	17.417         	1.746
MS.386         	17.382         	1.752
MS.387         	17.347         	1.805
MS.388         	17.315         	1.821
MS.389         	17.28          	1.772
MS.390         	17.245         	1.65
MS.391         	17.21          	1.815
MS.392         	17.175         	1.698
MS.393         	17.142         	1.607
MS.394         	17.108         	1.652
MS.395         	17.073         	1.7
MS.396         	17.04          	1.686
MS.397         	17.005         	1.581
MS.398         	16.97          	1.523
MS.399         	16.938         	1.674
MS.400         	16.903         	1.621
MS.401         	16.87          	1.484
MS.402         	16.835         	1.484
MS.403         	16.802         	1.559
MS.404         	16.767         	1.539
MS.405         	16.735         	1.45
MS.406         	16.702         	1.418
MS.407         	16.667         	1.476
MS.408         	16.635         	1.386
MS.409         	16.602         	1.428
MS.410         	16.567         	1.354
MS.411         	16.535         	1.434
MS.412         	16.503         	1.366
MS.413         	16.47          	1.444
MS.414         	16.438         	1.327
MS.415         	16.405         	1.339
MS.416         	16.37          	1.303
MS.417         	16.337         	1.279
MS.418         	16.305         	1.275
MS.419         	16.272         	1.202
MS.420         	16.24          	1.289
MS.421         	16.208         	1.225
MS.422         	16.175         	1.241
MS.423         	16.142         	1.136
MS.424         	16.11          	1.148
MS.425         	16.08          	1.104
MS.426         	16.047         	1.092
MS.427         	16.015         	1.084
MS.428         	15.983         	1.132
MS.429         	15.95          	1.174
MS.430         	15.92          	1.074
MS.431         	15.887         	1.11
MS.432         	15.855         	1.051
MS.433         	15.825         	0.989
MS.434         	15.792         	1.043
MS.435         	15.76          	0.961
MS.436         	15.73          	0.937
MS.437         	15.697         	0.967
MS.438         	15.667         	1.019
MS.439         	15.635         	0.971
MS.440         	15.605         	0.963
MS.441         	15.572         	0.971
MS.442         	15.542         	0.924
MS.443         	15.51          	0.933
MS.444         	15.48          	0.856
MS.445         	15.447         	0.916
MS.446         	15.417         	0.87
MS.447         	15.387         	0.902
MS.448         	15.355         	0.864
MS.449         	15.325         	0.814
MS.450         	15.295         	0.806
MS.451         	15.265         	0.824
MS.452         	15.235         	0.786
MS.453         	15.202         	0.854
MS.454         	15.172         	0.777
MS.455         	15.142         	0.755
MS.456         	15.112         	0.691
MS.457         	15.082         	0.711
MS.458         	15.052         	0.786
MS.459         	15.023         	0.659
MS.460         	14.992         	0.59
MS.461         	14.962         	0.659
MS.462         	14.932         	0.649
MS.463         	14.902         	0.659
MS.464         	14.872         	0.695
MS.465         	14.842         	0.63
MS.466         	14.812         	0.638
MS.467         	14.782         	0.687
MS.468         	14.755         	0.546
MS.469         	14.725         	0.608
MS.470         	14.695         	0.552
MS.471         	14.665         	0.53
MS.472         	14.637         	0.554
MS.473         	14.608         	0.568
MS.474         	14.577         	0.568
MS.475         	14.55          	0.538
MS.476         	14.52          	0.493
MS.477         	14.49          	0.495
MS.478         	14.462         	0.483
MS.479         	14.432         	0.451
MS.480         	14.405         	0.514
MS.481         	14.375         	0.491
MS.482         	14.347         	0.437
MS.483         	14.318         	0.421
MS.484         	14.29          	0.453
MS.485         	14.26          	0.443
MS.486         	14.233         	0.455
MS.487         	14.205         	0.417
MS.488         	14.175         	0.415
MS.489         	14.148         	0.423
MS.490         	14.12          	0.365
MS.491         	14.09          	0.385
MS.492         	14.062         	0.352
MS.493         	14.035         	0.407
MS.494         	14.007         	0.403
MS.495         	13.977         	0.361
MS.496         	13.95          	0.405
MS.497         	13.922         	0.332
MS.498         	13.895         	0.361
MS.499         	13.867         	0.346
MS.500         	13.84          	0.344
