File:              	C:\Qtrac\Data\Daniel M Sørensen\MScan multicentre study\Data from centres\Antalya\Processed data\TR.NC.ANT.2.1- NCC00315B.QZD
Name:              	TR.NC.ANT.2.1
Protocol:          	MSCAN-R2
Date:              	15/3/20
Start time:        	14:51:28
Age:               	38
Sex:               	m
Temperature:       	32.8
S/R sites:         	ADM
NC/disease:        	NC
Operator:          	ab
Comments:          	left ADM
M-SCAN DATA (7.6-3m)
Scanpts: 112, 115, 459, 464
Stim. (mA)     	Amp. (mV)
MS.1           	26.5           	10.266
MS.2           	26.5           	10.282
MS.3           	26.5           	10.23
MS.4           	26.5           	10.244
MS.5           	26.5           	10.228
MS.6           	26.5           	10.3
MS.7           	26.5           	10.298
MS.8           	26.5           	10.266
MS.9           	26.5           	10.286
MS.10          	26.5           	10.244
MS.11          	26.5           	10.184
MS.12          	26.5           	10.202
MS.13          	26.5           	10.184
MS.14          	26.5           	10.178
MS.15          	26.5           	10.224
MS.16          	26.5           	10.155
MS.17          	26.5           	10.149
MS.18          	26.5           	10.194
MS.19          	26.5           	10.232
MS.20          	26.5           	10.27
MS.21          	26.5           	10.343
MS.22          	26.5           	10.385
MS.23          	26.5           	10.397
MS.24          	26.395         	10.325
MS.25          	26.342         	10.302
MS.26          	26.287         	10.341
MS.27          	26.235         	10.387
MS.28          	26.185         	10.351
MS.29          	26.132         	10.359
MS.30          	26.08          	10.365
MS.31          	26.028         	10.353
MS.32          	25.975         	10.375
MS.33          	25.922         	10.349
MS.34          	25.872         	10.405
MS.35          	25.82          	10.335
MS.36          	25.767         	10.353
MS.37          	25.717         	10.304
MS.38          	25.665         	10.333
MS.39          	25.615         	10.353
MS.40          	25.562         	10.355
MS.41          	25.512         	10.323
MS.42          	25.46          	10.331
MS.43          	25.41          	10.353
MS.44          	25.36          	10.345
MS.45          	25.307         	10.333
MS.46          	25.257         	10.377
MS.47          	25.207         	10.423
MS.48          	25.157         	10.385
MS.49          	25.108         	10.401
MS.50          	25.057         	10.409
MS.51          	25.007         	10.377
MS.52          	24.957         	10.49
MS.53          	24.907         	10.506
MS.54          	24.858         	10.492
MS.55          	24.807         	10.476
MS.56          	24.757         	10.476
MS.57          	24.707         	10.51
MS.58          	24.66          	10.48
MS.59          	24.61          	10.518
MS.60          	24.56          	10.488
MS.61          	24.512         	10.474
MS.62          	24.462         	10.464
MS.63          	24.413         	10.476
MS.64          	24.365         	10.492
MS.65          	24.315         	10.228
MS.66          	24.267         	10.393
MS.67          	24.22          	10.377
MS.68          	24.17          	10.405
MS.69          	24.122         	10.067
MS.70          	24.075         	10.131
MS.71          	24.025         	10.169
MS.72          	23.977         	10.429
MS.73          	23.93          	10.441
MS.74          	23.882         	10.464
MS.75          	23.835         	10.458
MS.76          	23.788         	10.435
MS.77          	23.74          	10.443
MS.78          	23.692         	10.397
MS.79          	23.645         	10.484
MS.80          	23.597         	10.399
MS.81          	23.55          	10.383
MS.82          	23.502         	10.391
MS.83          	23.457         	10.377
MS.84          	23.41          	10.361
MS.85          	23.362         	10.395
MS.86          	23.315         	10.381
MS.87          	23.27          	10.395
MS.88          	23.222         	10.381
MS.89          	23.177         	10.387
MS.90          	23.13          	10.375
MS.91          	23.085         	10.484
MS.92          	23.038         	10.415
MS.93          	22.993         	10.383
MS.94          	22.945         	10.317
MS.95          	22.9           	10.337
MS.96          	22.855         	10.359
MS.97          	22.807         	10.367
MS.98          	22.762         	10.373
MS.99          	22.717         	10.349
MS.100         	22.672         	10.401
MS.101         	22.627         	10.353
MS.102         	22.582         	10.395
MS.103         	22.538         	10.389
MS.104         	22.493         	10.385
MS.105         	22.448         	10.456
MS.106         	22.403         	10.451
MS.107         	22.358         	10.431
MS.108         	22.312         	10.447
MS.109         	22.267         	10.46
MS.110         	22.222         	10.462
MS.111         	22.18          	10.518
MS.112         	22.135         	10.496
MS.113         	22.09          	10.512
MS.114         	22.045         	10.496
MS.115         	22.002         	10.482
MS.116         	21.958         	10.506
MS.117         	21.915         	10.486
MS.118         	21.87          	10.47
MS.119         	21.827         	10.506
MS.120         	21.782         	10.453
MS.121         	21.74          	10.472
MS.122         	21.698         	10.451
MS.123         	21.653         	10.496
MS.124         	21.61          	10.447
MS.125         	21.567         	10.462
MS.126         	21.522         	10.464
MS.127         	21.48          	10.447
MS.128         	21.438         	10.482
MS.129         	21.395         	10.458
MS.130         	21.352         	10.472
MS.131         	21.31          	10.429
MS.132         	21.267         	10.456
MS.133         	21.225         	10.435
MS.134         	21.182         	10.462
MS.135         	21.14          	10.423
MS.136         	21.097         	10.385
MS.137         	21.055         	10.431
MS.138         	21.012         	10.435
MS.139         	20.97          	10.464
MS.140         	20.93          	10.476
MS.141         	20.887         	10.439
MS.142         	20.845         	10.415
MS.143         	20.805         	10.439
MS.144         	20.762         	10.403
MS.145         	20.72          	10.419
MS.146         	20.68          	10.447
MS.147         	20.637         	10.462
MS.148         	20.597         	10.435
MS.149         	20.555         	10.439
MS.150         	20.515         	10.429
MS.151         	20.472         	10.456
MS.152         	20.432         	10.419
MS.153         	20.392         	10.403
MS.154         	20.35          	10.363
MS.155         	20.31          	10.395
MS.156         	20.27          	10.355
MS.157         	20.23          	10.395
MS.158         	20.19          	10.308
MS.159         	20.147         	10.302
MS.160         	20.108         	10.286
MS.161         	20.067         	10.266
MS.162         	20.028         	10.298
MS.163         	19.987         	10.214
MS.164         	19.948         	10.24
MS.165         	19.907         	10.2
MS.166         	19.868         	10.228
MS.167         	19.83          	10.214
MS.168         	19.79          	10.155
MS.169         	19.75          	10.127
MS.170         	19.71          	9.958
MS.171         	19.67          	10.202
MS.172         	19.632         	10.163
MS.173         	19.592         	10.133
MS.174         	19.552         	10.051
MS.175         	19.515         	9.992
MS.176         	19.475         	10.024
MS.177         	19.438         	9.894
MS.178         	19.397         	9.948
MS.179         	19.358         	9.765
MS.180         	19.32          	9.906
MS.181         	19.282         	9.906
MS.182         	19.243         	9.867
MS.183         	19.205         	9.859
MS.184         	19.165         	9.682
MS.185         	19.127         	9.825
MS.186         	19.09          	9.849
MS.187         	19.052         	9.418
MS.188         	19.012         	9.664
MS.189         	18.975         	9.658
MS.190         	18.938         	9.485
MS.191         	18.9           	9.507
MS.192         	18.862         	9.404
MS.193         	18.825         	9.366
MS.194         	18.788         	9.255
MS.195         	18.75          	9.32
MS.196         	18.712         	9.575
MS.197         	18.675         	9.249
MS.198         	18.637         	9.036
MS.199         	18.6           	8.939
MS.200         	18.562         	9.058
MS.201         	18.525         	8.935
MS.202         	18.487         	8.87
MS.203         	18.452         	8.923
MS.204         	18.415         	8.468
MS.205         	18.378         	8.78
MS.206         	18.34          	8.52
MS.207         	18.305         	8.705
MS.208         	18.267         	8.19
MS.209         	18.233         	8.057
MS.210         	18.195         	7.825
MS.211         	18.157         	7.777
MS.212         	18.122         	7.849
MS.213         	18.085         	8.379
MS.214         	18.05          	7.986
MS.215         	18.015         	7.835
MS.216         	17.977         	7.442
MS.217         	17.942         	6.979
MS.218         	17.905         	7.229
MS.219         	17.87          	6.929
MS.220         	17.835         	6.782
MS.221         	17.8           	6.846
MS.222         	17.762         	6.866
MS.223         	17.727         	6.492
MS.224         	17.692         	6.695
MS.225         	17.657         	6.514
MS.226         	17.622         	6.073
MS.227         	17.587         	6.081
MS.228         	17.552         	6.018
MS.229         	17.517         	6.147
MS.230         	17.483         	6.258
MS.231         	17.448         	5.807
MS.232         	17.413         	5.821
MS.233         	17.378         	5.795
MS.234         	17.342         	5.908
MS.235         	17.307         	5.688
MS.236         	17.272         	5.686
MS.237         	17.237         	5.384
MS.238         	17.205         	5.603
MS.239         	17.17          	5.674
MS.240         	17.135         	5.384
MS.241         	17.1           	5.43
MS.242         	17.067         	5.102
MS.243         	17.032         	5.041
MS.244         	17             	5.382
MS.245         	16.965         	4.898
MS.246         	16.93          	5.07
MS.247         	16.897         	4.705
MS.248         	16.862         	4.838
MS.249         	16.83          	4.886
MS.250         	16.795         	4.669
MS.251         	16.762         	4.713
MS.252         	16.73          	4.663
MS.253         	16.695         	4.216
MS.254         	16.663         	4.22
MS.255         	16.63          	4.455
MS.256         	16.595         	4.018
MS.257         	16.562         	4.026
MS.258         	16.53          	3.903
MS.259         	16.497         	3.861
MS.260         	16.462         	3.938
MS.261         	16.43          	4.206
MS.262         	16.397         	3.674
MS.263         	16.365         	3.748
MS.264         	16.333         	3.803
MS.265         	16.3           	3.589
MS.266         	16.267         	3.589
MS.267         	16.235         	3.634
MS.268         	16.202         	3.398
MS.269         	16.17          	3.261
MS.270         	16.137         	3.335
MS.271         	16.105         	3.162
MS.272         	16.073         	3.323
MS.273         	16.04          	3.215
MS.274         	16.01          	2.943
MS.275         	15.977         	3.078
MS.276         	15.945         	2.963
MS.277         	15.912         	2.794
MS.278         	15.882         	2.693
MS.279         	15.85          	2.705
MS.280         	15.818         	2.633
MS.281         	15.787         	2.606
MS.282         	15.755         	2.534
MS.283         	15.722         	2.51
MS.284         	15.693         	2.403
MS.285         	15.66          	2.365
MS.286         	15.63          	2.075
MS.287         	15.597         	2.338
MS.288         	15.568         	2.26
MS.289         	15.535         	2.33
MS.290         	15.505         	1.865
MS.291         	15.472         	1.936
MS.292         	15.443         	1.857
MS.293         	15.412         	2.203
MS.294         	15.38          	1.646
MS.295         	15.35          	1.617
MS.296         	15.32          	1.555
MS.297         	15.29          	1.66
MS.298         	15.257         	1.66
MS.299         	15.227         	1.66
MS.300         	15.197         	1.416
MS.301         	15.167         	1.48
MS.302         	15.137         	1.309
MS.303         	15.108         	1.227
MS.304         	15.077         	1.239
MS.305         	15.047         	1.241
MS.306         	15.017         	1.229
MS.307         	14.987         	1.172
MS.308         	14.957         	1.208
MS.309         	14.927         	1.1
MS.310         	14.898         	1.005
MS.311         	14.867         	0.983
MS.312         	14.837         	0.927
MS.313         	14.807         	0.834
MS.314         	14.777         	0.88
MS.315         	14.747         	0.888
MS.316         	14.72          	1.063
MS.317         	14.69          	0.87
MS.318         	14.66          	0.85
MS.319         	14.63          	0.773
MS.320         	14.602         	0.786
MS.321         	14.572         	0.834
MS.322         	14.542         	0.733
MS.323         	14.515         	0.8
MS.324         	14.485         	0.784
MS.325         	14.457         	0.705
MS.326         	14.427         	0.528
MS.327         	14.398         	0.641
MS.328         	14.37          	0.618
MS.329         	14.342         	0.522
MS.330         	14.312         	0.554
MS.331         	14.285         	0.572
MS.332         	14.255         	0.61
MS.333         	14.227         	0.536
MS.334         	14.197         	0.618
MS.335         	14.17          	0.52
MS.336         	14.142         	0.514
MS.337         	14.112         	0.453
MS.338         	14.085         	0.495
MS.339         	14.057         	0.423
MS.340         	14.03          	0.459
MS.341         	14             	0.453
MS.342         	13.972         	0.373
MS.343         	13.945         	0.266
MS.344         	13.917         	0.314
MS.345         	13.89          	0.286
MS.346         	13.862         	0.272
MS.347         	13.835         	0.246
MS.348         	13.807         	0.256
MS.349         	13.78          	0.205
MS.350         	13.752         	0.246
MS.351         	13.725         	0.205
MS.352         	13.697         	0.232
MS.353         	13.67          	0.173
MS.354         	13.642         	0.207
MS.355         	13.615         	0.183
MS.356         	13.587         	0.218
MS.357         	13.56          	0.123
MS.358         	13.532         	0.238
MS.359         	13.505         	0.141
MS.360         	13.48          	0.155
MS.361         	13.452         	0.189
MS.362         	13.425         	0.179
MS.363         	13.398         	0.147
MS.364         	13.372         	0.159
MS.365         	13.345         	0.151
MS.366         	13.318         	0.167
MS.367         	13.292         	0.159
MS.368         	13.265         	0.147
MS.369         	13.237         	0.163
MS.370         	13.212         	0.145
MS.371         	13.185         	0.155
MS.372         	13.16          	0.207
MS.373         	13.132         	0.155
MS.374         	13.108         	0.157
MS.375         	13.08          	0.145
MS.376         	13.055         	0.161
MS.377         	13.028         	0.157
MS.378         	13.002         	0.157
MS.379         	12.977         	0.159
MS.380         	12.95          	0.159
MS.381         	12.925         	0.157
MS.382         	12.9           	0.151
MS.383         	12.872         	0.153
MS.384         	12.847         	0.149
MS.385         	12.822         	0.157
MS.386         	12.795         	0.107
MS.387         	12.77          	0.101
MS.388         	12.745         	0.105
MS.389         	12.72          	0.171
MS.390         	12.695         	0.111
MS.391         	12.67          	0.105
MS.392         	12.642         	0.137
MS.393         	12.617         	0.107
MS.394         	12.592         	0.109
MS.395         	12.568         	0.155
MS.396         	12.542         	0.117
MS.397         	12.517         	0.121
MS.398         	12.492         	0.107
MS.399         	12.467         	0.127
MS.400         	12.443         	0.127
MS.401         	12.417         	0.133
MS.402         	12.392         	0.137
MS.403         	12.367         	0.129
MS.404         	12.342         	0.141
MS.405         	12.32          	0.137
MS.406         	12.295         	0.125
MS.407         	12.27          	0.125
MS.408         	12.245         	0.119
MS.409         	12.22          	0.135
MS.410         	12.197         	0.135
MS.411         	12.172         	0.137
MS.412         	12.148         	0.125
MS.413         	12.122         	0.109
MS.414         	12.1           	0.109
MS.415         	12.075         	0.119
MS.416         	12.05          	0.143
MS.417         	12.028         	0.141
MS.418         	12.002         	0.149
MS.419         	11.98          	0.107
MS.420         	11.955         	0.113
MS.421         	11.93          	0.123
MS.422         	11.907         	0.121
MS.423         	11.882         	0.115
MS.424         	11.86          	0.115
MS.425         	11.835         	0.133
MS.426         	11.812         	0.111
MS.427         	11.787         	0.119
MS.428         	11.765         	0.125
MS.429         	11.742         	0.129
MS.430         	11.717         	0.105
MS.431         	11.695         	0.109
MS.432         	11.672         	0.018
MS.433         	11.648         	0.085
MS.434         	11.625         	0.113
MS.435         	11.602         	0.095
MS.436         	11.577         	0.044
MS.437         	11.555         	0.042
MS.438         	11.532         	0.026
MS.439         	11.51          	0.03
MS.440         	11.485         	0.097
MS.441         	11.462         	0.024
MS.442         	11.44          	0.024
MS.443         	11.417         	0.026
MS.444         	11.395         	0.024
MS.445         	11.372         	0.026
MS.446         	11.35          	0.02
MS.447         	11.327         	0.024
MS.448         	11.305         	0.02
MS.449         	11.28          	0.026
MS.450         	11.257         	0.07
MS.451         	11.235         	0.028
MS.452         	11.215         	0.03
MS.453         	11.193         	0.024
MS.454         	11.17          	0.028
MS.455         	11.148         	0.018
MS.456         	11.125         	0.026
MS.457         	11.102         	0.024
MS.458         	11.08          	0.022
MS.459         	11.057         	0.026
MS.460         	11.035         	0.018
MS.461         	11.012         	0.026
MS.462         	10.992         	0.02
MS.463         	10.97          	0.03
MS.464         	10.948         	0.024
MS.465         	10.925         	0.022
MS.466         	10.905         	0.026
MS.467         	10.882         	0.02
MS.468         	10.86          	0.032
MS.469         	10.84          	0.024
MS.470         	10.818         	0.03
MS.471         	10.795         	0.022
MS.472         	10.775         	0.028
MS.473         	10.752         	0.022
MS.474         	10.73          	0.028
MS.475         	10.71          	0.032
MS.476         	10.688         	0.026
MS.477         	10.667         	0.032
MS.478         	10.645         	0.026
MS.479         	10.625         	0.022
MS.480         	10.602         	0.026
MS.481         	10.582         	0.024
MS.482         	10.56          	0.032
MS.483         	10.54          	0.024
MS.484         	10.517         	0.022
MS.485         	10.497         	0.022
MS.486         	10.477         	0.028
MS.487         	10.455         	0.02
MS.488         	10.435         	0.032
MS.489         	10.415         	0.022
MS.490         	10.392         	0.024
MS.491         	10.372         	0.026
MS.492         	10.352         	0.028
MS.493         	10.33          	0.026
MS.494         	10.31          	0.026
MS.495         	10.29          	0.034
MS.496         	10.27          	0.02
