File:              	C:\Qtrac\Data\Daniel M Sørensen\MScan multicentre study\Data from centres\Antalya\Processed data\TR.NC.ANT.8.2- NCC01208B.QZD
Name:              	TR.NC.ANT.8.2
Protocol:          	MSCAN-R2
Date:              	8/12/20
Start time:        	15:37:25
Age:               	45
Sex:               	f
Temperature:       	33.2
S/R sites:         	APB
NC/disease:        	NC
Operator:          	ab
Comments:
M-SCAN DATA (8.5-0.6m)
Scanpts: 215, 225, 820, 826
Stim. (mA)     	Amp. (mV)
MS.1           	27             	7.291
MS.2           	27             	7.37
MS.3           	27             	7.374
MS.4           	27             	7.326
MS.5           	27             	7.398
MS.6           	27             	7.356
MS.7           	27             	7.368
MS.8           	27             	7.36
MS.9           	27             	7.462
MS.10          	27             	7.414
MS.11          	27             	7.402
MS.12          	27             	7.511
MS.13          	27             	7.422
MS.14          	27             	7.416
MS.15          	27             	7.376
MS.16          	27             	7.346
MS.17          	27             	7.195
MS.18          	27             	7.199
MS.19          	27             	7.229
MS.20          	27             	7.247
MS.21          	27             	7.255
MS.22          	27             	7.319
MS.23          	27             	7.245
MS.24          	26.892         	7.259
MS.25          	26.837         	7.273
MS.26          	26.785         	7.295
MS.27          	26.73          	7.396
MS.28          	26.677         	7.418
MS.29          	26.625         	7.45
MS.30          	26.573         	7.446
MS.31          	26.517         	7.464
MS.32          	26.465         	7.46
MS.33          	26.412         	7.462
MS.34          	26.36          	7.485
MS.35          	26.307         	7.42
MS.36          	26.255         	7.469
MS.37          	26.202         	7.473
MS.38          	26.15          	7.493
MS.39          	26.097         	7.424
MS.40          	26.045         	7.501
MS.41          	25.993         	7.489
MS.42          	25.94          	7.462
MS.43          	25.89          	7.479
MS.44          	25.837         	7.501
MS.45          	25.785         	7.481
MS.46          	25.735         	7.515
MS.47          	25.682         	7.533
MS.48          	25.632         	7.456
MS.49          	25.58          	7.527
MS.50          	25.53          	7.515
MS.51          	25.477         	7.503
MS.52          	25.427         	7.487
MS.53          	25.377         	7.505
MS.54          	25.325         	7.507
MS.55          	25.275         	7.505
MS.56          	25.225         	7.505
MS.57          	25.175         	7.507
MS.58          	25.125         	7.517
MS.59          	25.075         	7.507
MS.60          	25.025         	7.505
MS.61          	24.975         	7.517
MS.62          	24.925         	7.519
MS.63          	24.875         	7.527
MS.64          	24.825         	7.523
MS.65          	24.775         	7.491
MS.66          	24.725         	7.519
MS.67          	24.675         	7.531
MS.68          	24.627         	7.535
MS.69          	24.577         	7.527
MS.70          	24.528         	7.521
MS.71          	24.48          	7.521
MS.72          	24.43          	7.519
MS.73          	24.382         	7.519
MS.74          	24.332         	7.523
MS.75          	24.285         	7.497
MS.76          	24.235         	7.521
MS.77          	24.188         	7.509
MS.78          	24.14          	7.495
MS.79          	24.09          	7.489
MS.80          	24.042         	7.479
MS.81          	23.995         	7.491
MS.82          	23.948         	7.497
MS.83          	23.9           	7.503
MS.84          	23.85          	7.505
MS.85          	23.802         	7.495
MS.86          	23.755         	7.521
MS.87          	23.707         	7.511
MS.88          	23.66          	7.513
MS.89          	23.615         	7.523
MS.90          	23.567         	7.529
MS.91          	23.52          	7.521
MS.92          	23.472         	7.519
MS.93          	23.425         	7.515
MS.94          	23.38          	7.523
MS.95          	23.332         	7.529
MS.96          	23.285         	7.533
MS.97          	23.24          	7.537
MS.98          	23.192         	7.541
MS.99          	23.145         	7.547
MS.100         	23.1           	7.563
MS.101         	23.055         	7.531
MS.102         	23.007         	7.531
MS.103         	22.962         	7.545
MS.104         	22.915         	7.527
MS.105         	22.87          	7.535
MS.106         	22.825         	7.551
MS.107         	22.78          	7.521
MS.108         	22.733         	7.535
MS.109         	22.688         	7.541
MS.110         	22.642         	7.537
MS.111         	22.597         	7.525
MS.112         	22.552         	7.517
MS.113         	22.507         	7.525
MS.114         	22.462         	7.525
MS.115         	22.417         	7.525
MS.116         	22.372         	7.525
MS.117         	22.327         	7.533
MS.118         	22.282         	7.547
MS.119         	22.237         	7.531
MS.120         	22.195         	7.537
MS.121         	22.15          	7.547
MS.122         	22.105         	7.533
MS.123         	22.062         	7.535
MS.124         	22.017         	7.531
MS.125         	21.972         	7.535
MS.126         	21.93          	7.523
MS.127         	21.885         	7.517
MS.128         	21.842         	7.539
MS.129         	21.797         	7.541
MS.130         	21.755         	7.531
MS.131         	21.712         	7.539
MS.132         	21.667         	7.533
MS.133         	21.625         	7.543
MS.134         	21.583         	7.529
MS.135         	21.538         	7.537
MS.136         	21.495         	7.547
MS.137         	21.452         	7.549
MS.138         	21.41          	7.549
MS.139         	21.368         	7.559
MS.140         	21.325         	7.557
MS.141         	21.282         	7.563
MS.142         	21.24          	7.567
MS.143         	21.198         	7.565
MS.144         	21.155         	7.571
MS.145         	21.112         	7.571
MS.146         	21.07          	7.579
MS.147         	21.028         	7.577
MS.148         	20.985         	7.559
MS.149         	20.942         	7.575
MS.150         	20.903         	7.571
MS.151         	20.86          	7.581
MS.152         	20.817         	7.575
MS.153         	20.778         	7.573
MS.154         	20.735         	7.563
MS.155         	20.695         	7.581
MS.156         	20.653         	7.575
MS.157         	20.61          	7.575
MS.158         	20.57          	7.569
MS.159         	20.53          	7.569
MS.160         	20.487         	7.587
MS.161         	20.448         	7.591
MS.162         	20.405         	7.575
MS.163         	20.365         	7.585
MS.164         	20.325         	7.599
MS.165         	20.285         	7.601
MS.166         	20.243         	7.599
MS.167         	20.202         	7.587
MS.168         	20.163         	7.597
MS.169         	20.122         	7.601
MS.170         	20.083         	7.585
MS.171         	20.042         	7.583
MS.172         	20.002         	7.579
MS.173         	19.962         	7.593
MS.174         	19.922         	7.583
MS.175         	19.882         	7.585
MS.176         	19.842         	7.591
MS.177         	19.802         	7.587
MS.178         	19.762         	7.577
MS.179         	19.725         	7.571
MS.180         	19.685         	7.577
MS.181         	19.645         	7.589
MS.182         	19.605         	7.579
MS.183         	19.567         	7.571
MS.184         	19.528         	7.571
MS.185         	19.487         	7.575
MS.186         	19.45          	7.595
MS.187         	19.41          	7.547
MS.188         	19.372         	7.587
MS.189         	19.333         	7.581
MS.190         	19.295         	7.601
MS.191         	19.255         	7.601
MS.192         	19.217         	7.607
MS.193         	19.18          	7.605
MS.194         	19.14          	7.607
MS.195         	19.102         	7.601
MS.196         	19.065         	7.612
MS.197         	19.028         	7.618
MS.198         	18.987         	7.561
MS.199         	18.95          	7.565
MS.200         	18.913         	7.609
MS.201         	18.875         	7.618
MS.202         	18.837         	7.624
MS.203         	18.8           	7.63
MS.204         	18.762         	7.581
MS.205         	18.725         	7.624
MS.206         	18.688         	7.624
MS.207         	18.65          	7.589
MS.208         	18.612         	7.577
MS.209         	18.575         	7.587
MS.210         	18.538         	7.593
MS.211         	18.5           	7.595
MS.212         	18.465         	7.595
MS.213         	18.427         	7.599
MS.214         	18.39          	7.64
MS.215         	18.352         	7.636
MS.216         	18.317         	7.612
MS.217         	18.28          	7.612
MS.218         	18.245         	7.587
MS.219         	18.208         	7.634
MS.220         	18.17          	7.593
MS.221         	18.135         	7.614
MS.222         	18.097         	7.597
MS.223         	18.062         	7.618
MS.224         	18.028         	7.614
MS.225         	17.99          	7.624
MS.226         	17.955         	7.595
MS.227         	17.917         	7.589
MS.228         	17.882         	7.605
MS.229         	17.847         	7.599
MS.230         	17.812         	7.616
MS.231         	17.775         	7.605
MS.232         	17.74          	7.614
MS.233         	17.705         	7.618
MS.234         	17.67          	7.599
MS.235         	17.635         	7.591
MS.236         	17.6           	7.603
MS.237         	17.562         	7.605
MS.238         	17.528         	7.599
MS.239         	17.493         	7.599
MS.240         	17.458         	7.601
MS.241         	17.422         	7.595
MS.242         	17.39          	7.581
MS.243         	17.355         	7.591
MS.244         	17.32          	7.452
MS.245         	17.285         	7.585
MS.246         	17.25          	7.583
MS.247         	17.215         	7.585
MS.248         	17.182         	7.581
MS.249         	17.147         	7.571
MS.250         	17.112         	7.442
MS.251         	17.077         	7.43
MS.252         	17.045         	7.563
MS.253         	17.01          	7.44
MS.254         	16.977         	7.563
MS.255         	16.942         	7.438
MS.256         	16.91          	7.277
MS.257         	16.875         	7.561
MS.258         	16.842         	7.261
MS.259         	16.807         	7.428
MS.260         	16.775         	7.134
MS.261         	16.74          	7.428
MS.262         	16.708         	7.271
MS.263         	16.672         	7.446
MS.264         	16.64          	7.438
MS.265         	16.608         	7.309
MS.266         	16.575         	7.422
MS.267         	16.54          	7.275
MS.268         	16.507         	7.267
MS.269         	16.475         	7.255
MS.270         	16.442         	7.144
MS.271         	16.41          	7.273
MS.272         	16.378         	7.052
MS.273         	16.342         	7.239
MS.274         	16.31          	7.257
MS.275         	16.278         	7.118
MS.276         	16.245         	7.084
MS.277         	16.212         	7.108
MS.278         	16.18          	7.09
MS.279         	16.147         	6.949
MS.280         	16.118         	6.955
MS.281         	16.085         	6.961
MS.282         	16.052         	7.031
MS.283         	16.02          	7.118
MS.284         	15.987         	7.06
MS.285         	15.955         	6.933
MS.286         	15.925         	6.713
MS.287         	15.892         	6.689
MS.288         	15.86          	6.84
MS.289         	15.83          	6.691
MS.290         	15.797         	6.753
MS.291         	15.765         	6.655
MS.292         	15.735         	6.729
MS.293         	15.702         	6.933
MS.294         	15.672         	6.788
MS.295         	15.64          	6.651
MS.296         	15.61          	6.917
MS.297         	15.577         	6.733
MS.298         	15.547         	6.449
MS.299         	15.515         	6.445
MS.300         	15.485         	6.554
MS.301         	15.452         	6.556
MS.302         	15.422         	6.639
MS.303         	15.392         	6.56
MS.304         	15.36          	6.204
MS.305         	15.33          	6.484
MS.306         	15.3           	6.274
MS.307         	15.27          	6.343
MS.308         	15.237         	6.254
MS.309         	15.207         	6.262
MS.310         	15.177         	6.53
MS.311         	15.148         	6.524
MS.312         	15.117         	6.204
MS.313         	15.087         	6.206
MS.314         	15.057         	6.188
MS.315         	15.027         	6.228
MS.316         	14.997         	6.183
MS.317         	14.967         	6.133
MS.318         	14.938         	6.171
MS.319         	14.907         	6.077
MS.320         	14.877         	6.163
MS.321         	14.847         	6.073
MS.322         	14.818         	6.071
MS.323         	14.787         	6.129
MS.324         	14.757         	6.026
MS.325         	14.73          	6.055
MS.326         	14.7           	6.121
MS.327         	14.67          	6.079
MS.328         	14.64          	5.97
MS.329         	14.612         	6.01
MS.330         	14.582         	6.079
MS.331         	14.552         	5.984
MS.332         	14.525         	5.829
MS.333         	14.495         	5.96
MS.334         	14.467         	5.982
MS.335         	14.438         	6.02
MS.336         	14.407         	5.819
MS.337         	14.38          	5.773
MS.338         	14.35          	5.807
MS.339         	14.322         	5.952
MS.340         	14.295         	5.718
MS.341         	14.265         	5.875
MS.342         	14.237         	5.696
MS.343         	14.207         	5.769
MS.344         	14.18          	5.821
MS.345         	14.153         	5.718
MS.346         	14.122         	5.638
MS.347         	14.095         	5.7
MS.348         	14.068         	5.636
MS.349         	14.04          	5.72
MS.350         	14.01          	5.466
MS.351         	13.983         	5.499
MS.352         	13.955         	5.62
MS.353         	13.927         	5.581
MS.354         	13.9           	5.535
MS.355         	13.872         	5.609
MS.356         	13.842         	5.513
MS.357         	13.815         	5.477
MS.358         	13.787         	5.509
MS.359         	13.76          	5.46
MS.360         	13.733         	5.45
MS.361         	13.705         	5.42
MS.362         	13.677         	5.42
MS.363         	13.653         	5.398
MS.364         	13.625         	5.434
MS.365         	13.597         	5.376
MS.366         	13.57          	5.404
MS.367         	13.542         	5.404
MS.368         	13.515         	5.386
MS.369         	13.487         	5.39
MS.370         	13.462         	5.331
MS.371         	13.435         	5.188
MS.372         	13.407         	5.36
MS.373         	13.38          	5.106
MS.374         	13.355         	5.281
MS.375         	13.327         	5.052
MS.376         	13.3           	5.086
MS.377         	13.275         	5.277
MS.378         	13.247         	5.229
MS.379         	13.222         	5.126
MS.380         	13.195         	4.921
MS.381         	13.167         	5.074
MS.382         	13.142         	4.882
MS.383         	13.115         	4.981
MS.384         	13.09          	4.778
MS.385         	13.062         	5.001
MS.386         	13.037         	4.8
MS.387         	13.012         	4.888
MS.388         	12.985         	4.969
MS.389         	12.96          	4.721
MS.390         	12.932         	4.697
MS.391         	12.907         	4.645
MS.392         	12.882         	4.725
MS.393         	12.858         	4.659
MS.394         	12.83          	4.554
MS.395         	12.805         	4.645
MS.396         	12.78          	4.578
MS.397         	12.755         	4.6
MS.398         	12.727         	4.56
MS.399         	12.702         	4.411
MS.400         	12.677         	4.492
MS.401         	12.653         	4.395
MS.402         	12.627         	4.52
MS.403         	12.602         	4.544
MS.404         	12.577         	4.538
MS.405         	12.552         	4.419
MS.406         	12.528         	4.278
MS.407         	12.502         	4.27
MS.408         	12.477         	4.198
MS.409         	12.452         	4.214
MS.410         	12.427         	4.276
MS.411         	12.403         	4.222
MS.412         	12.377         	4.151
MS.413         	12.352         	4.24
MS.414         	12.327         	3.752
MS.415         	12.302         	3.71
MS.416         	12.278         	4.159
MS.417         	12.255         	4.028
MS.418         	12.23          	4.036
MS.419         	12.205         	4.163
MS.420         	12.18          	3.95
MS.421         	12.155         	3.831
MS.422         	12.132         	3.936
MS.423         	12.108         	4.01
MS.424         	12.082         	4.002
MS.425         	12.06          	3.621
MS.426         	12.035         	3.865
MS.427         	12.01          	3.726
MS.428         	11.988         	3.388
MS.429         	11.962         	3.426
MS.430         	11.94          	3.348
MS.431         	11.915         	3.245
MS.432         	11.892         	3.186
MS.433         	11.867         	3.172
MS.434         	11.845         	3.053
MS.435         	11.82          	3.569
MS.436         	11.797         	2.987
MS.437         	11.773         	3.092
MS.438         	11.75          	3.005
MS.439         	11.727         	3.076
MS.440         	11.702         	3.438
MS.441         	11.68          	2.955
MS.442         	11.655         	2.949
MS.443         	11.632         	2.953
MS.444         	11.61          	2.985
MS.445         	11.587         	2.826
MS.446         	11.562         	2.743
MS.447         	11.54          	2.828
MS.448         	11.517         	2.78
MS.449         	11.495         	2.876
MS.450         	11.47          	2.765
MS.451         	11.447         	2.661
MS.452         	11.425         	2.79
MS.453         	11.403         	2.735
MS.454         	11.38          	2.701
MS.455         	11.358         	2.745
MS.456         	11.335         	2.788
MS.457         	11.312         	2.596
MS.458         	11.29          	2.685
MS.459         	11.267         	2.639
MS.460         	11.245         	2.576
MS.461         	11.222         	2.586
MS.462         	11.2           	2.58
MS.463         	11.177         	2.665
MS.464         	11.155         	2.582
MS.465         	11.132         	2.616
MS.466         	11.11          	2.566
MS.467         	11.087         	2.453
MS.468         	11.065         	2.508
MS.469         	11.042         	2.451
MS.470         	11.023         	2.538
MS.471         	11             	2.574
MS.472         	10.977         	2.548
MS.473         	10.955         	2.538
MS.474         	10.932         	2.516
MS.475         	10.912         	2.447
MS.476         	10.89          	2.401
MS.477         	10.867         	2.435
MS.478         	10.847         	2.506
MS.479         	10.825         	2.403
MS.480         	10.802         	2.479
MS.481         	10.782         	2.361
MS.482         	10.76          	2.365
MS.483         	10.738         	2.403
MS.484         	10.717         	2.365
MS.485         	10.695         	2.353
MS.486         	10.675         	2.334
MS.487         	10.653         	2.314
MS.488         	10.632         	2.332
MS.489         	10.61          	2.369
MS.490         	10.59          	2.342
MS.491         	10.568         	2.31
MS.492         	10.547         	2.344
MS.493         	10.525         	2.318
MS.494         	10.505         	2.342
MS.495         	10.485         	2.27
MS.496         	10.462         	2.357
MS.497         	10.443         	2.262
MS.498         	10.42          	2.332
MS.499         	10.4           	2.226
MS.500         	10.38          	1.984
