File:              	C:\Qtrac\Data\Daniel M Sørensen\MScan multicentre study\Data from centres\Antalya\Processed data\TR.NC.ANT.4.1- NCC00315N.QZD
Name:              	TR.NC.ANT.4.1
Protocol:          	MSCAN-R2
Date:              	15/3/20
Start time:        	20:50:10
Age:               	22
Sex:               	f
Temperature:       	29.5
S/R sites:         	TA
NC/disease:        	NC
Operator:          	ab
Comments:          	left TA
M-SCAN DATA (4.3-1.1m)
Scanpts: 3, 7, 340, 361
Stim. (mA)     	Amp. (mV)
MS.1           	43.5           	5.698
MS.2           	43.5           	5.636
MS.3           	43.5           	5.611
MS.4           	43.5           	5.583
MS.5           	43.5           	5.567
MS.6           	43.5           	5.622
MS.7           	43.5           	5.607
MS.8           	43.5           	5.595
MS.9           	43.5           	5.537
MS.10          	43.5           	5.585
MS.11          	43.5           	5.642
MS.12          	43.5           	5.63
MS.13          	43.5           	5.622
MS.14          	43.5           	5.573
MS.15          	43.5           	5.553
MS.16          	43.5           	5.543
MS.17          	43.5           	5.372
MS.18          	43.5           	5.414
MS.19          	43.5           	5.535
MS.20          	43.5           	5.452
MS.21          	43.5           	5.495
MS.22          	43.5           	5.47
MS.23          	43.5           	5.386
MS.24          	43.325         	5.247
MS.25          	43.24          	5.283
MS.26          	43.153         	5.342
MS.27          	43.067         	5.281
MS.28          	42.98          	5.112
MS.29          	42.895         	5.233
MS.30          	42.81          	5.205
MS.31          	42.725         	5.148
MS.32          	42.638         	5.025
MS.33          	42.552         	5.041
MS.34          	42.467         	5.001
MS.35          	42.382         	4.935
MS.36          	42.298         	4.902
MS.37          	42.215         	4.909
MS.38          	42.13          	4.886
MS.39          	42.045         	4.796
MS.40          	41.962         	4.637
MS.41          	41.877         	4.713
MS.42          	41.795         	4.78
MS.43          	41.71          	4.804
MS.44          	41.627         	4.715
MS.45          	41.545         	4.685
MS.46          	41.46          	4.731
MS.47          	41.377         	4.693
MS.48          	41.295         	4.687
MS.49          	41.212         	4.486
MS.50          	41.13          	4.494
MS.51          	41.048         	4.568
MS.52          	40.967         	4.49
MS.53          	40.885         	4.409
MS.54          	40.802         	4.393
MS.55          	40.722         	4.361
MS.56          	40.64          	4.506
MS.57          	40.56          	4.51
MS.58          	40.478         	4.469
MS.59          	40.397         	4.427
MS.60          	40.317         	4.401
MS.61          	40.235         	4.391
MS.62          	40.155         	4.343
MS.63          	40.075         	4.369
MS.64          	39.995         	4.369
MS.65          	39.915         	4.26
MS.66          	39.835         	4.189
MS.67          	39.755         	4.361
MS.68          	39.677         	4.131
MS.69          	39.597         	4.137
MS.70          	39.517         	4.113
MS.71          	39.44          	4.238
MS.72          	39.36          	3.918
MS.73          	39.282         	4.028
MS.74          	39.202         	3.978
MS.75          	39.125         	4.008
MS.76          	39.048         	3.932
MS.77          	38.967         	3.803
MS.78          	38.89          	3.732
MS.79          	38.812         	3.978
MS.80          	38.735         	3.764
MS.81          	38.657         	3.726
MS.82          	38.58          	3.658
MS.83          	38.505         	3.646
MS.84          	38.427         	3.519
MS.85          	38.35          	3.519
MS.86          	38.272         	3.501
MS.87          	38.197         	3.47
MS.88          	38.12          	3.476
MS.89          	38.045         	3.525
MS.90          	37.967         	3.4
MS.91          	37.892         	3.279
MS.92          	37.817         	3.299
MS.93          	37.743         	3.112
MS.94          	37.665         	3.192
MS.95          	37.59          	3.082
MS.96          	37.515         	3.074
MS.97          	37.44          	3.132
MS.98          	37.365         	2.961
MS.99          	37.29          	3.055
MS.100         	37.217         	2.769
MS.101         	37.142         	2.822
MS.102         	37.068         	2.91
MS.103         	36.995         	2.802
MS.104         	36.92          	2.723
MS.105         	36.847         	2.717
MS.106         	36.772         	2.751
MS.107         	36.7           	2.689
MS.108         	36.625         	2.504
MS.109         	36.552         	2.598
MS.110         	36.48          	2.494
MS.111         	36.407         	2.433
MS.112         	36.335         	2.512
MS.113         	36.263         	2.445
MS.114         	36.19          	2.284
MS.115         	36.118         	2.409
MS.116         	36.045         	2.363
MS.117         	35.972         	2.367
MS.118         	35.9           	2.187
MS.119         	35.83          	2.167
MS.120         	35.757         	2.254
MS.121         	35.685         	2.05
MS.122         	35.615         	2.06
MS.123         	35.542         	2.073
MS.124         	35.472         	2.038
MS.125         	35.403         	2.018
MS.126         	35.33          	2.006
MS.127         	35.26          	2.054
MS.128         	35.19          	1.968
MS.129         	35.12          	1.917
MS.130         	35.05          	1.952
MS.131         	34.98          	1.895
MS.132         	34.91          	1.891
MS.133         	34.84          	1.855
MS.134         	34.77          	1.77
MS.135         	34.7           	1.77
MS.136         	34.632         	1.746
MS.137         	34.562         	1.819
MS.138         	34.493         	1.702
MS.139         	34.425         	1.648
MS.140         	34.355         	1.704
MS.141         	34.287         	1.682
MS.142         	34.217         	1.631
MS.143         	34.15          	1.577
MS.144         	34.083         	1.557
MS.145         	34.013         	1.567
MS.146         	33.945         	1.49
MS.147         	33.877         	1.392
MS.148         	33.81          	1.426
MS.149         	33.743         	1.281
MS.150         	33.675         	1.313
MS.151         	33.607         	1.227
MS.152         	33.54          	1.078
MS.153         	33.472         	1.112
MS.154         	33.407         	1.07
MS.155         	33.34          	1.045
MS.156         	33.272         	1.019
MS.157         	33.208         	1.021
MS.158         	33.14          	1.021
MS.159         	33.075         	0.979
MS.160         	33.007         	1.057
MS.161         	32.943         	0.912
MS.162         	32.877         	0.981
MS.163         	32.81          	0.89
MS.164         	32.745         	0.937
MS.165         	32.68          	0.81
MS.166         	32.615         	0.876
MS.167         	32.55          	0.816
MS.168         	32.485         	0.816
MS.169         	32.42          	0.784
MS.170         	32.355         	0.775
MS.171         	32.29          	0.79
MS.172         	32.225         	0.773
MS.173         	32.16          	0.8
MS.174         	32.097         	0.755
MS.175         	32.032         	0.765
MS.176         	31.967         	0.725
MS.177         	31.905         	0.659
MS.178         	31.84          	0.681
MS.179         	31.778         	0.667
MS.180         	31.715         	0.634
MS.181         	31.65          	0.634
MS.182         	31.587         	0.675
MS.183         	31.525         	0.655
MS.184         	31.462         	0.628
MS.185         	31.397         	0.612
MS.186         	31.335         	0.6
MS.187         	31.272         	0.636
MS.188         	31.21          	0.606
MS.189         	31.147         	0.602
MS.190         	31.085         	0.556
MS.191         	31.025         	0.542
MS.192         	30.962         	0.578
MS.193         	30.9           	0.544
MS.194         	30.837         	0.564
MS.195         	30.778         	0.516
MS.196         	30.715         	0.638
MS.197         	30.655         	0.516
MS.198         	30.592         	0.548
MS.199         	30.532         	0.544
MS.200         	30.47          	0.526
MS.201         	30.41          	0.566
MS.202         	30.35          	0.522
MS.203         	30.287         	0.489
MS.204         	30.227         	0.495
MS.205         	30.167         	0.489
MS.206         	30.108         	0.457
MS.207         	30.047         	0.495
MS.208         	29.987         	0.5
MS.209         	29.927         	0.536
MS.210         	29.867         	0.473
MS.211         	29.807         	0.479
MS.212         	29.747         	0.477
MS.213         	29.688         	0.473
MS.214         	29.63          	0.421
MS.215         	29.57          	0.435
MS.216         	29.51          	0.493
MS.217         	29.452         	0.417
MS.218         	29.392         	0.463
MS.219         	29.335         	0.407
MS.220         	29.275         	0.433
MS.221         	29.217         	0.359
MS.222         	29.16          	0.431
MS.223         	29.1           	0.423
MS.224         	29.042         	0.361
MS.225         	28.985         	0.455
MS.226         	28.927         	0.437
MS.227         	28.868         	0.35
MS.228         	28.81          	0.387
MS.229         	28.752         	0.405
MS.230         	28.695         	0.375
MS.231         	28.637         	0.357
MS.232         	28.582         	0.288
MS.233         	28.525         	0.385
MS.234         	28.467         	0.328
MS.235         	28.41          	0.403
MS.236         	28.352         	0.332
MS.237         	28.297         	0.346
MS.238         	28.24          	0.33
MS.239         	28.185         	0.296
MS.240         	28.127         	0.302
MS.241         	28.073         	0.33
MS.242         	28.015         	0.306
MS.243         	27.96          	0.31
MS.244         	27.903         	0.262
MS.245         	27.847         	0.304
MS.246         	27.792         	0.26
MS.247         	27.737         	0.314
MS.248         	27.682         	0.282
MS.249         	27.625         	0.34
MS.250         	27.57          	0.284
MS.251         	27.515         	0.274
MS.252         	27.46          	0.28
MS.253         	27.405         	0.274
MS.254         	27.35          	0.246
MS.255         	27.297         	0.203
MS.256         	27.243         	0.226
MS.257         	27.188         	0.234
MS.258         	27.132         	0.216
MS.259         	27.08          	0.262
MS.260         	27.025         	0.167
MS.261         	26.97          	0.205
MS.262         	26.917         	0.191
MS.263         	26.862         	0.191
MS.264         	26.81          	0.201
MS.265         	26.755         	0.185
MS.266         	26.702         	0.177
MS.267         	26.65          	0.183
MS.268         	26.595         	0.141
MS.269         	26.542         	0.195
MS.270         	26.49          	0.169
MS.271         	26.438         	0.183
MS.272         	26.385         	0.181
MS.273         	26.332         	0.163
MS.274         	26.278         	0.163
MS.275         	26.225         	0.149
MS.276         	26.175         	0.161
MS.277         	26.122         	0.163
MS.278         	26.07          	0.147
MS.279         	26.017         	0.163
MS.280         	25.965         	0.151
MS.281         	25.912         	0.05
MS.282         	25.862         	0.052
MS.283         	25.81          	0.125
MS.284         	25.757         	0.131
MS.285         	25.707         	0.123
MS.286         	25.655         	0.062
MS.287         	25.605         	0.026
MS.288         	25.552         	0.046
MS.289         	25.502         	0.04
MS.290         	25.45          	0.034
MS.291         	25.4           	0.117
MS.292         	25.35          	0.127
MS.293         	25.3           	0.04
MS.294         	25.247         	0.05
MS.295         	25.198         	0.091
MS.296         	25.147         	0.024
MS.297         	25.097         	0.02
MS.298         	25.047         	0.014
MS.299         	24.997         	0.01
MS.300         	24.948         	0.026
MS.301         	24.897         	0.018
MS.302         	24.847         	0.014
MS.303         	24.797         	0.016
MS.304         	24.747         	0.018
MS.305         	24.7           	0.038
MS.306         	24.65          	0.036
MS.307         	24.6           	0.038
MS.308         	24.55          	0.016
MS.309         	24.502         	0.117
MS.310         	24.452         	0.016
MS.311         	24.405         	0.02
MS.312         	24.355         	0.03
MS.313         	24.307         	0.014
MS.314         	24.257         	0.022
MS.315         	24.21          	0.01
MS.316         	24.163         	0.022
MS.317         	24.112         	0.022
MS.318         	24.065         	0.022
MS.319         	24.017         	0.01
MS.320         	23.97          	0.012
MS.321         	23.92          	0.016
MS.322         	23.872         	0.008
MS.323         	23.825         	0.008
MS.324         	23.778         	0.004
MS.325         	23.73          	0.002
MS.326         	23.682         	0.006
MS.327         	23.635         	0.004
MS.328         	23.587         	0.012
MS.329         	23.542         	0.02
MS.330         	23.495         	-0.004
MS.331         	23.448         	0.01
MS.332         	23.4           	0.002
MS.333         	23.352         	0.004
MS.334         	23.307         	0.004
MS.335         	23.26          	0.01
MS.336         	23.215         	0.016
MS.337         	23.167         	0.002
MS.338         	23.122         	0.002
MS.339         	23.075         	0.004
MS.340         	23.03          	0.004
MS.341         	22.983         	0.016
MS.342         	22.938         	0.008
MS.343         	22.892         	0.006
MS.344         	22.845         	0.014
MS.345         	22.8           	0.004
MS.346         	22.755         	0.002
MS.347         	22.71          	0.004
MS.348         	22.663         	0.002
MS.349         	22.618         	0.008
MS.350         	22.573         	0.002
MS.351         	22.528         	-0.004
MS.352         	22.483         	0.000
MS.353         	22.438         	0.002
MS.354         	22.392         	-0.004
MS.355         	22.347         	0.002
MS.356         	22.305         	0.002
MS.357         	22.26          	0.002
MS.358         	22.215         	0.000
MS.359         	22.17          	0.002
MS.360         	22.125         	0.002
MS.361         	22.083         	0.000
DERIVED EXCITABILITY VARIABLES
Program = QTracP 3/4/2020
Threshold method = 6 (optimised for CAP, using data for present condition only)
SR method = 1 (using actual data values)
6.                 	0.000               	Peak response\(mV)
9.                 	29.5                	Temperature ( C)
17.                	22                  	Age (years)
18.                	2                   	Sex (M=1, F=2)

EXTRA VARIABLES

MScPeak(mV) = 5.56
MScS5(mA) = 27.69
MScS50(mA) = 37.13
MScS95(mA) = 43.23
MScNSteps = 3
MScSteps(%) = 6.3
MScStepMax(%) = 2.2
MScD50 = 41
MScSlope = 6.47
MSFPeakAmp(mV) = 5.59
MSFNUnits = 177
MSFMeanUnitAmp(uV) = 31.6
MSFHuntTime(m) = 2.31
MSFError(%) = 3.36
MSFNLarge = 58.99
MSFMedianAmp(%) = 0.519
MSFMedianAmp(mV) = 0.029
MSFHalfAmpAmp(%) = 0.601
MSFHalfAmpAmp(mV) = 0.0336
MSFLargestAmp(%) = 1.93
MSFLargestAmp(mV) = 0.108
MSFMeanRS(%) = 2
MSFOpts = 10106121
MScDuration(min) = 3.2
MSFTraces = 359
MSFSizeLimit(uV) = 14
MSFLimitType = 1
MSFSmallestAmp(uV) = 14.5

EXTRA WAVEFORMS


!MScan Model
!177
	1	24.86	0.43	2
	2	25.67	1.04	2
	3	25.97	0.75	2
	4	26.36	0.69	2
	5	26.71	0.38	2
	6	27.08	0.58	2
	7	27.22	0.31	2
	8	27.37	0.41	2
	9	27.93	0.86	2
	10	28.49	0.82	2
	11	29.28	1.44	2
	12	29.54	0.33	2
	13	30.05	0.77	2
	14	30.47	0.65	2
	15	30.98	0.95	2
	16	31.23	0.62	2
	17	31.6	0.7	2
	18	31.69	0.48	2
	19	31.9	0.45	2
	20	31.97	0.26	2
	21	32.05	0.28	2
	22	32.14	0.35	2
	23	32.24	0.39	2
	24	32.33	0.38	2
	25	32.46	0.5	2
	26	32.53	0.26	2
	27	32.59	0.3	2
	28	32.65	0.33	2
	29	32.73	0.44	2
	30	32.83	0.53	2
	31	32.93	0.43	2
	32	33.03	0.46	2
	33	33.09	0.36	2
	34	33.15	0.5	2
	35	33.21	0.48	2
	36	33.28	0.49	2
	37	33.34	0.49	2
	38	33.39	0.42	2
	39	33.5	0.82	2.4
	40	33.55	0.63	2
	41	33.6	0.45	2
	42	33.62	0.27	2
	43	33.65	0.29	2
	44	33.67	0.29	2
	45	33.69	0.32	2
	46	33.72	0.33	2
	47	33.75	0.32	2
	48	33.77	0.28	2
	49	33.8	0.28	2
	50	33.83	0.28	2
	51	33.85	0.28	2
	52	33.88	0.28	2
	53	33.91	0.29	2
	54	33.93	0.29	2
	55	33.96	0.29	2
	56	33.99	0.29	2
	57	34.01	0.29	2
	58	34.05	0.46	2
	59	34.1	0.47	2
	60	34.14	0.47	2
	61	34.18	0.41	2
	62	34.23	0.38	2
	63	34.27	0.37	2
	64	34.31	0.33	2
	65	34.35	0.3	2
	66	34.39	0.27	2
	67	34.43	0.28	2
	68	34.47	0.31	2
	69	34.51	0.31	2
	70	34.55	0.31	2
	71	34.59	0.27	2
	72	34.66	0.6	2
	73	34.77	0.56	2
	74	34.84	0.56	2
	75	34.95	0.7	2
	76	35.06	0.58	2
	77	35.14	0.49	2
	78	35.22	0.52	2
	79	35.3	0.48	2
	80	35.38	0.44	2
	81	35.45	0.39	2
	82	35.52	0.37	2
	83	35.58	0.52	2
	84	35.65	0.63	2
	85	35.72	0.59	2
	86	35.79	0.56	2
	87	35.86	0.57	2
	88	35.94	0.52	2
	89	36.01	0.58	2
	90	36.08	0.64	2
	91	36.15	0.58	2
	92	36.21	0.53	2
	93	36.27	0.57	2
	94	36.34	0.72	2
	95	36.4	0.72	2
	96	36.46	0.55	2
	97	36.52	0.54	2
	98	36.59	0.55	2
	99	36.65	0.54	2
	100	36.72	0.55	2
	101	36.78	0.6	2
	102	36.85	0.6	2
	103	36.92	0.7	2
	104	37	0.71	2
	105	37.07	0.86	2
	106	37.15	0.83	2
	107	37.22	0.65	2
	108	37.28	0.47	2
	109	37.33	0.55	2
	110	37.38	0.57	2
	111	37.44	0.57	2
	112	37.49	0.61	2
	113	37.54	0.61	2
	114	37.6	0.6	2
	115	37.65	0.56	2
	116	37.69	0.56	2
	117	37.74	0.56	2
	118	37.79	0.43	2
	119	37.84	0.43	2
	120	37.89	0.42	2
	121	37.94	0.47	2
	122	38	0.56	2
	123	38.07	0.75	2
	124	38.14	0.86	2
	125	38.21	0.81	2
	126	38.28	0.65	2
	127	38.35	0.64	2
	128	38.4	0.46	2
	129	38.45	0.46	2
	130	38.5	0.46	2
	131	38.55	0.39	2
	132	38.6	0.39	2
	133	38.65	0.38	2
	134	38.7	0.48	2
	135	38.78	0.73	2
	136	38.89	1.09	2
	137	39.01	1.03	2
	138	39.12	0.9	2
	139	39.21	0.72	2
	140	39.3	0.72	2
	141	39.39	0.77	2
	142	39.48	0.75	2
	143	39.58	0.88	2
	144	39.71	0.82	2
	145	39.83	0.82	2
	146	40.13	1.86	2
	147	40.65	1.91	2
	148	40.85	0.57	2
	149	40.99	0.73	2
	150	41.14	0.87	2
	151	41.37	1.1	2
	152	41.58	1.02	2
	153	41.73	0.79	2
	154	41.88	1.11	2
	155	41.99	0.57	2
	156	42.06	0.33	2
	157	42.13	0.29	2
	158	42.19	0.29	2
	159	42.26	0.46	2
	160	42.33	0.53	2
	161	42.39	0.51	2
	162	42.44	0.39	2
	163	42.49	0.39	2
	164	42.54	0.39	2
	165	42.59	0.38	2
	166	42.63	0.38	2
	167	42.68	0.37	2
	168	42.73	0.37	2
	169	42.78	0.35	2
	170	42.84	0.47	2
	171	42.94	0.73	2
	172	43.04	0.77	2
	173	43.13	0.66	2
	174	43.23	0.61	2
	175	43.4	1.13	2
	176	43.6	0.93	2
	177	44.04	1.93	2

