File:              	C:\Qtrac\Data\Daniel M Sørensen\MScan multicentre study\Data from centres\Antalya\Processed data\TR.NC.ANT.7.2- NCC01108B.QZD
Name:              	TR.NC.ANT.7.2
Protocol:          	MSCAN-R2
Date:              	8/11/20
Start time:        	14:19:22
Age:               	28
Sex:               	f
Temperature:       	33.6
S/R sites:         	ADM
NC/disease:        	NC
Operator:          	ab
Comments:
M-SCAN DATA (7.2-0.6m)
Scanpts: 97, 103, 669, 677
Stim. (mA)     	Amp. (mV)
MS.1           	25.5           	6.389
MS.2           	25.5           	6.331
MS.3           	25.5           	6.349
MS.4           	25.5           	6.333
MS.5           	25.5           	6.326
MS.6           	25.5           	6.353
MS.7           	25.5           	6.385
MS.8           	25.5           	6.373
MS.9           	25.5           	6.433
MS.10          	25.5           	6.409
MS.11          	25.5           	6.447
MS.12          	25.5           	6.443
MS.13          	25.5           	6.411
MS.14          	25.5           	6.417
MS.15          	25.5           	6.345
MS.16          	25.5           	6.359
MS.17          	25.5           	6.349
MS.18          	25.5           	6.31
MS.19          	25.5           	6.328
MS.20          	25.5           	6.361
MS.21          	25.5           	6.381
MS.22          	25.5           	6.375
MS.23          	25.5           	6.347
MS.24          	25.397         	6.373
MS.25          	25.347         	6.375
MS.26          	25.297         	6.363
MS.27          	25.245         	6.314
MS.28          	25.195         	6.282
MS.29          	25.145         	6.246
MS.30          	25.095         	6.264
MS.31          	25.045         	6.226
MS.32          	24.995         	6.314
MS.33          	24.945         	6.292
MS.34          	24.895         	6.272
MS.35          	24.845         	6.26
MS.36          	24.795         	6.234
MS.37          	24.747         	6.232
MS.38          	24.698         	6.224
MS.39          	24.647         	6.192
MS.40          	24.597         	6.248
MS.41          	24.55          	6.286
MS.42          	24.5           	6.32
MS.43          	24.45          	6.316
MS.44          	24.403         	6.206
MS.45          	24.352         	6.101
MS.46          	24.305         	6.107
MS.47          	24.257         	6.113
MS.48          	24.207         	6.008
MS.49          	24.16          	6.065
MS.50          	24.11          	6.032
MS.51          	24.062         	6.089
MS.52          	24.015         	6.123
MS.53          	23.967         	6.099
MS.54          	23.92          	6.133
MS.55          	23.87          	6.153
MS.56          	23.823         	6.113
MS.57          	23.775         	6.097
MS.58          	23.727         	6.085
MS.59          	23.68          	6.051
MS.60          	23.632         	6.073
MS.61          	23.587         	6.028
MS.62          	23.54          	6.02
MS.63          	23.493         	6.008
MS.64          	23.445         	5.982
MS.65          	23.397         	5.984
MS.66          	23.352         	5.986
MS.67          	23.305         	6.006
MS.68          	23.257         	6.069
MS.69          	23.212         	6.151
MS.70          	23.165         	6.185
MS.71          	23.12          	6.099
MS.72          	23.073         	6.028
MS.73          	23.028         	6.006
MS.74          	22.98          	6.012
MS.75          	22.935         	6.057
MS.76          	22.89          	6.002
MS.77          	22.842         	5.992
MS.78          	22.797         	5.984
MS.79          	22.752         	6
MS.80          	22.707         	6.079
MS.81          	22.663         	6.067
MS.82          	22.618         	5.974
MS.83          	22.57          	6.01
MS.84          	22.525         	6.01
MS.85          	22.48          	6.022
MS.86          	22.435         	5.99
MS.87          	22.392         	5.924
MS.88          	22.347         	5.962
MS.89          	22.302         	5.976
MS.90          	22.257         	6.008
MS.91          	22.212         	5.948
MS.92          	22.167         	5.954
MS.93          	22.125         	5.934
MS.94          	22.08          	5.908
MS.95          	22.035         	5.952
MS.96          	21.993         	6.02
MS.97          	21.948         	5.978
MS.98          	21.905         	5.958
MS.99          	21.86          	5.944
MS.100         	21.817         	5.908
MS.101         	21.772         	5.899
MS.102         	21.73          	5.976
MS.103         	21.685         	5.962
MS.104         	21.642         	5.924
MS.105         	21.6           	5.906
MS.106         	21.557         	5.974
MS.107         	21.512         	5.974
MS.108         	21.47          	5.96
MS.109         	21.427         	5.962
MS.110         	21.385         	5.958
MS.111         	21.342         	5.942
MS.112         	21.3           	5.932
MS.113         	21.257         	5.914
MS.114         	21.215         	5.996
MS.115         	21.172         	6.02
MS.116         	21.13          	6.032
MS.117         	21.087         	6.067
MS.118         	21.045         	6.053
MS.119         	21.002         	6
MS.120         	20.96          	5.936
MS.121         	20.92          	5.978
MS.122         	20.877         	5.877
MS.123         	20.835         	5.901
MS.124         	20.795         	5.924
MS.125         	20.752         	5.851
MS.126         	20.71          	5.901
MS.127         	20.67          	6.006
MS.128         	20.627         	5.897
MS.129         	20.587         	5.96
MS.130         	20.545         	5.895
MS.131         	20.505         	5.948
MS.132         	20.465         	5.932
MS.133         	20.422         	5.879
MS.134         	20.382         	5.897
MS.135         	20.342         	5.924
MS.136         	20.3           	5.875
MS.137         	20.26          	5.855
MS.138         	20.22          	5.775
MS.139         	20.18          	5.787
MS.140         	20.14          	5.865
MS.141         	20.1           	5.887
MS.142         	20.06          	5.869
MS.143         	20.02          	5.922
MS.144         	19.98          	5.918
MS.145         	19.94          	5.861
MS.146         	19.9           	5.904
MS.147         	19.86          	5.895
MS.148         	19.82          	5.918
MS.149         	19.78          	5.807
MS.150         	19.74          	5.849
MS.151         	19.7           	5.869
MS.152         	19.663         	5.883
MS.153         	19.622         	5.875
MS.154         	19.583         	5.859
MS.155         	19.545         	5.827
MS.156         	19.505         	5.841
MS.157         	19.465         	5.817
MS.158         	19.427         	5.789
MS.159         	19.387         	5.785
MS.160         	19.35          	5.742
MS.161         	19.31          	5.726
MS.162         	19.272         	5.702
MS.163         	19.235         	5.787
MS.164         	19.195         	5.779
MS.165         	19.157         	5.785
MS.166         	19.12          	5.829
MS.167         	19.08          	5.821
MS.168         	19.042         	5.831
MS.169         	19.005         	5.819
MS.170         	18.967         	5.742
MS.171         	18.927         	5.793
MS.172         	18.89          	5.811
MS.173         	18.852         	5.837
MS.174         	18.815         	5.906
MS.175         	18.778         	5.899
MS.176         	18.74          	5.839
MS.177         	18.702         	5.789
MS.178         	18.665         	5.811
MS.179         	18.628         	5.803
MS.180         	18.59          	5.851
MS.181         	18.555         	5.841
MS.182         	18.517         	5.831
MS.183         	18.48          	5.823
MS.184         	18.442         	5.839
MS.185         	18.405         	5.891
MS.186         	18.37          	5.901
MS.187         	18.333         	5.879
MS.188         	18.295         	5.893
MS.189         	18.26          	5.889
MS.190         	18.222         	5.835
MS.191         	18.188         	5.748
MS.192         	18.15          	5.779
MS.193         	18.115         	5.809
MS.194         	18.077         	5.793
MS.195         	18.042         	5.853
MS.196         	18.005         	5.825
MS.197         	17.97          	5.787
MS.198         	17.932         	5.744
MS.199         	17.897         	5.728
MS.200         	17.862         	5.748
MS.201         	17.827         	5.726
MS.202         	17.79          	5.704
MS.203         	17.755         	5.686
MS.204         	17.72          	5.799
MS.205         	17.685         	5.815
MS.206         	17.65          	5.817
MS.207         	17.612         	5.76
MS.208         	17.577         	5.736
MS.209         	17.542         	5.67
MS.210         	17.507         	5.672
MS.211         	17.472         	5.734
MS.212         	17.438         	5.728
MS.213         	17.403         	5.73
MS.214         	17.37          	5.722
MS.215         	17.335         	5.72
MS.216         	17.3           	5.726
MS.217         	17.265         	5.769
MS.218         	17.23          	5.73
MS.219         	17.195         	5.76
MS.220         	17.163         	5.73
MS.221         	17.128         	5.744
MS.222         	17.092         	5.75
MS.223         	17.06          	5.746
MS.224         	17.025         	5.795
MS.225         	16.99          	5.791
MS.226         	16.958         	5.74
MS.227         	16.922         	5.821
MS.228         	16.89          	5.765
MS.229         	16.855         	5.7
MS.230         	16.823         	5.742
MS.231         	16.788         	5.726
MS.232         	16.755         	5.636
MS.233         	16.72          	5.799
MS.234         	16.688         	5.756
MS.235         	16.655         	5.732
MS.236         	16.62          	5.738
MS.237         	16.587         	5.748
MS.238         	16.555         	5.668
MS.239         	16.522         	5.75
MS.240         	16.487         	5.696
MS.241         	16.455         	5.692
MS.242         	16.422         	5.75
MS.243         	16.39          	5.696
MS.244         	16.358         	5.674
MS.245         	16.325         	5.658
MS.246         	16.292         	5.678
MS.247         	16.26          	5.732
MS.248         	16.227         	5.718
MS.249         	16.195         	5.71
MS.250         	16.163         	5.738
MS.251         	16.13          	5.787
MS.252         	16.097         	5.656
MS.253         	16.065         	5.67
MS.254         	16.032         	5.654
MS.255         	16.003         	5.638
MS.256         	15.97          	5.599
MS.257         	15.938         	5.652
MS.258         	15.905         	5.624
MS.259         	15.875         	5.7
MS.260         	15.842         	5.682
MS.261         	15.81          	5.626
MS.262         	15.78          	5.605
MS.263         	15.747         	5.607
MS.264         	15.715         	5.64
MS.265         	15.685         	5.66
MS.266         	15.652         	5.726
MS.267         	15.622         	5.72
MS.268         	15.59          	5.68
MS.269         	15.56          	5.718
MS.270         	15.527         	5.718
MS.271         	15.497         	5.662
MS.272         	15.467         	5.624
MS.273         	15.435         	5.676
MS.274         	15.405         	5.591
MS.275         	15.375         	5.67
MS.276         	15.342         	5.628
MS.277         	15.312         	5.62
MS.278         	15.282         	5.543
MS.279         	15.252         	5.565
MS.280         	15.22          	5.605
MS.281         	15.19          	5.638
MS.282         	15.16          	5.507
MS.283         	15.13          	5.483
MS.284         	15.1           	5.571
MS.285         	15.07          	5.517
MS.286         	15.04          	5.555
MS.287         	15.01          	5.634
MS.288         	14.98          	5.607
MS.289         	14.95          	5.613
MS.290         	14.92          	5.561
MS.291         	14.89          	5.547
MS.292         	14.86          	5.525
MS.293         	14.83          	5.529
MS.294         	14.8           	5.551
MS.295         	14.77          	5.557
MS.296         	14.742         	5.523
MS.297         	14.712         	5.597
MS.298         	14.682         	5.577
MS.299         	14.652         	5.521
MS.300         	14.625         	5.485
MS.301         	14.595         	5.517
MS.302         	14.565         	5.402
MS.303         	14.537         	5.428
MS.304         	14.507         	5.416
MS.305         	14.477         	5.468
MS.306         	14.45          	5.438
MS.307         	14.42          	5.382
MS.308         	14.392         	5.505
MS.309         	14.362         	5.472
MS.310         	14.335         	5.581
MS.311         	14.305         	5.47
MS.312         	14.278         	5.394
MS.313         	14.25          	5.446
MS.314         	14.22          	5.398
MS.315         	14.193         	5.338
MS.316         	14.162         	5.336
MS.317         	14.135         	5.452
MS.318         	14.108         	5.426
MS.319         	14.08          	5.366
MS.320         	14.05          	5.388
MS.321         	14.023         	5.342
MS.322         	13.995         	5.321
MS.323         	13.967         	5.323
MS.324         	13.94          	5.217
MS.325         	13.91          	5.241
MS.326         	13.882         	5.305
MS.327         	13.855         	5.273
MS.328         	13.827         	5.295
MS.329         	13.8           	5.436
MS.330         	13.773         	5.398
MS.331         	13.745         	5.41
MS.332         	13.717         	5.329
MS.333         	13.69          	5.325
MS.334         	13.662         	5.273
MS.335         	13.635         	5.333
MS.336         	13.608         	5.249
MS.337         	13.58          	5.221
MS.338         	13.555         	5.176
MS.339         	13.528         	5.201
MS.340         	13.5           	5.068
MS.341         	13.472         	5.054
MS.342         	13.445         	5.088
MS.343         	13.42          	4.963
MS.344         	13.392         	4.951
MS.345         	13.365         	5.078
MS.346         	13.34          	5.116
MS.347         	13.312         	4.832
MS.348         	13.285         	4.838
MS.349         	13.26          	4.824
MS.350         	13.233         	4.832
MS.351         	13.205         	4.878
MS.352         	13.18          	4.866
MS.353         	13.153         	4.884
MS.354         	13.127         	4.868
MS.355         	13.1           	4.717
MS.356         	13.075         	4.888
MS.357         	13.047         	4.826
MS.358         	13.023         	4.965
MS.359         	12.997         	4.812
MS.360         	12.97          	4.804
MS.361         	12.945         	4.747
MS.362         	12.917         	4.663
MS.363         	12.892         	4.81
MS.364         	12.867         	4.882
MS.365         	12.842         	4.703
MS.366         	12.815         	4.888
MS.367         	12.79          	4.854
MS.368         	12.765         	4.725
MS.369         	12.74          	4.647
MS.370         	12.712         	4.711
MS.371         	12.688         	4.731
MS.372         	12.662         	4.498
MS.373         	12.637         	4.403
MS.374         	12.613         	4.29
MS.375         	12.587         	4.377
MS.376         	12.562         	4.367
MS.377         	12.537         	4.318
MS.378         	12.512         	4.56
MS.379         	12.488         	4.467
MS.380         	12.462         	4.453
MS.381         	12.438         	4.33
MS.382         	12.412         	4.026
MS.383         	12.387         	3.962
MS.384         	12.363         	4.119
MS.385         	12.337         	4.002
MS.386         	12.312         	3.841
MS.387         	12.287         	3.934
MS.388         	12.265         	3.587
MS.389         	12.24          	3.708
MS.390         	12.215         	3.587
MS.391         	12.19          	3.535
MS.392         	12.167         	3.676
MS.393         	12.142         	3.571
MS.394         	12.117         	3.364
MS.395         	12.092         	3.233
MS.396         	12.07          	3.323
MS.397         	12.045         	3.287
MS.398         	12.02          	3.269
MS.399         	11.997         	3.178
MS.400         	11.972         	3.1
MS.401         	11.95          	3.134
MS.402         	11.925         	2.989
MS.403         	11.903         	3.376
MS.404         	11.877         	3.15
MS.405         	11.855         	3.033
MS.406         	11.83          	3.176
MS.407         	11.807         	3.055
MS.408         	11.782         	2.967
MS.409         	11.76          	3.001
MS.410         	11.735         	3.112
MS.411         	11.712         	2.717
MS.412         	11.69          	2.844
MS.413         	11.665         	2.977
MS.414         	11.642         	2.921
MS.415         	11.62          	2.767
MS.416         	11.595         	2.655
MS.417         	11.572         	2.693
MS.418         	11.55          	2.681
MS.419         	11.528         	2.643
MS.420         	11.505         	2.81
MS.421         	11.48          	2.485
MS.422         	11.457         	2.554
MS.423         	11.435         	2.461
MS.424         	11.412         	2.598
MS.425         	11.39          	2.52
MS.426         	11.367         	2.473
MS.427         	11.345         	2.641
MS.428         	11.32          	2.425
MS.429         	11.297         	2.365
MS.430         	11.275         	2.56
MS.431         	11.252         	2.461
MS.432         	11.23          	2.645
MS.433         	11.207         	2.524
MS.434         	11.185         	2.443
MS.435         	11.165         	2.401
MS.436         	11.142         	2.334
MS.437         	11.12          	2.272
MS.438         	11.097         	2.193
MS.439         	11.075         	2.242
MS.440         	11.052         	2.338
MS.441         	11.03          	2.163
MS.442         	11.007         	2.073
MS.443         	10.988         	2.232
MS.444         	10.965         	2.224
MS.445         	10.943         	2.133
MS.446         	10.92          	2.022
MS.447         	10.9           	2.028
MS.448         	10.877         	2.075
MS.449         	10.855         	2.087
MS.450         	10.835         	2.203
MS.451         	10.812         	2.197
MS.452         	10.79          	2.075
MS.453         	10.77          	2.075
MS.454         	10.747         	2.01
MS.455         	10.725         	1.855
MS.456         	10.705         	1.809
MS.457         	10.682         	1.738
MS.458         	10.662         	1.907
MS.459         	10.64          	1.638
MS.460         	10.62          	1.662
MS.461         	10.597         	1.555
MS.462         	10.577         	1.575
MS.463         	10.555         	1.545
MS.464         	10.535         	1.621
MS.465         	10.512         	1.696
MS.466         	10.492         	1.752
MS.467         	10.472         	1.631
MS.468         	10.45          	1.501
MS.469         	10.43          	1.519
MS.470         	10.41          	1.559
MS.471         	10.387         	1.696
MS.472         	10.367         	1.527
MS.473         	10.347         	1.549
MS.474         	10.325         	1.472
MS.475         	10.305         	1.434
MS.476         	10.285         	1.529
MS.477         	10.265         	1.472
MS.478         	10.245         	1.45
MS.479         	10.222         	1.394
MS.480         	10.202         	1.416
MS.481         	10.182         	1.347
MS.482         	10.162         	1.368
MS.483         	10.142         	1.311
MS.484         	10.122         	1.364
MS.485         	10.102         	1.432
MS.486         	10.08          	1.281
MS.487         	10.06          	1.335
MS.488         	10.04          	1.267
MS.489         	10.02          	1.229
MS.490         	10             	1.281
MS.491         	9.98           	1.174
MS.492         	9.96           	1.223
MS.493         	9.94           	1.136
MS.494         	9.92           	1.126
MS.495         	9.903          	1.303
MS.496         	9.882          	1.112
MS.497         	9.863          	1.158
MS.498         	9.842          	1.172
MS.499         	9.823          	1.168
MS.500         	9.802          	1.116
MS.501         	9.782          	1.2
