File:              	C:\Qtrac\Data\Daniel M Sørensen\MScan multicentre study\Data from centres\Antalya\Processed data\TR.NC.ANT.2.2- NCC00323A.QZD
Name:              	TR.NC.ANT.2.2
Protocol:          	MSCAN-R2
Date:              	23/3/20
Start time:        	18:03:47
Age:               	38
Sex:               	m
Temperature:       	31.1
S/R sites:         	APB
NC/disease:        	NC
Operator:          	ab
Comments:          	left APB
M-SCAN DATA (4.3-1m)
Scanpts: 75, 80, 346, 368
Stim. (mA)     	Amp. (mV)
MS.1           	19.5           	12.027
MS.2           	19.5           	12.018
MS.3           	19.5           	12.039
MS.4           	19.5           	12.045
MS.5           	19.5           	12.041
MS.6           	19.5           	12.049
MS.7           	19.5           	12.043
MS.8           	19.5           	12.059
MS.9           	19.5           	12.047
MS.10          	19.5           	12.043
MS.11          	19.5           	12.029
MS.12          	19.5           	12.071
MS.13          	19.5           	12.081
MS.14          	19.5           	12.073
MS.15          	19.5           	12.087
MS.16          	19.5           	12.091
MS.17          	19.5           	12.101
MS.18          	19.5           	12.083
MS.19          	19.5           	12.077
MS.20          	19.5           	12.117
MS.21          	19.5           	12.105
MS.22          	19.5           	12.129
MS.23          	19.5           	12.157
MS.24          	19.422         	12.129
MS.25          	19.382         	12.123
MS.26          	19.345         	12.123
MS.27          	19.305         	12.19
MS.28          	19.267         	12.143
MS.29          	19.23          	12.139
MS.30          	19.19          	12.145
MS.31          	19.153         	12.023
MS.32          	19.115         	12.129
MS.33          	19.075         	12.143
MS.34          	19.038         	12.129
MS.35          	19             	12.151
MS.36          	18.962         	12.043
MS.37          	18.922         	12.147
MS.38          	18.885         	12.149
MS.39          	18.847         	12.153
MS.40          	18.81          	12.182
MS.41          	18.772         	12.157
MS.42          	18.735         	12.222
MS.43          	18.698         	12.079
MS.44          	18.66          	12.2
MS.45          	18.622         	12.069
MS.46          	18.585         	12.059
MS.47          	18.55          	12.186
MS.48          	18.512         	12.051
MS.49          	18.475         	12.178
MS.50          	18.438         	12.184
MS.51          	18.4           	12.057
MS.52          	18.365         	12.089
MS.53          	18.327         	12.087
MS.54          	18.29          	12.212
MS.55          	18.255         	12.103
MS.56          	18.217         	12.103
MS.57          	18.182         	12.262
MS.58          	18.145         	12.159
MS.59          	18.11          	12.218
MS.60          	18.073         	12.248
MS.61          	18.038         	12.248
MS.62          	18             	12.234
MS.63          	17.965         	12.254
MS.64          	17.93          	12.276
MS.65          	17.892         	12.272
MS.66          	17.858         	12.266
MS.67          	17.823         	12.288
MS.68          	17.785         	12.284
MS.69          	17.75          	12.274
MS.70          	17.715         	12.307
MS.71          	17.68          	12.311
MS.72          	17.645         	12.319
MS.73          	17.61          	12.311
MS.74          	17.575         	12.385
MS.75          	17.538         	12.365
MS.76          	17.503         	12.355
MS.77          	17.467         	12.385
MS.78          	17.435         	12.341
MS.79          	17.4           	12.349
MS.80          	17.365         	12.347
MS.81          	17.33          	12.397
MS.82          	17.295         	12.335
MS.83          	17.26          	12.343
MS.84          	17.225         	12.353
MS.85          	17.192         	12.341
MS.86          	17.157         	12.309
MS.87          	17.122         	12.311
MS.88          	17.087         	12.182
MS.89          	17.055         	12.121
MS.90          	17.02          	12.127
MS.91          	16.987         	12.103
MS.92          	16.952         	12.133
MS.93          	16.917         	12.172
MS.94          	16.885         	12.127
MS.95          	16.85          	12.131
MS.96          	16.817         	12.097
MS.97          	16.782         	12.139
MS.98          	16.75          	12.131
MS.99          	16.717         	12.153
MS.100         	16.682         	12.164
MS.101         	16.65          	12.139
MS.102         	16.618         	12.145
MS.103         	16.583         	12.119
MS.104         	16.55          	11.861
MS.105         	16.517         	12.091
MS.106         	16.485         	11.807
MS.107         	16.452         	11.843
MS.108         	16.417         	11.825
MS.109         	16.385         	11.432
MS.110         	16.352         	11.849
MS.111         	16.32          	11.857
MS.112         	16.288         	11.726
MS.113         	16.255         	11.88
MS.114         	16.222         	11.819
MS.115         	16.19          	11.811
MS.116         	16.157         	11.785
MS.117         	16.125         	11.41
MS.118         	16.092         	11.348
MS.119         	16.062         	11.839
MS.120         	16.03          	11.734
MS.121         	15.997         	11.747
MS.122         	15.965         	11.36
MS.123         	15.932         	11.31
MS.124         	15.902         	11.634
MS.125         	15.87          	11.7
MS.126         	15.837         	11.181
MS.127         	15.807         	11.734
MS.128         	15.775         	10.939
MS.129         	15.742         	10.971
MS.130         	15.712         	11.231
MS.131         	15.68          	11.303
MS.132         	15.65          	11.295
MS.133         	15.617         	11.001
MS.134         	15.587         	11.011
MS.135         	15.555         	10.887
MS.136         	15.525         	10.963
MS.137         	15.492         	10.919
MS.138         	15.462         	10.945
MS.139         	15.432         	10.826
MS.140         	15.4           	10.756
MS.141         	15.37          	10.78
MS.142         	15.34          	10.705
MS.143         	15.307         	10.721
MS.144         	15.277         	10.731
MS.145         	15.247         	10.778
MS.146         	15.217         	10.653
MS.147         	15.188         	10.516
MS.148         	15.155         	10.599
MS.149         	15.125         	10.655
MS.150         	15.095         	10.443
MS.151         	15.065         	10.437
MS.152         	15.035         	10.633
MS.153         	15.005         	10.317
MS.154         	14.975         	10.383
MS.155         	14.945         	10.329
MS.156         	14.915         	10.184
MS.157         	14.885         	10.365
MS.158         	14.855         	10.238
MS.159         	14.827         	10.182
MS.160         	14.797         	9.948
MS.161         	14.767         	9.873
MS.162         	14.737         	10.033
MS.163         	14.707         	9.513
MS.164         	14.68          	9.827
MS.165         	14.65          	9.851
MS.166         	14.62          	9.285
MS.167         	14.59          	10.016
MS.168         	14.562         	9.652
MS.169         	14.532         	9.11
MS.170         	14.505         	8.895
MS.171         	14.475         	8.943
MS.172         	14.445         	8.945
MS.173         	14.417         	8.77
MS.174         	14.387         	8.574
MS.175         	14.36          	8.022
MS.176         	14.33          	7.97
MS.177         	14.302         	8.167
MS.178         	14.273         	8.143
MS.179         	14.245         	7.96
MS.180         	14.217         	7.906
MS.181         	14.188         	7.247
MS.182         	14.16          	7.855
MS.183         	14.132         	7.793
MS.184         	14.102         	7.404
MS.185         	14.075         	6.5
MS.186         	14.047         	7.037
MS.187         	14.02          	5.908
MS.188         	13.99          	6.598
MS.189         	13.962         	6.061
MS.190         	13.935         	6.608
MS.191         	13.907         	5.817
MS.192         	13.88          	6.085
MS.193         	13.852         	5.823
MS.194         	13.825         	5.483
MS.195         	13.797         	6.53
MS.196         	13.77          	5.501
MS.197         	13.742         	5.499
MS.198         	13.715         	5.273
MS.199         	13.688         	5.422
MS.200         	13.66          	5.019
MS.201         	13.632         	4.274
MS.202         	13.605         	4.57
MS.203         	13.577         	4.643
MS.204         	13.55          	4.248
MS.205         	13.523         	4.232
MS.206         	13.495         	4.401
MS.207         	13.47          	4.302
MS.208         	13.443         	4.055
MS.209         	13.415         	3.617
MS.210         	13.387         	3.45
MS.211         	13.362         	3.491
MS.212         	13.335         	3.563
MS.213         	13.307         	3.261
MS.214         	13.282         	3.374
MS.215         	13.255         	3.225
MS.216         	13.23          	3.166
MS.217         	13.202         	3.025
MS.218         	13.175         	2.665
MS.219         	13.15          	2.945
MS.220         	13.122         	2.606
MS.221         	13.097         	2.868
MS.222         	13.07          	2.689
MS.223         	13.045         	2.528
MS.224         	13.02          	2.324
MS.225         	12.992         	2.576
MS.226         	12.967         	2.218
MS.227         	12.94          	2.359
MS.228         	12.915         	2.22
MS.229         	12.89          	2.157
MS.230         	12.862         	2.177
MS.231         	12.837         	2.06
MS.232         	12.812         	2.062
MS.233         	12.787         	2.024
MS.234         	12.76          	2.036
MS.235         	12.735         	1.851
MS.236         	12.71          	1.956
MS.237         	12.685         	1.696
MS.238         	12.66          	1.958
MS.239         	12.635         	1.976
MS.240         	12.61          	1.601
MS.241         	12.585         	1.549
MS.242         	12.557         	1.539
MS.243         	12.532         	1.515
MS.244         	12.507         	1.605
MS.245         	12.483         	1.4
MS.246         	12.457         	1.249
MS.247         	12.432         	1.271
MS.248         	12.41          	1.223
MS.249         	12.385         	1.192
MS.250         	12.36          	1.194
MS.251         	12.335         	1.152
MS.252         	12.31          	1.184
MS.253         	12.285         	1.114
MS.254         	12.26          	1.041
MS.255         	12.238         	1.144
MS.256         	12.212         	1.003
MS.257         	12.188         	0.989
MS.258         	12.162         	0.894
MS.259         	12.14          	0.842
MS.260         	12.115         	0.888
MS.261         	12.09          	0.862
MS.262         	12.065         	0.868
MS.263         	12.042         	0.888
MS.264         	12.017         	0.653
MS.265         	11.995         	0.699
MS.266         	11.97          	0.649
MS.267         	11.945         	0.661
MS.268         	11.922         	0.737
MS.269         	11.898         	0.636
MS.270         	11.875         	0.616
MS.271         	11.85          	0.626
MS.272         	11.827         	0.59
MS.273         	11.802         	0.552
MS.274         	11.78          	0.508
MS.275         	11.757         	0.564
MS.276         	11.733         	0.481
MS.277         	11.71          	0.477
MS.278         	11.685         	0.568
MS.279         	11.662         	0.298
MS.280         	11.64          	0.483
MS.281         	11.617         	0.302
MS.282         	11.592         	0.429
MS.283         	11.57          	0.266
MS.284         	11.547         	0.272
MS.285         	11.525         	0.254
MS.286         	11.5           	0.437
MS.287         	11.477         	0.25
MS.288         	11.455         	0.266
MS.289         	11.432         	0.244
MS.290         	11.41          	0.238
MS.291         	11.387         	0.207
MS.292         	11.363         	0.161
MS.293         	11.34          	0.242
MS.294         	11.318         	0.238
MS.295         	11.295         	0.244
MS.296         	11.273         	0.409
MS.297         	11.25          	0.189
MS.298         	11.227         	0.195
MS.299         	11.205         	0.234
MS.300         	11.182         	0.234
MS.301         	11.16          	0.147
MS.302         	11.137         	0.089
MS.303         	11.117         	0.149
MS.304         	11.095         	0.163
MS.305         	11.073         	0.139
MS.306         	11.05          	0.214
MS.307         	11.028         	0.143
MS.308         	11.005         	0.137
MS.309         	10.983         	0.139
MS.310         	10.962         	0.091
MS.311         	10.94          	0.097
MS.312         	10.917         	0.135
MS.313         	10.895         	0.091
MS.314         	10.875         	0.089
MS.315         	10.852         	0.105
MS.316         	10.83          	0.139
MS.317         	10.81          	0.137
MS.318         	10.787         	0.052
MS.319         	10.765         	0.093
MS.320         	10.745         	0.087
MS.321         	10.722         	0.091
MS.322         	10.702         	0.093
MS.323         	10.68          	0.05
MS.324         	10.66          	0.093
MS.325         	10.637         	0.01
MS.326         	10.617         	0.089
MS.327         	10.595         	0.054
MS.328         	10.575         	0.014
MS.329         	10.552         	0.024
MS.330         	10.532         	0.016
MS.331         	10.51          	0.012
MS.332         	10.49          	0.016
MS.333         	10.47          	0.014
MS.334         	10.448         	0.01
MS.335         	10.427         	0.014
MS.336         	10.407         	0.012
MS.337         	10.385         	0.014
MS.338         	10.365         	0.012
MS.339         	10.345         	0.014
MS.340         	10.323         	0.012
MS.341         	10.302         	0.012
MS.342         	10.282         	0.014
MS.343         	10.262         	0.014
MS.344         	10.24          	0.01
MS.345         	10.22          	0.012
MS.346         	10.2           	0.012
MS.347         	10.18          	0.01
MS.348         	10.16          	0.018
MS.349         	10.14          	0.012
MS.350         	10.12          	0.01
MS.351         	10.097         	0.014
MS.352         	10.077         	0.01
MS.353         	10.057         	0.012
MS.354         	10.037         	0.014
MS.355         	10.017         	0.012
MS.356         	9.997          	0.018
MS.357         	9.977          	0.012
MS.358         	9.957          	0.016
MS.359         	9.938          	0.012
MS.360         	9.917          	0.014
MS.361         	9.9            	0.014
MS.362         	9.88           	0.01
MS.363         	9.86           	0.01
MS.364         	9.84           	0.012
MS.365         	9.82           	0.01
MS.366         	9.8            	0.012
MS.367         	9.78           	0.012
MS.368         	9.76           	0.012
DERIVED EXCITABILITY VARIABLES
Program = QTracP 3/4/2020
Threshold method = 6 (optimised for CAP, using data for present condition only)
SR method = 1 (using actual data values)
6.                 	0.000               	Peak response\(mV)
9.                 	31.1                	Temperature ( C)
17.                	38                  	Age (years)
18.                	1                   	Sex (M=1, F=2)

EXTRA VARIABLES

MScPeak(mV) = 12.05
MScS5(mA) = 11.84
MScS50(mA) = 13.9
MScS95(mA) = 16.04
MScNSteps = 3
MScSteps(%) = 9.7
MScStepMax(%) = 3.6
MScD50 = 27
MScSlope = 10.52
MSFPeakAmp(mV) = 12.3
MSFNUnits = 151
MSFMeanUnitAmp(uV) = 81.8
MSFHuntTime(m) = 1.8
MSFError(%) = 7.71
MSFNLarge = 35.21
MSFMedianAmp(%) = 0.455
MSFMedianAmp(mV) = 0.0562
MSFHalfAmpAmp(%) = 0.77
MSFHalfAmpAmp(mV) = 0.095
MSFLargestAmp(%) = 3.65
MSFLargestAmp(mV) = 0.451
MSFMeanRS(%) = 2
MSFOpts = 10106121
MScDuration(min) = 3.3
MSFTraces = 294
MSFSizeLimit(uV) = 30.9
MSFLimitType = 1
MSFSmallestAmp(uV) = 30.9

EXTRA WAVEFORMS


!MScan Model
!151
	1	10.67	0.43	2
	2	10.8	0.26	2
	3	11.1	0.52	2
	4	11.38	0.64	2
	5	11.49	0.29	2
	6	11.57	0.59	2
	7	11.64	0.46	2
	8	11.68	0.39	2
	9	11.75	0.5	2
	10	11.8	0.33	2
	11	11.87	0.49	2
	12	11.93	0.49	2
	13	11.97	0.36	2
	14	12.05	0.5	2
	15	12.09	0.4	2
	16	12.13	0.48	2
	17	12.16	0.4	2
	18	12.19	0.36	2
	19	12.22	0.26	2
	20	12.24	0.26	2
	21	12.26	0.26	2
	22	12.31	0.42	2
	23	12.36	0.38	2
	24	12.39	0.38	2
	25	12.41	0.38	2
	26	12.44	0.38	2
	27	12.46	0.28	2
	28	12.48	0.28	2
	29	12.5	0.34	2
	30	12.52	0.36	2
	31	12.54	0.36	2
	32	12.55	0.38	2
	33	12.57	0.38	2
	34	12.6	0.46	2
	35	12.63	0.46	2
	36	12.65	0.38	2
	37	12.68	0.42	2
	38	12.72	0.63	2
	39	12.76	0.5	2
	40	12.79	0.37	2
	41	12.83	0.56	2
	42	12.87	0.49	2
	43	12.89	0.45	2
	44	12.91	0.25	2
	45	12.92	0.25	2
	46	12.93	0.26	2
	47	12.95	0.3	2
	48	12.97	0.43	2
	49	12.99	0.43	2
	50	13.01	0.35	2
	51	13.03	0.35	2
	52	13.05	0.39	2
	53	13.07	0.46	2
	54	13.09	0.46	2
	55	13.11	0.33	2
	56	13.12	0.3	2
	57	13.13	0.35	2
	58	13.15	0.35	2
	59	13.16	0.39	2
	60	13.18	0.39	2
	61	13.18	1.46	2
	62	13.19	0.34	2
	63	13.2	0.34	2
	64	13.22	0.33	2
	65	13.23	0.33	2
	66	13.24	0.33	2
	67	13.25	0.33	2
	68	13.27	0.38	2
	69	13.28	0.39	2
	70	13.29	0.41	2
	71	13.31	0.42	2
	72	13.32	0.45	2
	73	13.33	0.45	2
	74	13.34	0.45	2
	75	13.36	0.45	2
	76	13.38	0.85	2
	77	13.41	0.86	2
	78	13.44	0.81	2
	79	13.47	0.91	2
	80	13.49	0.59	2
	81	13.51	0.59	2
	82	13.53	0.77	2
	83	13.55	1.02	2
	84	13.57	1.02	2
	85	13.59	0.86	2
	86	13.61	0.73	2
	87	13.63	0.73	2
	88	13.66	1.2	2
	89	13.69	1.38	2
	90	13.82	3.65	2
	91	13.91	3.1	2
	92	13.95	1.15	2
	93	13.98	1.42	2
	94	14.02	1.62	2
	95	14.05	1.5	2
	96	14.08	1.43	2
	97	14.13	2.45	2
	98	14.18	1.48	2
	99	14.2	1.14	2
	100	14.22	0.94	2
	101	14.24	0.84	2
	102	14.26	0.84	2
	103	14.28	0.78	2
	104	14.3	0.72	2
	105	14.32	0.64	2
	106	14.34	0.58	2
	107	14.36	0.61	2
	108	14.37	0.59	2
	109	14.39	0.57	2
	110	14.41	0.52	2
	111	14.42	0.63	2
	112	14.44	0.76	2
	113	14.46	0.76	2
	114	14.48	0.82	2
	115	14.52	1.75	2
	116	14.56	1.43	2
	117	14.62	1.56	2
	118	14.71	2.58	2
	119	14.78	1.08	2
	120	14.8	0.39	2
	121	14.82	0.41	2
	122	14.85	0.43	2
	123	14.87	0.37	2
	124	14.9	0.46	2
	125	14.95	0.69	2
	126	15	0.58	2
	127	15.05	0.46	2
	128	15.09	0.34	2
	129	15.12	0.29	2
	130	15.16	0.29	2
	131	15.19	0.27	2
	132	15.22	0.26	2
	133	15.26	0.27	2
	134	15.3	0.38	2
	135	15.34	0.4	2
	136	15.4	0.38	2
	137	15.44	0.32	2
	138	15.49	0.46	2
	139	15.51	0.26	2
	140	15.53	0.28	2
	141	15.55	0.28	2
	142	15.66	0.96	2
	143	15.81	1.63	2
	144	15.97	0.68	2
	145	16.13	3.04	2
	146	16.44	1.22	2
	147	16.51	0.69	2
	148	16.63	1.08	2
	149	16.94	0.58	2
	150	17.02	0.34	2
	151	17.14	0.62	2

