File:              	C:\Qtrac\Data\Daniel M Sørensen\MScan multicentre study\Data from centres\Antalya\Processed data\TR.NC.ANT.1.2-NCC00219A.QZD
Name:              	TR.NC.ANT.1.2
Protocol:          	MSCAN-R2
Date:              	19/2/20
Start time:        	19:52:29
Age:               	68
Sex:               	f
Temperature:       	32.9
S/R sites:         	APB
NC/disease:        	NC
Operator:          	ab
Comments:          	right APB
M-SCAN DATA (7.9-1.6m)
Scanpts: 16, 20, 624, 638
Stim. (mA)     	Amp. (mV)
MS.1           	27             	6.23
MS.2           	27             	6.244
MS.3           	27             	6.23
MS.4           	27             	6.314
MS.5           	27             	6.196
MS.6           	27             	6.198
MS.7           	27             	6.222
MS.8           	27             	6.22
MS.9           	27             	6.23
MS.10          	27             	6.276
MS.11          	27             	6.312
MS.12          	27             	6.24
MS.13          	27             	6.276
MS.14          	27             	6.345
MS.15          	27             	6.337
MS.16          	27             	6.284
MS.17          	27             	6.369
MS.18          	27             	6.312
MS.19          	27             	6.371
MS.20          	27             	6.345
MS.21          	27             	6.268
MS.22          	27             	6.308
MS.23          	27             	6.387
MS.24          	26.892         	6.298
MS.25          	26.837         	6.298
MS.26          	26.785         	6.335
MS.27          	26.73          	6.373
MS.28          	26.677         	6.244
MS.29          	26.625         	6.337
MS.30          	26.573         	6.264
MS.31          	26.517         	6.292
MS.32          	26.465         	6.328
MS.33          	26.412         	6.246
MS.34          	26.36          	6.28
MS.35          	26.307         	6.226
MS.36          	26.255         	6.226
MS.37          	26.202         	6.28
MS.38          	26.15          	6.298
MS.39          	26.097         	6.248
MS.40          	26.045         	6.218
MS.41          	25.993         	6.177
MS.42          	25.94          	6.21
MS.43          	25.89          	6.326
MS.44          	25.837         	6.22
MS.45          	25.785         	6.2
MS.46          	25.735         	6.204
MS.47          	25.682         	6.216
MS.48          	25.632         	6.258
MS.49          	25.58          	6.177
MS.50          	25.53          	6.173
MS.51          	25.477         	6.212
MS.52          	25.427         	6.2
MS.53          	25.377         	6.208
MS.54          	25.325         	6.188
MS.55          	25.275         	6.171
MS.56          	25.225         	6.165
MS.57          	25.175         	6.131
MS.58          	25.125         	6.127
MS.59          	25.075         	6.169
MS.60          	25.025         	6.153
MS.61          	24.975         	6.19
MS.62          	24.925         	6.143
MS.63          	24.875         	6.149
MS.64          	24.825         	6.137
MS.65          	24.775         	6.131
MS.66          	24.725         	6.135
MS.67          	24.675         	6.137
MS.68          	24.627         	6.115
MS.69          	24.577         	6.071
MS.70          	24.528         	6.125
MS.71          	24.48          	6.075
MS.72          	24.43          	6.121
MS.73          	24.382         	6.101
MS.74          	24.332         	6.115
MS.75          	24.285         	6.067
MS.76          	24.235         	6.073
MS.77          	24.188         	6.073
MS.78          	24.14          	6.065
MS.79          	24.09          	6.073
MS.80          	24.042         	6.117
MS.81          	23.995         	6.071
MS.82          	23.948         	6.075
MS.83          	23.9           	6.121
MS.84          	23.85          	6.055
MS.85          	23.802         	6.008
MS.86          	23.755         	6.047
MS.87          	23.707         	6.032
MS.88          	23.66          	6.115
MS.89          	23.615         	6.049
MS.90          	23.567         	6.051
MS.91          	23.52          	6.018
MS.92          	23.472         	6.073
MS.93          	23.425         	6.03
MS.94          	23.38          	6.059
MS.95          	23.332         	6.051
MS.96          	23.285         	6.053
MS.97          	23.24          	6.055
MS.98          	23.192         	6.034
MS.99          	23.145         	6.026
MS.100         	23.1           	6.038
MS.101         	23.055         	6.022
MS.102         	23.007         	5.986
MS.103         	22.962         	6.034
MS.104         	22.915         	6.01
MS.105         	22.87          	5.99
MS.106         	22.825         	6.006
MS.107         	22.78          	5.994
MS.108         	22.733         	6
MS.109         	22.688         	5.994
MS.110         	22.642         	5.942
MS.111         	22.597         	5.956
MS.112         	22.552         	5.918
MS.113         	22.507         	5.897
MS.114         	22.462         	5.972
MS.115         	22.417         	5.912
MS.116         	22.372         	6.02
MS.117         	22.327         	5.936
MS.118         	22.282         	5.885
MS.119         	22.237         	5.962
MS.120         	22.195         	5.984
MS.121         	22.15          	5.901
MS.122         	22.105         	5.978
MS.123         	22.062         	5.857
MS.124         	22.017         	5.879
MS.125         	21.972         	5.712
MS.126         	21.93          	5.877
MS.127         	21.885         	5.879
MS.128         	21.842         	5.837
MS.129         	21.797         	5.654
MS.130         	21.755         	5.634
MS.131         	21.712         	5.775
MS.132         	21.667         	5.809
MS.133         	21.625         	5.573
MS.134         	21.583         	5.575
MS.135         	21.538         	5.738
MS.136         	21.495         	5.547
MS.137         	21.452         	5.597
MS.138         	21.41          	5.624
MS.139         	21.368         	5.454
MS.140         	21.325         	5.553
MS.141         	21.282         	5.567
MS.142         	21.24          	5.507
MS.143         	21.198         	5.372
MS.144         	21.155         	5.472
MS.145         	21.112         	5.481
MS.146         	21.07          	5.418
MS.147         	21.028         	5.436
MS.148         	20.985         	5.462
MS.149         	20.942         	5.448
MS.150         	20.903         	4.937
MS.151         	20.86          	5.386
MS.152         	20.817         	5.344
MS.153         	20.778         	4.896
MS.154         	20.735         	5.271
MS.155         	20.695         	5.325
MS.156         	20.653         	4.957
MS.157         	20.61          	4.836
MS.158         	20.57          	4.784
MS.159         	20.53          	4.832
MS.160         	20.487         	5.225
MS.161         	20.448         	4.753
MS.162         	20.405         	4.79
MS.163         	20.365         	4.697
MS.164         	20.325         	4.721
MS.165         	20.285         	4.683
MS.166         	20.243         	4.423
MS.167         	20.202         	4.598
MS.168         	20.163         	4.528
MS.169         	20.122         	4.365
MS.170         	20.083         	4.486
MS.171         	20.042         	4.292
MS.172         	20.002         	4.576
MS.173         	19.962         	4.389
MS.174         	19.922         	4.286
MS.175         	19.882         	4.284
MS.176         	19.842         	4.248
MS.177         	19.802         	4.153
MS.178         	19.762         	4.073
MS.179         	19.725         	3.805
MS.180         	19.685         	3.893
MS.181         	19.645         	3.521
MS.182         	19.605         	3.768
MS.183         	19.567         	3.732
MS.184         	19.528         	3.523
MS.185         	19.487         	3.523
MS.186         	19.45          	3.682
MS.187         	19.41          	3.515
MS.188         	19.372         	3.515
MS.189         	19.333         	3.493
MS.190         	19.295         	3.43
MS.191         	19.255         	3.491
MS.192         	19.217         	3.303
MS.193         	19.18          	3.16
MS.194         	19.14          	3.388
MS.195         	19.102         	3.112
MS.196         	19.065         	3.341
MS.197         	19.028         	3.382
MS.198         	18.987         	3.088
MS.199         	18.95          	2.832
MS.200         	18.913         	2.838
MS.201         	18.875         	3.213
MS.202         	18.837         	2.985
MS.203         	18.8           	2.846
MS.204         	18.762         	3.001
MS.205         	18.725         	2.88
MS.206         	18.688         	2.828
MS.207         	18.65          	2.691
MS.208         	18.612         	2.747
MS.209         	18.575         	2.701
MS.210         	18.538         	2.773
MS.211         	18.5           	2.657
MS.212         	18.465         	2.647
MS.213         	18.427         	2.767
MS.214         	18.39          	2.512
MS.215         	18.352         	2.584
MS.216         	18.317         	2.59
MS.217         	18.28          	2.413
MS.218         	18.245         	2.514
MS.219         	18.208         	2.413
MS.220         	18.17          	2.389
MS.221         	18.135         	2.214
MS.222         	18.097         	2.425
MS.223         	18.062         	2.286
MS.224         	18.028         	2.157
MS.225         	17.99          	2.073
MS.226         	17.955         	2.105
MS.227         	17.917         	1.922
MS.228         	17.882         	1.96
MS.229         	17.847         	2.014
MS.230         	17.812         	1.7
MS.231         	17.775         	1.875
MS.232         	17.74          	1.869
MS.233         	17.705         	1.783
MS.234         	17.67          	1.674
MS.235         	17.635         	1.704
MS.236         	17.6           	1.65
MS.237         	17.562         	1.674
MS.238         	17.528         	1.776
MS.239         	17.493         	1.738
MS.240         	17.458         	1.621
MS.241         	17.422         	1.728
MS.242         	17.39          	1.613
MS.243         	17.355         	1.621
MS.244         	17.32          	1.488
MS.245         	17.285         	1.559
MS.246         	17.25          	1.271
MS.247         	17.215         	1.134
MS.248         	17.182         	1.114
MS.249         	17.147         	1.134
MS.250         	17.112         	1.464
MS.251         	17.077         	1.162
MS.252         	17.045         	1.122
MS.253         	17.01          	1.104
MS.254         	16.977         	1.472
MS.255         	16.942         	1.438
MS.256         	16.91          	1.084
MS.257         	16.875         	1.07
MS.258         	16.842         	1.065
MS.259         	16.807         	1.051
MS.260         	16.775         	1.059
MS.261         	16.74          	1.065
MS.262         	16.708         	1.446
MS.263         	16.672         	1.076
MS.264         	16.64          	0.854
MS.265         	16.608         	0.969
MS.266         	16.575         	0.808
MS.267         	16.54          	1.047
MS.268         	16.507         	0.767
MS.269         	16.475         	0.759
MS.270         	16.442         	0.715
MS.271         	16.41          	0.947
MS.272         	16.378         	0.699
MS.273         	16.342         	0.737
MS.274         	16.31          	0.695
MS.275         	16.278         	0.689
MS.276         	16.245         	0.8
MS.277         	16.212         	0.713
MS.278         	16.18          	0.929
MS.279         	16.147         	0.753
MS.280         	16.118         	0.709
MS.281         	16.085         	0.667
MS.282         	16.052         	0.665
MS.283         	16.02          	0.61
MS.284         	15.987         	0.663
MS.285         	15.955         	0.596
MS.286         	15.925         	0.594
MS.287         	15.892         	0.61
MS.288         	15.86          	0.614
MS.289         	15.83          	0.582
MS.290         	15.797         	0.546
MS.291         	15.765         	0.608
MS.292         	15.735         	0.52
MS.293         	15.702         	0.516
MS.294         	15.672         	0.512
MS.295         	15.64          	0.475
MS.296         	15.61          	0.502
MS.297         	15.577         	0.475
MS.298         	15.547         	0.479
MS.299         	15.515         	0.473
MS.300         	15.485         	0.53
MS.301         	15.452         	0.477
MS.302         	15.422         	0.475
MS.303         	15.392         	0.371
MS.304         	15.36          	0.465
MS.305         	15.33          	0.479
MS.306         	15.3           	0.477
MS.307         	15.27          	0.367
MS.308         	15.237         	0.357
MS.309         	15.207         	0.34
MS.310         	15.177         	0.377
MS.311         	15.148         	0.481
MS.312         	15.117         	0.477
MS.313         	15.087         	0.377
MS.314         	15.057         	0.369
MS.315         	15.027         	0.373
MS.316         	14.997         	0.363
MS.317         	14.967         	0.363
MS.318         	14.938         	0.373
MS.319         	14.907         	0.379
MS.320         	14.877         	0.377
MS.321         	14.847         	0.246
MS.322         	14.818         	0.342
MS.323         	14.787         	0.254
MS.324         	14.757         	0.381
MS.325         	14.73          	0.203
MS.326         	14.7           	0.371
MS.327         	14.67          	0.211
MS.328         	14.64          	0.27
MS.329         	14.612         	0.189
MS.330         	14.582         	0.228
MS.331         	14.552         	0.23
MS.332         	14.525         	0.187
MS.333         	14.495         	0.197
MS.334         	14.467         	0.214
MS.335         	14.438         	0.169
MS.336         	14.407         	0.189
MS.337         	14.38          	0.205
MS.338         	14.35          	0.159
MS.339         	14.322         	0.185
MS.340         	14.295         	0.175
MS.341         	14.265         	0.189
MS.342         	14.237         	0.183
MS.343         	14.207         	0.165
MS.344         	14.18          	0.179
MS.345         	14.153         	0.169
MS.346         	14.122         	0.185
MS.347         	14.095         	0.185
MS.348         	14.068         	0.171
MS.349         	14.04          	0.183
MS.350         	14.01          	0.165
MS.351         	13.983         	0.177
MS.352         	13.955         	0.163
MS.353         	13.927         	0.167
MS.354         	13.9           	0.167
MS.355         	13.872         	0.147
MS.356         	13.842         	0.167
MS.357         	13.815         	0.169
MS.358         	13.787         	0.173
MS.359         	13.76          	0.175
MS.360         	13.733         	0.173
MS.361         	13.705         	0.163
MS.362         	13.677         	0.169
MS.363         	13.653         	0.169
MS.364         	13.625         	0.171
MS.365         	13.597         	0.135
MS.366         	13.57          	0.167
MS.367         	13.542         	0.175
MS.368         	13.515         	0.133
MS.369         	13.487         	0.171
MS.370         	13.462         	0.127
MS.371         	13.435         	0.143
MS.372         	13.407         	0.133
MS.373         	13.38          	0.137
MS.374         	13.355         	0.133
MS.375         	13.327         	0.131
MS.376         	13.3           	0.167
MS.377         	13.275         	0.141
MS.378         	13.247         	0.129
MS.379         	13.222         	0.127
MS.380         	13.195         	0.135
MS.381         	13.167         	0.133
MS.382         	13.142         	0.171
MS.383         	13.115         	0.131
MS.384         	13.09          	0.133
MS.385         	13.062         	0.139
MS.386         	13.037         	0.133
MS.387         	13.012         	0.133
MS.388         	12.985         	0.129
MS.389         	12.96          	0.131
MS.390         	12.932         	0.135
MS.391         	12.907         	0.129
MS.392         	12.882         	0.125
MS.393         	12.858         	0.133
MS.394         	12.83          	0.133
MS.395         	12.805         	0.133
MS.396         	12.78          	0.127
MS.397         	12.755         	0.127
MS.398         	12.727         	0.131
MS.399         	12.702         	0.131
MS.400         	12.677         	0.137
MS.401         	12.653         	0.127
MS.402         	12.627         	0.127
MS.403         	12.602         	0.127
MS.404         	12.577         	0.135
MS.405         	12.552         	0.133
MS.406         	12.528         	0.129
MS.407         	12.502         	0.125
MS.408         	12.477         	0.131
MS.409         	12.452         	0.133
MS.410         	12.427         	0.129
MS.411         	12.403         	0.133
MS.412         	12.377         	0.131
MS.413         	12.352         	0.131
MS.414         	12.327         	0.129
MS.415         	12.302         	0.135
MS.416         	12.278         	0.127
MS.417         	12.255         	0.097
MS.418         	12.23          	0.133
MS.419         	12.205         	0.133
MS.420         	12.18          	0.125
MS.421         	12.155         	0.095
MS.422         	12.132         	0.135
MS.423         	12.108         	0.129
MS.424         	12.082         	0.133
MS.425         	12.06          	0.073
MS.426         	12.035         	0.111
MS.427         	12.01          	0.109
MS.428         	11.988         	0.099
MS.429         	11.962         	0.141
MS.430         	11.94          	0.093
MS.431         	11.915         	0.079
MS.432         	11.892         	0.095
MS.433         	11.867         	0.093
MS.434         	11.845         	0.095
MS.435         	11.82          	0.097
MS.436         	11.797         	0.095
MS.437         	11.773         	0.093
MS.438         	11.75          	0.077
MS.439         	11.727         	0.079
MS.440         	11.702         	0.081
MS.441         	11.68          	0.081
MS.442         	11.655         	0.077
MS.443         	11.632         	0.079
MS.444         	11.61          	0.079
MS.445         	11.587         	0.077
MS.446         	11.562         	0.079
MS.447         	11.54          	0.077
MS.448         	11.517         	0.079
MS.449         	11.495         	0.077
MS.450         	11.47          	0.081
MS.451         	11.447         	0.081
MS.452         	11.425         	0.079
MS.453         	11.403         	0.077
MS.454         	11.38          	0.077
MS.455         	11.358         	0.079
MS.456         	11.335         	0.079
MS.457         	11.312         	0.081
MS.458         	11.29          	0.079
MS.459         	11.267         	0.079
MS.460         	11.245         	0.083
MS.461         	11.222         	0.081
MS.462         	11.2           	0.081
MS.463         	11.177         	0.077
MS.464         	11.155         	0.079
MS.465         	11.132         	0.087
MS.466         	11.11          	0.081
MS.467         	11.087         	0.083
MS.468         	11.065         	0.079
MS.469         	11.042         	0.079
MS.470         	11.023         	0.073
MS.471         	11             	0.075
MS.472         	10.977         	0.075
MS.473         	10.955         	0.075
MS.474         	10.932         	0.083
MS.475         	10.912         	0.075
MS.476         	10.89          	0.079
MS.477         	10.867         	0.079
MS.478         	10.847         	0.056
MS.479         	10.825         	0.081
MS.480         	10.802         	0.075
MS.481         	10.782         	0.081
MS.482         	10.76          	0.07
MS.483         	10.738         	0.083
MS.484         	10.717         	0.073
MS.485         	10.695         	0.075
MS.486         	10.675         	0.073
MS.487         	10.653         	0.077
MS.488         	10.632         	0.077
MS.489         	10.61          	0.077
MS.490         	10.59          	0.079
MS.491         	10.568         	0.079
MS.492         	10.547         	0.083
MS.493         	10.525         	0.081
MS.494         	10.505         	0.079
MS.495         	10.485         	0.081
MS.496         	10.462         	0.077
MS.497         	10.443         	0.075
MS.498         	10.42          	0.081
MS.499         	10.4           	0.081
MS.500         	10.38          	0.083
