File:              	C:\Qtrac\Data\Daniel M Sørensen\MScan multicentre study\Data from centres\Antalya\Processed data\TR.NC.ANT.6.1- NCC00915A.QZD
Name:              	TR.NC.ANT.6.1
Protocol:          	MSCAN-R2
Date:              	15/9/20
Start time:        	14:21:55
Age:               	27
Sex:               	M
Temperature:       	33.4
S/R sites:         	ADM
NC/disease:        	NC
Operator:          	AB
Comments:
M-SCAN DATA (7.9-1.1m)
Scanpts: 129, 135, 539, 545
Stim. (mA)     	Amp. (mV)
MS.1           	27             	6.828
MS.2           	27             	6.824
MS.3           	27             	6.796
MS.4           	27             	6.834
MS.5           	27             	6.862
MS.6           	27             	6.872
MS.7           	27             	6.854
MS.8           	27             	6.858
MS.9           	27             	6.874
MS.10          	27             	6.913
MS.11          	27             	6.884
MS.12          	27             	6.898
MS.13          	27             	6.89
MS.14          	27             	6.872
MS.15          	27             	6.856
MS.16          	27             	6.888
MS.17          	27             	6.864
MS.18          	27             	6.862
MS.19          	27             	6.858
MS.20          	27             	6.864
MS.21          	27             	6.858
MS.22          	27             	6.876
MS.23          	27             	6.862
MS.24          	26.892         	6.868
MS.25          	26.837         	6.86
MS.26          	26.785         	6.862
MS.27          	26.73          	6.856
MS.28          	26.677         	6.828
MS.29          	26.625         	6.86
MS.30          	26.573         	6.858
MS.31          	26.517         	6.87
MS.32          	26.465         	6.834
MS.33          	26.412         	6.872
MS.34          	26.36          	6.886
MS.35          	26.307         	6.939
MS.36          	26.255         	6.965
MS.37          	26.202         	6.941
MS.38          	26.15          	6.937
MS.39          	26.097         	6.927
MS.40          	26.045         	6.941
MS.41          	25.993         	6.939
MS.42          	25.94          	6.977
MS.43          	25.89          	6.987
MS.44          	25.837         	7.025
MS.45          	25.785         	7.056
MS.46          	25.735         	7.031
MS.47          	25.682         	7.042
MS.48          	25.632         	7.07
MS.49          	25.58          	7.062
MS.50          	25.53          	7.052
MS.51          	25.477         	7.037
MS.52          	25.427         	7.064
MS.53          	25.377         	7.166
MS.54          	25.325         	7.14
MS.55          	25.275         	7.078
MS.56          	25.225         	6.987
MS.57          	25.175         	7.035
MS.58          	25.125         	7.09
MS.59          	25.075         	7.102
MS.60          	25.025         	7.138
MS.61          	24.975         	7.142
MS.62          	24.925         	7.138
MS.63          	24.875         	7.178
MS.64          	24.825         	7.227
MS.65          	24.775         	7.213
MS.66          	24.725         	7.197
MS.67          	24.675         	7.142
MS.68          	24.627         	7.166
MS.69          	24.577         	7.168
MS.70          	24.528         	7.174
MS.71          	24.48          	7.144
MS.72          	24.43          	7.146
MS.73          	24.382         	7.185
MS.74          	24.332         	7.178
MS.75          	24.285         	7.201
MS.76          	24.235         	7.229
MS.77          	24.188         	7.259
MS.78          	24.14          	7.239
MS.79          	24.09          	7.263
MS.80          	24.042         	7.277
MS.81          	23.995         	7.311
MS.82          	23.948         	7.265
MS.83          	23.9           	7.209
MS.84          	23.85          	7.217
MS.85          	23.802         	7.205
MS.86          	23.755         	7.245
MS.87          	23.707         	7.233
MS.88          	23.66          	7.229
MS.89          	23.615         	7.283
MS.90          	23.567         	7.247
MS.91          	23.52          	7.152
MS.92          	23.472         	7.247
MS.93          	23.425         	7.275
MS.94          	23.38          	7.317
MS.95          	23.332         	7.287
MS.96          	23.285         	7.307
MS.97          	23.24          	7.326
MS.98          	23.192         	7.328
MS.99          	23.145         	7.332
MS.100         	23.1           	7.313
MS.101         	23.055         	7.328
MS.102         	23.007         	7.328
MS.103         	22.962         	7.307
MS.104         	22.915         	7.311
MS.105         	22.87          	7.336
MS.106         	22.825         	7.348
MS.107         	22.78          	7.323
MS.108         	22.733         	7.36
MS.109         	22.688         	7.396
MS.110         	22.642         	7.446
MS.111         	22.597         	7.438
MS.112         	22.552         	7.479
MS.113         	22.507         	7.418
MS.114         	22.462         	7.342
MS.115         	22.417         	7.38
MS.116         	22.372         	7.384
MS.117         	22.327         	7.39
MS.118         	22.282         	7.4
MS.119         	22.237         	7.416
MS.120         	22.195         	7.45
MS.121         	22.15          	7.503
MS.122         	22.105         	7.509
MS.123         	22.062         	7.483
MS.124         	22.017         	7.517
MS.125         	21.972         	7.495
MS.126         	21.93          	7.509
MS.127         	21.885         	7.503
MS.128         	21.842         	7.493
MS.129         	21.797         	7.507
MS.130         	21.755         	7.501
MS.131         	21.712         	7.529
MS.132         	21.667         	7.531
MS.133         	21.625         	7.513
MS.134         	21.583         	7.525
MS.135         	21.538         	7.519
MS.136         	21.495         	7.517
MS.137         	21.452         	7.523
MS.138         	21.41          	7.519
MS.139         	21.368         	7.489
MS.140         	21.325         	7.541
MS.141         	21.282         	7.523
MS.142         	21.24          	7.515
MS.143         	21.198         	7.515
MS.144         	21.155         	7.446
MS.145         	21.112         	7.442
MS.146         	21.07          	7.473
MS.147         	21.028         	7.495
MS.148         	20.985         	7.503
MS.149         	20.942         	7.515
MS.150         	20.903         	7.523
MS.151         	20.86          	7.537
MS.152         	20.817         	7.569
MS.153         	20.778         	7.545
MS.154         	20.735         	7.519
MS.155         	20.695         	7.581
MS.156         	20.653         	7.607
MS.157         	20.61          	7.557
MS.158         	20.57          	7.539
MS.159         	20.53          	7.485
MS.160         	20.487         	7.446
MS.161         	20.448         	7.412
MS.162         	20.405         	7.489
MS.163         	20.365         	7.513
MS.164         	20.325         	7.547
MS.165         	20.285         	7.543
MS.166         	20.243         	7.551
MS.167         	20.202         	7.475
MS.168         	20.163         	7.456
MS.169         	20.122         	7.382
MS.170         	20.083         	7.501
MS.171         	20.042         	7.432
MS.172         	20.002         	7.317
MS.173         	19.962         	7.38
MS.174         	19.922         	7.392
MS.175         	19.882         	7.412
MS.176         	19.842         	7.366
MS.177         	19.802         	7.358
MS.178         	19.762         	7.384
MS.179         	19.725         	7.295
MS.180         	19.685         	7.374
MS.181         	19.645         	7.342
MS.182         	19.605         	7.245
MS.183         	19.567         	7.239
MS.184         	19.528         	7.354
MS.185         	19.487         	7.317
MS.186         	19.45          	7.273
MS.187         	19.41          	7.368
MS.188         	19.372         	7.255
MS.189         	19.333         	7.305
MS.190         	19.295         	7.285
MS.191         	19.255         	7.209
MS.192         	19.217         	7.195
MS.193         	19.18          	7.243
MS.194         	19.14          	7.259
MS.195         	19.102         	7.269
MS.196         	19.065         	7.209
MS.197         	19.028         	7.247
MS.198         	18.987         	7.164
MS.199         	18.95          	7.263
MS.200         	18.913         	7.225
MS.201         	18.875         	7.18
MS.202         	18.837         	7.122
MS.203         	18.8           	7.18
MS.204         	18.762         	7.247
MS.205         	18.725         	7.251
MS.206         	18.688         	7.199
MS.207         	18.65          	7.199
MS.208         	18.612         	7.233
MS.209         	18.575         	7.09
MS.210         	18.538         	7.174
MS.211         	18.5           	7.174
MS.212         	18.465         	7.156
MS.213         	18.427         	7.108
MS.214         	18.39          	7.076
MS.215         	18.352         	6.973
MS.216         	18.317         	7.12
MS.217         	18.28          	7.025
MS.218         	18.245         	7.076
MS.219         	18.208         	7.138
MS.220         	18.17          	7.029
MS.221         	18.135         	7.072
MS.222         	18.097         	7.094
MS.223         	18.062         	7.1
MS.224         	18.028         	7.195
MS.225         	17.99          	7.001
MS.226         	17.955         	6.965
MS.227         	17.917         	7.029
MS.228         	17.882         	6.933
MS.229         	17.847         	6.85
MS.230         	17.812         	7.009
MS.231         	17.775         	6.836
MS.232         	17.74          	6.973
MS.233         	17.705         	6.798
MS.234         	17.67          	6.82
MS.235         	17.635         	6.844
MS.236         	17.6           	6.967
MS.237         	17.562         	6.802
MS.238         	17.528         	6.697
MS.239         	17.493         	6.751
MS.240         	17.458         	6.52
MS.241         	17.422         	6.76
MS.242         	17.39          	6.617
MS.243         	17.355         	6.606
MS.244         	17.32          	6.564
MS.245         	17.285         	6.596
MS.246         	17.25          	6.59
MS.247         	17.215         	6.443
MS.248         	17.182         	6.447
MS.249         	17.147         	6.584
MS.250         	17.112         	6.689
MS.251         	17.077         	6.355
MS.252         	17.045         	6.31
MS.253         	17.01          	6.433
MS.254         	16.977         	6.32
MS.255         	16.942         	6.169
MS.256         	16.91          	6.345
MS.257         	16.875         	6.351
MS.258         	16.842         	6.367
MS.259         	16.807         	6.107
MS.260         	16.775         	6.171
MS.261         	16.74          	6.121
MS.262         	16.708         	6.212
MS.263         	16.672         	5.964
MS.264         	16.64          	6.115
MS.265         	16.608         	6.137
MS.266         	16.575         	5.98
MS.267         	16.54          	6.012
MS.268         	16.507         	6.044
MS.269         	16.475         	6.2
MS.270         	16.442         	6.026
MS.271         	16.41          	6.024
MS.272         	16.378         	6.129
MS.273         	16.342         	6.135
MS.274         	16.31          	5.895
MS.275         	16.278         	6.028
MS.276         	16.245         	5.91
MS.277         	16.212         	5.946
MS.278         	16.18          	6.105
MS.279         	16.147         	5.936
MS.280         	16.118         	5.952
MS.281         	16.085         	6.097
MS.282         	16.052         	6.202
MS.283         	16.02          	6.216
MS.284         	15.987         	6.23
MS.285         	15.955         	6.222
MS.286         	15.925         	6.01
MS.287         	15.892         	6.248
MS.288         	15.86          	6.022
MS.289         	15.83          	6.339
MS.290         	15.797         	6.065
MS.291         	15.765         	6.036
MS.292         	15.735         	6.282
MS.293         	15.702         	5.94
MS.294         	15.672         	6.053
MS.295         	15.64          	5.912
MS.296         	15.61          	6.073
MS.297         	15.577         	5.857
MS.298         	15.547         	5.428
MS.299         	15.515         	4.532
MS.300         	15.485         	4.353
MS.301         	15.452         	4.395
MS.302         	15.422         	4.193
MS.303         	15.392         	4.278
MS.304         	15.36          	4.312
MS.305         	15.33          	4.365
MS.306         	15.3           	4.618
MS.307         	15.27          	4.54
MS.308         	15.237         	4.657
MS.309         	15.207         	4.629
MS.310         	15.177         	4.939
MS.311         	15.148         	4.868
MS.312         	15.117         	5.142
MS.313         	15.087         	4.963
MS.314         	15.057         	4.792
MS.315         	15.027         	4.737
MS.316         	14.997         	4.568
MS.317         	14.967         	4.554
MS.318         	14.938         	4.58
MS.319         	14.907         	4.627
MS.320         	14.877         	4.187
MS.321         	14.847         	4.113
MS.322         	14.818         	3.871
MS.323         	14.787         	4.024
MS.324         	14.757         	3.658
MS.325         	14.73          	3.501
MS.326         	14.7           	3.482
MS.327         	14.67          	3.158
MS.328         	14.64          	3.448
MS.329         	14.612         	3.297
MS.330         	14.582         	3.178
MS.331         	14.552         	3.126
MS.332         	14.525         	3.43
MS.333         	14.495         	3.239
MS.334         	14.467         	3.152
MS.335         	14.438         	2.993
MS.336         	14.407         	2.876
MS.337         	14.38          	2.713
MS.338         	14.35          	2.455
MS.339         	14.322         	2.361
MS.340         	14.295         	2.304
MS.341         	14.265         	2.566
MS.342         	14.237         	2.481
MS.343         	14.207         	2.282
MS.344         	14.18          	2.21
MS.345         	14.153         	2.153
MS.346         	14.122         	2.286
MS.347         	14.095         	2.163
MS.348         	14.068         	2.357
MS.349         	14.04          	2.03
MS.350         	14.01          	2.129
MS.351         	13.983         	2.28
MS.352         	13.955         	2.272
MS.353         	13.927         	2.075
MS.354         	13.9           	2.359
MS.355         	13.872         	2.252
MS.356         	13.842         	2.165
MS.357         	13.815         	2.058
MS.358         	13.787         	1.94
MS.359         	13.76          	2.095
MS.360         	13.733         	2.004
MS.361         	13.705         	1.67
MS.362         	13.677         	2.113
MS.363         	13.653         	2.105
MS.364         	13.625         	2
MS.365         	13.597         	1.805
MS.366         	13.57          	1.827
MS.367         	13.542         	2.042
MS.368         	13.515         	1.851
MS.369         	13.487         	1.464
MS.370         	13.462         	1.428
MS.371         	13.435         	1.577
MS.372         	13.407         	1.349
MS.373         	13.38          	1.386
MS.374         	13.355         	1.374
MS.375         	13.327         	1.408
MS.376         	13.3           	1.287
MS.377         	13.275         	1.178
MS.378         	13.247         	1.335
MS.379         	13.222         	1.384
MS.380         	13.195         	1.374
MS.381         	13.167         	1.472
MS.382         	13.142         	1.267
MS.383         	13.115         	1.438
MS.384         	13.09          	1.12
MS.385         	13.062         	1.156
MS.386         	13.037         	1.249
MS.387         	13.012         	1.051
MS.388         	12.985         	1.025
MS.389         	12.96          	1.158
MS.390         	12.932         	1.086
MS.391         	12.907         	1.049
MS.392         	12.882         	1.13
MS.393         	12.858         	1.027
MS.394         	12.83          	1.031
MS.395         	12.805         	1.094
MS.396         	12.78          	0.985
MS.397         	12.755         	0.931
MS.398         	12.727         	0.965
MS.399         	12.702         	0.83
MS.400         	12.677         	0.904
MS.401         	12.653         	0.679
MS.402         	12.627         	0.713
MS.403         	12.602         	0.81
MS.404         	12.577         	0.788
MS.405         	12.552         	0.713
MS.406         	12.528         	0.85
MS.407         	12.502         	0.721
MS.408         	12.477         	0.56
MS.409         	12.452         	0.612
MS.410         	12.427         	0.709
MS.411         	12.403         	0.578
MS.412         	12.377         	0.574
MS.413         	12.352         	0.556
MS.414         	12.327         	0.592
MS.415         	12.302         	0.54
MS.416         	12.278         	0.497
MS.417         	12.255         	0.403
MS.418         	12.23          	0.504
MS.419         	12.205         	0.485
MS.420         	12.18          	0.554
MS.421         	12.155         	0.562
MS.422         	12.132         	0.377
MS.423         	12.108         	0.437
MS.424         	12.082         	0.348
MS.425         	12.06          	0.441
MS.426         	12.035         	0.387
MS.427         	12.01          	0.348
MS.428         	11.988         	0.294
MS.429         	11.962         	0.312
MS.430         	11.94          	0.377
MS.431         	11.915         	0.314
MS.432         	11.892         	0.173
MS.433         	11.867         	0.256
MS.434         	11.845         	0.334
MS.435         	11.82          	0.274
MS.436         	11.797         	0.173
MS.437         	11.773         	0.187
MS.438         	11.75          	0.228
MS.439         	11.727         	0.264
MS.440         	11.702         	0.187
MS.441         	11.68          	0.197
MS.442         	11.655         	0.127
MS.443         	11.632         	0.318
MS.444         	11.61          	0.189
MS.445         	11.587         	0.155
MS.446         	11.562         	0.181
MS.447         	11.54          	0.125
MS.448         	11.517         	0.127
MS.449         	11.495         	0.115
MS.450         	11.47          	0.149
MS.451         	11.447         	0.135
MS.452         	11.425         	0.135
MS.453         	11.403         	0.121
MS.454         	11.38          	0.133
MS.455         	11.358         	0.091
MS.456         	11.335         	0.097
MS.457         	11.312         	0.137
MS.458         	11.29          	0.157
MS.459         	11.267         	0.103
MS.460         	11.245         	0.085
MS.461         	11.222         	0.081
MS.462         	11.2           	0.103
MS.463         	11.177         	0.089
MS.464         	11.155         	0.107
MS.465         	11.132         	0.117
MS.466         	11.11          	0.085
MS.467         	11.087         	0.079
MS.468         	11.065         	0.139
MS.469         	11.042         	0.091
MS.470         	11.023         	0.081
MS.471         	11             	0.087
MS.472         	10.977         	0.095
MS.473         	10.955         	0.077
MS.474         	10.932         	0.085
MS.475         	10.912         	0.083
MS.476         	10.89          	0.101
MS.477         	10.867         	0.081
MS.478         	10.847         	0.075
MS.479         	10.825         	0.073
MS.480         	10.802         	0.077
MS.481         	10.782         	0.079
MS.482         	10.76          	0.077
MS.483         	10.738         	0.109
MS.484         	10.717         	0.06
MS.485         	10.695         	0.085
MS.486         	10.675         	0.073
MS.487         	10.653         	0.081
MS.488         	10.632         	0.079
MS.489         	10.61          	0.077
MS.490         	10.59          	0.087
MS.491         	10.568         	0.079
MS.492         	10.547         	0.081
MS.493         	10.525         	0.077
MS.494         	10.505         	0.068
MS.495         	10.485         	0.075
MS.496         	10.462         	0.085
MS.497         	10.443         	0.073
MS.498         	10.42          	0.089
MS.499         	10.4           	0.064
MS.500         	10.38          	0.081
MS.501         	10.36          	0.068
