File:              	C:\Qtrac\Data\Daniel M Sørensen\MScan multicentre study\Data from centres\Antalya\Processed data\TR.NC.ANT.6.2- NCC00930C.QZD
Name:              	TR.NC.ANT.6.2
Protocol:          	MSCAN-R2
Date:              	30/9/20
Start time:        	20:46:38
Age:               	27
Sex:               	m
Temperature:       	31.2
S/R sites:         	TA
NC/disease:        	NC
Operator:          	ab
Comments:
M-SCAN DATA (9.4-1m)
Scanpts: 8, 11, 866, 887
Stim. (mA)     	Amp. (mV)
MS.1           	31.5           	7.773
MS.2           	31.5           	7.761
MS.3           	31.5           	7.775
MS.4           	31.5           	7.75
MS.5           	31.5           	7.775
MS.6           	31.5           	7.777
MS.7           	31.5           	7.779
MS.8           	31.5           	7.785
MS.9           	31.5           	7.781
MS.10          	31.5           	7.775
MS.11          	31.5           	7.773
MS.12          	31.5           	7.769
MS.13          	31.5           	7.755
MS.14          	31.5           	7.757
MS.15          	31.5           	7.763
MS.16          	31.5           	7.755
MS.17          	31.5           	7.767
MS.18          	31.5           	7.769
MS.19          	31.5           	7.761
MS.20          	31.5           	7.732
MS.21          	31.5           	7.746
MS.22          	31.5           	7.755
MS.23          	31.5           	7.761
MS.24          	31.312         	7.603
MS.25          	31.25          	7.632
MS.26          	31.188         	7.714
MS.27          	31.125         	7.726
MS.28          	31.062         	7.732
MS.29          	31             	7.728
MS.30          	30.938         	7.73
MS.31          	30.875         	7.755
MS.32          	30.815         	7.724
MS.33          	30.752         	7.728
MS.34          	30.692         	7.71
MS.35          	30.63          	7.734
MS.36          	30.57          	7.726
MS.37          	30.507         	7.736
MS.38          	30.448         	7.704
MS.39          	30.385         	7.7
MS.40          	30.325         	7.738
MS.41          	30.265         	7.704
MS.42          	30.205         	7.718
MS.43          	30.145         	7.72
MS.44          	30.082         	7.734
MS.45          	30.022         	7.674
MS.46          	29.962         	7.648
MS.47          	29.903         	7.66
MS.48          	29.845         	7.704
MS.49          	29.785         	7.71
MS.50          	29.725         	7.694
MS.51          	29.665         	7.682
MS.52          	29.605         	7.698
MS.53          	29.547         	7.678
MS.54          	29.487         	7.65
MS.55          	29.43          	7.692
MS.56          	29.37          	7.634
MS.57          	29.312         	7.642
MS.58          	29.252         	7.632
MS.59          	29.195         	7.63
MS.60          	29.137         	7.616
MS.61          	29.077         	7.646
MS.62          	29.02          	7.638
MS.63          	28.962         	7.63
MS.64          	28.905         	7.622
MS.65          	28.847         	7.64
MS.66          	28.787         	7.63
MS.67          	28.73          	7.688
MS.68          	28.675         	7.618
MS.69          	28.618         	7.614
MS.70          	28.56          	7.626
MS.71          	28.502         	7.64
MS.72          	28.445         	7.605
MS.73          	28.387         	7.634
MS.74          	28.332         	7.622
MS.75          	28.275         	7.636
MS.76          	28.217         	7.601
MS.77          	28.162         	7.626
MS.78          	28.105         	7.579
MS.79          	28.05          	7.62
MS.80          	27.995         	7.62
MS.81          	27.938         	7.609
MS.82          	27.882         	7.571
MS.83          	27.827         	7.609
MS.84          	27.77          	7.595
MS.85          	27.715         	7.614
MS.86          	27.66          	7.583
MS.87          	27.605         	7.609
MS.88          	27.55          	7.593
MS.89          	27.495         	7.601
MS.90          	27.44          	7.587
MS.91          	27.385         	7.597
MS.92          	27.33          	7.585
MS.93          	27.275         	7.579
MS.94          	27.22          	7.601
MS.95          	27.167         	7.603
MS.96          	27.112         	7.607
MS.97          	27.057         	7.593
MS.98          	27.005         	7.563
MS.99          	26.95          	7.591
MS.100         	26.895         	7.581
MS.101         	26.842         	7.565
MS.102         	26.79          	7.595
MS.103         	26.735         	7.595
MS.104         	26.682         	7.569
MS.105         	26.627         	7.577
MS.106         	26.575         	7.559
MS.107         	26.522         	7.565
MS.108         	26.47          	7.557
MS.109         	26.417         	7.563
MS.110         	26.362         	7.553
MS.111         	26.31          	7.569
MS.112         	26.257         	7.573
MS.113         	26.205         	7.585
MS.114         	26.153         	7.587
MS.115         	26.102         	7.597
MS.116         	26.05          	7.559
MS.117         	25.997         	7.555
MS.118         	25.945         	7.533
MS.119         	25.892         	7.555
MS.120         	25.842         	7.581
MS.121         	25.79          	7.593
MS.122         	25.737         	7.515
MS.123         	25.688         	7.565
MS.124         	25.635         	7.507
MS.125         	25.585         	7.569
MS.126         	25.532         	7.529
MS.127         	25.483         	7.569
MS.128         	25.432         	7.555
MS.129         	25.38          	7.464
MS.130         	25.33          	7.487
MS.131         	25.28          	7.473
MS.132         	25.227         	7.442
MS.133         	25.177         	7.553
MS.134         	25.127         	7.442
MS.135         	25.077         	7.515
MS.136         	25.028         	7.408
MS.137         	24.977         	7.436
MS.138         	24.927         	7.43
MS.139         	24.877         	7.35
MS.140         	24.827         	7.416
MS.141         	24.778         	7.462
MS.142         	24.73          	7.39
MS.143         	24.68          	7.402
MS.144         	24.63          	7.344
MS.145         	24.58          	7.354
MS.146         	24.532         	7.301
MS.147         	24.483         	7.358
MS.148         	24.435         	7.34
MS.149         	24.385         	7.326
MS.150         	24.337         	7.235
MS.151         	24.288         	7.311
MS.152         	24.24          	7.132
MS.153         	24.19          	7.33
MS.154         	24.142         	7.249
MS.155         	24.095         	7.209
MS.156         	24.047         	7.231
MS.157         	23.997         	7.104
MS.158         	23.95          	7.15
MS.159         	23.903         	7.229
MS.160         	23.855         	7.124
MS.161         	23.807         	7.197
MS.162         	23.76          	7.098
MS.163         	23.712         	7.015
MS.164         	23.665         	7.048
MS.165         	23.618         	6.943
MS.166         	23.57          	7.172
MS.167         	23.522         	7.013
MS.168         	23.475         	7.09
MS.169         	23.43          	7.06
MS.170         	23.382         	7.044
MS.171         	23.335         	7.062
MS.172         	23.29          	7.112
MS.173         	23.243         	6.991
MS.174         	23.195         	6.907
MS.175         	23.15          	7.037
MS.176         	23.102         	6.913
MS.177         	23.057         	6.828
MS.178         	23.01          	6.88
MS.179         	22.965         	6.852
MS.180         	22.92          	6.822
MS.181         	22.872         	6.929
MS.182         	22.827         	6.844
MS.183         	22.782         	6.786
MS.184         	22.737         	6.874
MS.185         	22.692         	6.937
MS.186         	22.645         	6.884
MS.187         	22.6           	6.832
MS.188         	22.555         	6.755
MS.189         	22.51          	6.725
MS.190         	22.465         	6.749
MS.191         	22.42          	6.77
MS.192         	22.375         	6.719
MS.193         	22.33          	6.683
MS.194         	22.288         	6.745
MS.195         	22.243         	6.764
MS.196         	22.198         	6.753
MS.197         	22.153         	6.776
MS.198         	22.11          	6.691
MS.199         	22.065         	6.683
MS.200         	22.02          	6.494
MS.201         	21.977         	6.459
MS.202         	21.932         	6.476
MS.203         	21.89          	6.389
MS.204         	21.845         	6.381
MS.205         	21.802         	6.417
MS.206         	21.757         	6.419
MS.207         	21.715         	6.461
MS.208         	21.67          	6.381
MS.209         	21.627         	6.244
MS.210         	21.585         	6.238
MS.211         	21.542         	6.445
MS.212         	21.497         	6.224
MS.213         	21.455         	6.145
MS.214         	21.413         	6.232
MS.215         	21.37          	6.236
MS.216         	21.327         	6.061
MS.217         	21.285         	6.131
MS.218         	21.243         	6.083
MS.219         	21.2           	6.095
MS.220         	21.157         	6.014
MS.221         	21.115         	5.883
MS.222         	21.073         	6.049
MS.223         	21.03          	6.004
MS.224         	20.987         	5.932
MS.225         	20.948         	5.912
MS.226         	20.905         	5.835
MS.227         	20.862         	5.879
MS.228         	20.823         	5.801
MS.229         	20.78          	5.819
MS.230         	20.737         	5.821
MS.231         	20.698         	5.754
MS.232         	20.655         	5.827
MS.233         	20.615         	5.75
MS.234         	20.573         	5.656
MS.235         	20.532         	5.712
MS.236         	20.49          	5.644
MS.237         	20.45          	5.585
MS.238         	20.41          	5.656
MS.239         	20.368         	5.541
MS.240         	20.327         	5.521
MS.241         	20.288         	5.559
MS.242         	20.247         	5.617
MS.243         	20.205         	5.479
MS.244         	20.165         	5.521
MS.245         	20.125         	5.452
MS.246         	20.085         	5.414
MS.247         	20.045         	5.404
MS.248         	20.005         	5.456
MS.249         	19.965         	5.267
MS.250         	19.925         	5.37
MS.251         	19.885         	5.263
MS.252         	19.845         	5.247
MS.253         	19.805         	5.269
MS.254         	19.767         	5.195
MS.255         	19.727         	5.207
MS.256         	19.688         	5.197
MS.257         	19.647         	5.176
MS.258         	19.61          	5.1
MS.259         	19.57          	5.074
MS.260         	19.53          	5.033
MS.261         	19.493         	5.007
MS.262         	19.452         	5.005
MS.263         	19.415         	5.068
MS.264         	19.375         	4.868
MS.265         	19.337         	4.935
MS.266         	19.297         	4.965
MS.267         	19.26          	4.933
MS.268         	19.22          	4.822
MS.269         	19.182         	4.709
MS.270         	19.145         	4.786
MS.271         	19.105         	4.808
MS.272         	19.067         	4.755
MS.273         	19.03          	4.723
MS.274         	18.993         	4.659
MS.275         	18.952         	4.546
MS.276         	18.915         	4.546
MS.277         	18.877         	4.711
MS.278         	18.84          	4.548
MS.279         	18.802         	4.453
MS.280         	18.765         	4.568
MS.281         	18.727         	4.641
MS.282         	18.69          	4.441
MS.283         	18.653         	4.324
MS.284         	18.615         	4.409
MS.285         	18.577         	4.425
MS.286         	18.54          	4.218
MS.287         	18.505         	4.256
MS.288         	18.467         	4.314
MS.289         	18.43          	4.107
MS.290         	18.392         	4.103
MS.291         	18.358         	4.083
MS.292         	18.32          	4.145
MS.293         	18.282         	4.081
MS.294         	18.247         	4.145
MS.295         	18.21          	4.02
MS.296         	18.175         	3.996
MS.297         	18.137         	3.928
MS.298         	18.102         	3.938
MS.299         	18.065         	3.984
MS.300         	18.03          	3.877
MS.301         	17.993         	3.811
MS.302         	17.958         	3.807
MS.303         	17.92          	3.748
MS.304         	17.885         	3.811
MS.305         	17.85          	3.712
MS.306         	17.815         	3.724
MS.307         	17.778         	3.621
MS.308         	17.743         	3.652
MS.309         	17.708         	3.609
MS.310         	17.672         	3.565
MS.311         	17.637         	3.563
MS.312         	17.602         	3.543
MS.313         	17.567         	3.474
MS.314         	17.53          	3.404
MS.315         	17.495         	3.491
MS.316         	17.46          	3.43
MS.317         	17.427         	3.412
MS.318         	17.392         	3.388
MS.319         	17.358         	3.396
MS.320         	17.323         	3.261
MS.321         	17.288         	3.333
MS.322         	17.253         	3.325
MS.323         	17.217         	3.285
MS.324         	17.185         	3.273
MS.325         	17.15          	3.178
MS.326         	17.115         	3.136
MS.327         	17.083         	3.164
MS.328         	17.047         	3.13
MS.329         	17.012         	3.064
MS.330         	16.98          	3.055
MS.331         	16.945         	3.07
MS.332         	16.913         	3.062
MS.333         	16.878         	3.033
MS.334         	16.845         	3.039
MS.335         	16.81          	2.919
MS.336         	16.778         	2.884
MS.337         	16.743         	2.912
MS.338         	16.71          	2.894
MS.339         	16.675         	2.826
MS.340         	16.642         	2.864
MS.341         	16.61          	2.904
MS.342         	16.577         	2.794
MS.343         	16.542         	2.723
MS.344         	16.51          	2.78
MS.345         	16.477         	2.699
MS.346         	16.445         	2.606
MS.347         	16.413         	2.693
MS.348         	16.378         	2.606
MS.349         	16.345         	2.552
MS.350         	16.312         	2.566
MS.351         	16.28          	2.556
MS.352         	16.247         	2.496
MS.353         	16.215         	2.494
MS.354         	16.182         	2.467
MS.355         	16.15          	2.403
MS.356         	16.118         	2.467
MS.357         	16.087         	2.361
MS.358         	16.055         	2.349
MS.359         	16.022         	2.409
MS.360         	15.99          	2.246
MS.361         	15.957         	2.224
MS.362         	15.927         	2.272
MS.363         	15.895         	2.254
MS.364         	15.862         	2.169
MS.365         	15.83          	2.149
MS.366         	15.8           	2.175
MS.367         	15.767         	2.191
MS.368         	15.737         	2.153
MS.369         	15.705         	2.105
MS.370         	15.672         	2.062
MS.371         	15.642         	2.099
MS.372         	15.61          	1.952
MS.373         	15.58          	1.942
MS.374         	15.55          	1.915
MS.375         	15.517         	1.926
MS.376         	15.487         	1.913
MS.377         	15.455         	1.909
MS.378         	15.425         	1.843
MS.379         	15.395         	1.924
MS.380         	15.362         	1.869
MS.381         	15.332         	1.766
MS.382         	15.302         	1.897
MS.383         	15.273         	1.756
MS.384         	15.24          	1.754
MS.385         	15.21          	1.766
MS.386         	15.18          	1.752
MS.387         	15.15          	1.67
MS.388         	15.12          	1.644
MS.389         	15.09          	1.642
MS.390         	15.06          	1.603
MS.391         	15.03          	1.507
MS.392         	15             	1.478
MS.393         	14.97          	1.505
MS.394         	14.94          	1.505
MS.395         	14.91          	1.531
MS.396         	14.88          	1.436
MS.397         	14.85          	1.406
MS.398         	14.82          	1.468
MS.399         	14.79          	1.438
MS.400         	14.76          	1.384
MS.401         	14.733         	1.374
MS.402         	14.702         	1.299
MS.403         	14.672         	1.285
MS.404         	14.642         	1.213
MS.405         	14.615         	1.281
MS.406         	14.585         	1.329
MS.407         	14.555         	1.261
MS.408         	14.527         	1.261
MS.409         	14.497         	1.305
MS.410         	14.467         	1.217
MS.411         	14.44          	1.229
MS.412         	14.41          	1.229
MS.413         	14.382         	1.267
MS.414         	14.352         	1.219
MS.415         	14.325         	1.043
MS.416         	14.295         	1.12
MS.417         	14.267         	1.047
MS.418         	14.24          	1.096
MS.419         	14.21          	1.102
MS.420         	14.182         	1.076
MS.421         	14.155         	1.005
MS.422         	14.125         	1.059
MS.423         	14.097         	0.979
MS.424         	14.07          	1.092
MS.425         	14.04          	1.025
MS.426         	14.012         	1.061
MS.427         	13.985         	1.017
MS.428         	13.957         	1.035
MS.429         	13.93          	0.959
MS.430         	13.903         	0.957
MS.431         	13.872         	0.953
MS.432         	13.845         	0.898
MS.433         	13.818         	0.979
MS.434         	13.79          	0.868
MS.435         	13.762         	0.872
MS.436         	13.735         	0.92
MS.437         	13.707         	0.888
MS.438         	13.68          	0.927
MS.439         	13.653         	0.876
MS.440         	13.625         	0.884
MS.441         	13.6           	0.886
MS.442         	13.572         	0.91
MS.443         	13.545         	0.838
MS.444         	13.517         	0.858
MS.445         	13.49          	0.82
MS.446         	13.462         	0.89
MS.447         	13.438         	0.864
MS.448         	13.41          	0.804
MS.449         	13.382         	0.802
MS.450         	13.355         	0.836
MS.451         	13.33          	0.82
MS.452         	13.302         	0.832
MS.453         	13.278         	0.759
MS.454         	13.25          	0.786
MS.455         	13.222         	0.745
MS.456         	13.197         	0.792
MS.457         	13.17          	0.741
MS.458         	13.145         	0.767
MS.459         	13.117         	0.767
MS.460         	13.092         	0.755
MS.461         	13.065         	0.757
MS.462         	13.04          	0.651
MS.463         	13.012         	0.679
MS.464         	12.987         	0.612
MS.465         	12.962         	0.685
MS.466         	12.935         	0.586
MS.467         	12.91          	0.657
MS.468         	12.885         	0.663
MS.469         	12.858         	0.614
MS.470         	12.832         	0.546
MS.471         	12.807         	0.578
MS.472         	12.782         	0.58
MS.473         	12.755         	0.546
MS.474         	12.73          	0.538
MS.475         	12.705         	0.516
MS.476         	12.68          	0.572
MS.477         	12.655         	0.526
MS.478         	12.63          	0.544
MS.479         	12.602         	0.497
MS.480         	12.577         	0.483
MS.481         	12.552         	0.487
MS.482         	12.528         	0.506
MS.483         	12.502         	0.471
MS.484         	12.477         	0.497
MS.485         	12.452         	0.469
MS.486         	12.427         	0.443
MS.487         	12.403         	0.451
MS.488         	12.38          	0.421
MS.489         	12.355         	0.429
MS.490         	12.33          	0.395
MS.491         	12.305         	0.415
MS.492         	12.28          	0.395
MS.493         	12.255         	0.377
MS.494         	12.23          	0.385
MS.495         	12.207         	0.383
MS.496         	12.182         	0.373
MS.497         	12.157         	0.357
MS.498         	12.132         	0.359
MS.499         	12.11          	0.344
MS.500         	12.085         	0.352
MS.501         	12.06          	0.34
