File:              	C:\Qtrac\Data\Daniel M Sørensen\MScan multicentre study\Data from centres\Antalya\Processed data\TR.NC.ANT.9.1- NCC01201B.QZD
Name:              	TR.NC.ANT.9.1
Protocol:          	MSCAN-R2
Date:              	1/12/20
Start time:        	18:46:07
Age:               	49
Sex:               	f
Temperature:       	30
S/R sites:         	TA
NC/disease:        	NC
Operator:          	ab
Comments:
M-SCAN DATA (10-2.1m)
Scanpts: 240, 254, 818, 839
Stim. (mA)     	Amp. (mV)
MS.1           	18             	6.88
MS.2           	18             	6.88
MS.3           	18             	6.903
MS.4           	18             	6.878
MS.5           	18             	6.896
MS.6           	18             	6.901
MS.7           	18             	6.913
MS.8           	18             	6.921
MS.9           	18             	6.923
MS.10          	18             	6.913
MS.11          	18             	6.925
MS.12          	18             	6.941
MS.13          	18             	6.955
MS.14          	18             	6.939
MS.15          	18             	6.929
MS.16          	18             	6.935
MS.17          	18             	6.955
MS.18          	18             	6.959
MS.19          	18             	6.961
MS.20          	18             	6.975
MS.21          	18             	6.977
MS.22          	18             	6.977
MS.23          	18             	6.991
MS.24          	17.892         	6.925
MS.25          	17.858         	6.911
MS.26          	17.82          	6.921
MS.27          	17.785         	6.937
MS.28          	17.75          	6.947
MS.29          	17.715         	6.953
MS.30          	17.68          	6.945
MS.31          	17.642         	6.947
MS.32          	17.608         	6.953
MS.33          	17.573         	6.949
MS.34          	17.538         	6.949
MS.35          	17.503         	6.953
MS.36          	17.467         	6.961
MS.37          	17.432         	6.961
MS.38          	17.397         	6.907
MS.39          	17.362         	6.931
MS.40          	17.33          	6.911
MS.41          	17.295         	6.931
MS.42          	17.26          	6.981
MS.43          	17.225         	6.959
MS.44          	17.19          	6.969
MS.45          	17.157         	6.989
MS.46          	17.122         	7.001
MS.47          	17.087         	7.003
MS.48          	17.052         	6.985
MS.49          	17.02          	7.019
MS.50          	16.985         	7.023
MS.51          	16.952         	7.029
MS.52          	16.917         	7.009
MS.53          	16.885         	7.017
MS.54          	16.85          	7.046
MS.55          	16.817         	7.029
MS.56          	16.782         	7.039
MS.57          	16.75          	7.015
MS.58          	16.715         	7.003
MS.59          	16.682         	7.023
MS.60          	16.65          	7.054
MS.61          	16.615         	7.044
MS.62          	16.583         	7.054
MS.63          	16.55          	7.052
MS.64          	16.517         	7.05
MS.65          	16.483         	7.062
MS.66          	16.45          	7.039
MS.67          	16.417         	7.052
MS.68          	16.385         	7.05
MS.69          	16.352         	7.068
MS.70          	16.32          	7.076
MS.71          	16.288         	7.06
MS.72          	16.255         	7.072
MS.73          	16.222         	7.074
MS.74          	16.19          	7.054
MS.75          	16.157         	7.074
MS.76          	16.125         	7.078
MS.77          	16.092         	7.07
MS.78          	16.06          	7.094
MS.79          	16.028         	7.108
MS.80          	15.997         	7.096
MS.81          	15.965         	7.108
MS.82          	15.932         	7.15
MS.83          	15.9           	7.134
MS.84          	15.87          	7.108
MS.85          	15.837         	7.108
MS.86          	15.805         	7.124
MS.87          	15.775         	7.108
MS.88          	15.742         	7.108
MS.89          	15.71          	7.128
MS.90          	15.68          	7.122
MS.91          	15.648         	7.13
MS.92          	15.617         	7.12
MS.93          	15.585         	7.13
MS.94          	15.555         	7.16
MS.95          	15.523         	7.148
MS.96          	15.492         	7.144
MS.97          	15.462         	7.134
MS.98          	15.43          	7.144
MS.99          	15.4           	7.146
MS.100         	15.37          	7.134
MS.101         	15.337         	7.122
MS.102         	15.307         	7.146
MS.103         	15.277         	7.104
MS.104         	15.247         	7.128
MS.105         	15.217         	7.126
MS.106         	15.185         	7.138
MS.107         	15.155         	7.114
MS.108         	15.125         	7.12
MS.109         	15.095         	7.112
MS.110         	15.065         	7.1
MS.111         	15.035         	7.078
MS.112         	15.005         	7.09
MS.113         	14.975         	7.092
MS.114         	14.945         	7.102
MS.115         	14.915         	7.1
MS.116         	14.885         	7.108
MS.117         	14.855         	7.092
MS.118         	14.825         	7.102
MS.119         	14.795         	7.12
MS.120         	14.767         	7.132
MS.121         	14.737         	7.116
MS.122         	14.707         	7.118
MS.123         	14.677         	7.118
MS.124         	14.65          	7.122
MS.125         	14.62          	7.12
MS.126         	14.59          	7.12
MS.127         	14.562         	7.148
MS.128         	14.532         	7.124
MS.129         	14.502         	7.118
MS.130         	14.475         	7.128
MS.131         	14.445         	7.132
MS.132         	14.417         	7.14
MS.133         	14.387         	7.118
MS.134         	14.36          	7.132
MS.135         	14.33          	7.164
MS.136         	14.302         	7.158
MS.137         	14.273         	7.144
MS.138         	14.245         	7.148
MS.139         	14.215         	7.144
MS.140         	14.188         	7.148
MS.141         	14.16          	7.144
MS.142         	14.13          	7.154
MS.143         	14.102         	7.187
MS.144         	14.075         	7.178
MS.145         	14.047         	7.174
MS.146         	14.017         	7.164
MS.147         	13.99          	7.156
MS.148         	13.962         	7.158
MS.149         	13.935         	7.162
MS.150         	13.907         	7.154
MS.151         	13.88          	7.17
MS.152         	13.85          	7.17
MS.153         	13.822         	7.16
MS.154         	13.795         	7.156
MS.155         	13.767         	7.174
MS.156         	13.74          	7.162
MS.157         	13.712         	7.158
MS.158         	13.685         	7.162
MS.159         	13.657         	7.162
MS.160         	13.632         	7.164
MS.161         	13.605         	7.16
MS.162         	13.577         	7.182
MS.163         	13.55          	7.178
MS.164         	13.523         	7.174
MS.165         	13.495         	7.18
MS.166         	13.467         	7.187
MS.167         	13.443         	7.185
MS.168         	13.415         	7.185
MS.169         	13.387         	7.207
MS.170         	13.362         	7.205
MS.171         	13.335         	7.205
MS.172         	13.307         	7.205
MS.173         	13.282         	7.219
MS.174         	13.255         	7.225
MS.175         	13.227         	7.229
MS.176         	13.202         	7.219
MS.177         	13.175         	7.221
MS.178         	13.15          	7.213
MS.179         	13.122         	7.235
MS.180         	13.097         	7.223
MS.181         	13.07          	7.219
MS.182         	13.045         	7.233
MS.183         	13.017         	7.225
MS.184         	12.992         	7.233
MS.185         	12.967         	7.221
MS.186         	12.94          	7.233
MS.187         	12.915         	7.229
MS.188         	12.89          	7.231
MS.189         	12.862         	7.229
MS.190         	12.837         	7.227
MS.191         	12.812         	7.229
MS.192         	12.785         	7.225
MS.193         	12.76          	7.239
MS.194         	12.735         	7.233
MS.195         	12.71          	7.229
MS.196         	12.685         	7.231
MS.197         	12.66          	7.231
MS.198         	12.632         	7.251
MS.199         	12.608         	7.233
MS.200         	12.582         	7.231
MS.201         	12.557         	7.243
MS.202         	12.532         	7.245
MS.203         	12.507         	7.235
MS.204         	12.483         	7.237
MS.205         	12.457         	7.241
MS.206         	12.432         	7.247
MS.207         	12.407         	7.245
MS.208         	12.382         	7.235
MS.209         	12.36          	7.249
MS.210         	12.335         	7.235
MS.211         	12.31          	7.259
MS.212         	12.285         	7.255
MS.213         	12.26          	7.245
MS.214         	12.235         	7.251
MS.215         	12.212         	7.243
MS.216         	12.188         	7.239
MS.217         	12.162         	7.245
MS.218         	12.137         	7.241
MS.219         	12.115         	7.233
MS.220         	12.09          	7.239
MS.221         	12.065         	7.251
MS.222         	12.042         	7.249
MS.223         	12.017         	7.245
MS.224         	11.992         	7.233
MS.225         	11.97          	7.247
MS.226         	11.945         	7.239
MS.227         	11.922         	7.245
MS.228         	11.898         	7.249
MS.229         	11.875         	7.237
MS.230         	11.85          	7.245
MS.231         	11.827         	7.235
MS.232         	11.802         	7.225
MS.233         	11.78          	7.235
MS.234         	11.755         	7.235
MS.235         	11.733         	7.241
MS.236         	11.71          	7.237
MS.237         	11.685         	7.245
MS.238         	11.662         	7.245
MS.239         	11.64          	7.241
MS.240         	11.615         	7.251
MS.241         	11.592         	7.237
MS.242         	11.57          	7.233
MS.243         	11.547         	7.247
MS.244         	11.523         	7.245
MS.245         	11.5           	7.241
MS.246         	11.477         	7.235
MS.247         	11.455         	7.255
MS.248         	11.432         	7.257
MS.249         	11.407         	7.233
MS.250         	11.385         	7.223
MS.251         	11.363         	7.231
MS.252         	11.34          	7.239
MS.253         	11.318         	7.235
MS.254         	11.295         	7.235
MS.255         	11.273         	7.239
MS.256         	11.25          	7.241
MS.257         	11.227         	7.235
MS.258         	11.205         	7.269
MS.259         	11.182         	7.265
MS.260         	11.16          	7.245
MS.261         	11.137         	7.251
MS.262         	11.115         	7.225
MS.263         	11.092         	7.215
MS.264         	11.073         	7.225
MS.265         	11.05          	7.219
MS.266         	11.028         	7.229
MS.267         	11.005         	7.243
MS.268         	10.983         	7.227
MS.269         	10.962         	7.221
MS.270         	10.94          	7.211
MS.271         	10.917         	7.207
MS.272         	10.895         	7.207
MS.273         	10.875         	7.178
MS.274         	10.852         	7.217
MS.275         	10.83          	7.217
MS.276         	10.81          	7.213
MS.277         	10.787         	7.128
MS.278         	10.765         	7.166
MS.279         	10.745         	7.233
MS.280         	10.722         	7.203
MS.281         	10.702         	7.132
MS.282         	10.68          	7.178
MS.283         	10.657         	7.201
MS.284         	10.637         	7.18
MS.285         	10.615         	7.193
MS.286         	10.595         	7.142
MS.287         	10.573         	7.112
MS.288         	10.552         	7.174
MS.289         	10.532         	7.122
MS.290         	10.51          	7.156
MS.291         	10.49          	7.154
MS.292         	10.467         	7.122
MS.293         	10.448         	7.189
MS.294         	10.427         	7.174
MS.295         	10.405         	7.152
MS.296         	10.385         	7.164
MS.297         	10.365         	7.06
MS.298         	10.342         	7.178
MS.299         	10.323         	7.068
MS.300         	10.302         	7.088
MS.301         	10.282         	7.062
MS.302         	10.26          	7.068
MS.303         	10.24          	7.074
MS.304         	10.22          	7.044
MS.305         	10.2           	7.062
MS.306         	10.18          	7.062
MS.307         	10.16          	7.07
MS.308         	10.14          	7.086
MS.309         	10.117         	7.05
MS.310         	10.097         	7.056
MS.311         	10.077         	7.074
MS.312         	10.057         	7.044
MS.313         	10.037         	7.027
MS.314         	10.017         	6.985
MS.315         	9.997          	6.971
MS.316         	9.977          	6.985
MS.317         	9.957          	7.037
MS.318         	9.938          	7.019
MS.319         	9.917          	6.985
MS.320         	9.898          	6.967
MS.321         	9.877          	6.969
MS.322         	9.86           	6.977
MS.323         	9.84           	6.991
MS.324         	9.82           	6.973
MS.325         	9.8            	6.981
MS.326         	9.78           	6.955
MS.327         	9.76           	6.953
MS.328         	9.74           	6.951
MS.329         	9.722          	6.933
MS.330         	9.702          	6.943
MS.331         	9.682          	6.939
MS.332         	9.662          	6.943
MS.333         	9.645          	6.901
MS.334         	9.625          	6.947
MS.335         	9.605          	6.935
MS.336         	9.587          	6.941
MS.337         	9.568          	6.872
MS.338         	9.547          	6.848
MS.339         	9.53           	6.905
MS.340         	9.51           	6.888
MS.341         	9.49           	6.826
MS.342         	9.472          	6.832
MS.343         	9.452          	6.882
MS.344         	9.435          	6.886
MS.345         	9.415          	6.838
MS.346         	9.398          	6.812
MS.347         	9.377          	6.806
MS.348         	9.36           	6.786
MS.349         	9.34           	6.856
MS.350         	9.323          	6.794
MS.351         	9.302          	6.774
MS.352         	9.285          	6.778
MS.353         	9.265          	6.78
MS.354         	9.247          	6.766
MS.355         	9.23           	6.713
MS.356         	9.21           	6.711
MS.357         	9.193          	6.772
MS.358         	9.175          	6.717
MS.359         	9.155          	6.77
MS.360         	9.137          	6.699
MS.361         	9.12           	6.703
MS.362         	9.1            	6.699
MS.363         	9.082          	6.617
MS.364         	9.065          	6.667
MS.365         	9.047          	6.625
MS.366         	9.028          	6.518
MS.367         	9.01           	6.58
MS.368         	8.992          	6.653
MS.369         	8.975          	6.58
MS.370         	8.957          	6.524
MS.371         	8.938          	6.447
MS.372         	8.92           	6.492
MS.373         	8.903          	6.54
MS.374         	8.885          	6.445
MS.375         	8.867          	6.399
MS.376         	8.85           	6.318
MS.377         	8.832          	6.453
MS.378         	8.815          	6.429
MS.379         	8.797          	6.272
MS.380         	8.78           	6.439
MS.381         	8.762          	6.276
MS.382         	8.745          	6.224
MS.383         	8.727          	6.232
MS.384         	8.71           	6.266
MS.385         	8.693          	6.294
MS.386         	8.675          	6.208
MS.387         	8.658          	6.302
MS.388         	8.64           	6.206
MS.389         	8.622          	6.185
MS.390         	8.605          	6.206
MS.391         	8.587          	6.185
MS.392         	8.57           	6.163
MS.393         	8.552          	6.071
MS.394         	8.537          	6.147
MS.395         	8.52           	6.135
MS.396         	8.502          	6.143
MS.397         	8.485          	6.198
MS.398         	8.467          	6.002
MS.399         	8.452          	6.139
MS.400         	8.435          	5.992
MS.401         	8.417          	6.121
MS.402         	8.4            	5.972
MS.403         	8.385          	6.067
MS.404         	8.367          	5.968
MS.405         	8.35           	6.024
MS.406         	8.335          	5.897
MS.407         	8.318          	5.918
MS.408         	8.3            	5.968
MS.409         	8.285          	5.912
MS.410         	8.267          	5.881
MS.411         	8.252          	5.841
MS.412         	8.235          	5.887
MS.413         	8.217          	5.801
MS.414         	8.202          	5.817
MS.415         	8.185          	5.841
MS.416         	8.17           	5.789
MS.417         	8.153          	5.767
MS.418         	8.137          	5.783
MS.419         	8.12           	5.678
MS.420         	8.105          	5.676
MS.421         	8.087          	5.73
MS.422         	8.073          	5.748
MS.423         	8.055          	5.587
MS.424         	8.04           	5.648
MS.425         	8.023          	5.712
MS.426         	8.007          	5.664
MS.427         	7.992          	5.638
MS.428         	7.975          	5.63
MS.429         	7.96           	5.489
MS.430         	7.942          	5.47
MS.431         	7.927          	5.529
MS.432         	7.912          	5.493
MS.433         	7.895          	5.493
MS.434         	7.88           	5.452
MS.435         	7.865          	5.46
MS.436         	7.85           	5.303
MS.437         	7.832          	5.336
MS.438         	7.817          	5.309
MS.439         	7.802          	5.329
MS.440         	7.787          	5.342
MS.441         	7.77           	5.255
MS.442         	7.755          	5.305
MS.443         	7.74           	5.227
MS.444         	7.725          	5.116
MS.445         	7.71           	5.114
MS.446         	7.692          	4.999
MS.447         	7.677          	5.104
MS.448         	7.662          	4.902
MS.449         	7.648          	4.989
MS.450         	7.632          	4.961
MS.451         	7.617          	4.858
MS.452         	7.602          	4.826
MS.453         	7.587          	4.786
MS.454         	7.572          	4.816
MS.455         	7.555          	4.796
MS.456         	7.54           	4.711
MS.457         	7.525          	4.707
MS.458         	7.51           	4.711
MS.459         	7.495          	4.671
MS.460         	7.48           	4.568
MS.461         	7.465          	4.546
MS.462         	7.45           	4.586
MS.463         	7.438          	4.631
MS.464         	7.422          	4.58
MS.465         	7.407          	4.568
MS.466         	7.392          	4.564
MS.467         	7.378          	4.544
MS.468         	7.362          	4.471
MS.469         	7.347          	4.451
MS.470         	7.332          	4.463
MS.471         	7.317          	4.435
MS.472         	7.302          	4.399
MS.473         	7.29           	4.395
MS.474         	7.275          	4.365
MS.475         	7.26           	4.278
MS.476         	7.245          	4.308
MS.477         	7.23           	4.284
MS.478         	7.217          	4.185
MS.479         	7.202          	4.3
MS.480         	7.188          	4.198
MS.481         	7.172          	4.153
MS.482         	7.16           	4.151
MS.483         	7.145          	4.195
MS.484         	7.13           	4.195
MS.485         	7.115          	4.109
MS.486         	7.102          	4.105
MS.487         	7.087          	4.099
MS.488         	7.072          	3.914
MS.489         	7.06           	4.065
MS.490         	7.045          	4.04
MS.491         	7.032          	3.92
MS.492         	7.017          	3.807
MS.493         	7.003          	3.895
MS.494         	6.99           	3.911
MS.495         	6.975          	3.843
MS.496         	6.962          	3.764
MS.497         	6.947          	3.771
MS.498         	6.932          	3.672
MS.499         	6.92           	3.811
MS.500         	6.905          	3.623
MS.501         	6.892          	3.773
