File:              	C:\Qtrac\Data\Daniel M Sørensen\MScan multicentre study\Data from centres\Antalya\Processed data\TR.NC.ANT.5.2- NCC00623B.QZD
Name:              	TR.NC.ANT.5.2
Protocol:          	MSCAN-R2
Date:              	23/6/20
Start time:        	19:20:10
Age:               	63
Sex:               	m
Temperature:       	33.9
S/R sites:         	APB
NC/disease:        	NC
Operator:          	ab
Comments:
M-SCAN DATA (7.3-0.7m)
Scanpts: 354, 359, 685, 706
Stim. (mA)     	Amp. (mV)
MS.1           	16.5           	8.314
MS.2           	16.5           	8.345
MS.3           	16.5           	8.335
MS.4           	16.5           	8.292
MS.5           	16.5           	8.274
MS.6           	16.5           	8.276
MS.7           	16.5           	8.274
MS.8           	16.5           	8.246
MS.9           	16.5           	8.246
MS.10          	16.5           	8.228
MS.11          	16.5           	8.228
MS.12          	16.5           	8.224
MS.13          	16.5           	8.256
MS.14          	16.5           	8.234
MS.15          	16.5           	8.212
MS.16          	16.5           	8.232
MS.17          	16.5           	8.232
MS.18          	16.5           	8.238
MS.19          	16.5           	8.21
MS.20          	16.5           	8.2
MS.21          	16.5           	8.222
MS.22          	16.5           	8.216
MS.23          	16.435         	8.234
MS.24          	16.4           	8.24
MS.25          	16.368         	8.234
MS.26          	16.335         	8.25
MS.27          	16.302         	8.27
MS.28          	16.27          	8.262
MS.29          	16.237         	8.268
MS.30          	16.205         	8.264
MS.31          	16.172         	8.27
MS.32          	16.14          	8.272
MS.33          	16.108         	8.264
MS.34          	16.077         	8.258
MS.35          	16.045         	8.256
MS.36          	16.012         	8.282
MS.37          	15.98          	8.274
MS.38          	15.947         	8.266
MS.39          	15.917         	8.28
MS.40          	15.885         	8.278
MS.41          	15.852         	8.274
MS.42          	15.822         	8.27
MS.43          	15.79          	8.282
MS.44          	15.757         	8.28
MS.45          	15.727         	8.29
MS.46          	15.695         	8.282
MS.47          	15.665         	8.282
MS.48          	15.632         	8.28
MS.49          	15.602         	8.282
MS.50          	15.57          	8.314
MS.51          	15.54          	8.333
MS.52          	15.507         	8.339
MS.53          	15.477         	8.347
MS.54          	15.445         	8.337
MS.55          	15.415         	8.341
MS.56          	15.385         	8.341
MS.57          	15.352         	8.335
MS.58          	15.322         	8.339
MS.59          	15.292         	8.339
MS.60          	15.262         	8.353
MS.61          	15.233         	8.351
MS.62          	15.2           	8.341
MS.63          	15.17          	8.31
MS.64          	15.14          	8.302
MS.65          	15.11          	8.288
MS.66          	15.08          	8.292
MS.67          	15.05          	8.282
MS.68          	15.02          	8.294
MS.69          	14.99          	8.282
MS.70          	14.96          	8.272
MS.71          	14.93          	8.292
MS.72          	14.9           	8.276
MS.73          	14.87          	8.28
MS.74          	14.84          	8.272
MS.75          	14.81          	8.276
MS.76          	14.78          	8.278
MS.77          	14.752         	8.28
MS.78          	14.722         	8.282
MS.79          	14.693         	8.276
MS.80          	14.662         	8.258
MS.81          	14.635         	8.278
MS.82          	14.605         	8.276
MS.83          	14.575         	8.284
MS.84          	14.547         	8.288
MS.85          	14.517         	8.266
MS.86          	14.487         	8.266
MS.87          	14.46          	8.254
MS.88          	14.43          	8.278
MS.89          	14.403         	8.27
MS.90          	14.372         	8.274
MS.91          	14.345         	8.256
MS.92          	14.315         	8.266
MS.93          	14.287         	8.266
MS.94          	14.257         	8.274
MS.95          	14.23          	8.286
MS.96          	14.202         	8.282
MS.97          	14.172         	8.278
MS.98          	14.145         	8.274
MS.99          	14.117         	8.282
MS.100         	14.087         	8.278
MS.101         	14.06          	8.278
MS.102         	14.032         	8.288
MS.103         	14.005         	8.266
MS.104         	13.975         	8.28
MS.105         	13.947         	8.28
MS.106         	13.92          	8.262
MS.107         	13.892         	8.284
MS.108         	13.865         	8.282
MS.109         	13.837         	8.288
MS.110         	13.81          	8.28
MS.111         	13.782         	8.266
MS.112         	13.755         	8.258
MS.113         	13.727         	8.252
MS.114         	13.7           	8.264
MS.115         	13.672         	8.262
MS.116         	13.645         	8.3
MS.117         	13.617         	8.302
MS.118         	13.59          	8.29
MS.119         	13.562         	8.294
MS.120         	13.535         	8.29
MS.121         	13.51          	8.294
MS.122         	13.483         	8.298
MS.123         	13.455         	8.3
MS.124         	13.427         	8.306
MS.125         	13.403         	8.288
MS.126         	13.375         	8.292
MS.127         	13.347         	8.318
MS.128         	13.32          	8.32
MS.129         	13.295         	8.335
MS.130         	13.267         	8.335
MS.131         	13.242         	8.337
MS.132         	13.215         	8.329
MS.133         	13.188         	8.345
MS.134         	13.162         	8.339
MS.135         	13.135         	8.325
MS.136         	13.11          	8.316
MS.137         	13.082         	8.294
MS.138         	13.057         	8.316
MS.139         	13.032         	8.306
MS.140         	13.005         	8.308
MS.141         	12.98          	8.355
MS.142         	12.952         	8.341
MS.143         	12.927         	8.347
MS.144         	12.903         	8.329
MS.145         	12.875         	8.343
MS.146         	12.85          	8.339
MS.147         	12.825         	8.331
MS.148         	12.8           	8.318
MS.149         	12.773         	8.316
MS.150         	12.747         	8.331
MS.151         	12.722         	8.331
MS.152         	12.697         	8.331
MS.153         	12.672         	8.331
MS.154         	12.645         	8.341
MS.155         	12.62          	8.345
MS.156         	12.595         	8.335
MS.157         	12.57          	8.331
MS.158         	12.545         	8.335
MS.159         	12.52          	8.337
MS.160         	12.495         	8.333
MS.161         	12.47          	8.333
MS.162         	12.445         	8.335
MS.163         	12.42          	8.339
MS.164         	12.395         	8.353
MS.165         	12.37          	8.359
MS.166         	12.347         	8.363
MS.167         	12.322         	8.367
MS.168         	12.297         	8.377
MS.169         	12.273         	8.401
MS.170         	12.247         	8.383
MS.171         	12.222         	8.373
MS.172         	12.2           	8.373
MS.173         	12.175         	8.381
MS.174         	12.15          	8.381
MS.175         	12.125         	8.391
MS.176         	12.102         	8.381
MS.177         	12.077         	8.381
MS.178         	12.052         	8.385
MS.179         	12.03          	8.387
MS.180         	12.005         	8.385
MS.181         	11.983         	8.379
MS.182         	11.957         	8.373
MS.183         	11.932         	8.383
MS.184         	11.91          	8.379
MS.185         	11.885         	8.387
MS.186         	11.863         	8.383
MS.187         	11.837         	8.393
MS.188         	11.815         	8.383
MS.189         	11.79          	8.385
MS.190         	11.767         	8.389
MS.191         	11.745         	8.389
MS.192         	11.72          	8.401
MS.193         	11.697         	8.391
MS.194         	11.675         	8.373
MS.195         	11.65          	8.381
MS.196         	11.627         	8.377
MS.197         	11.605         	8.373
MS.198         	11.58          	8.377
MS.199         	11.557         	8.357
MS.200         	11.535         	8.363
MS.201         	11.512         	8.365
MS.202         	11.488         	8.375
MS.203         	11.465         	8.377
MS.204         	11.443         	8.377
MS.205         	11.42          	8.381
MS.206         	11.398         	8.391
MS.207         	11.375         	8.399
MS.208         	11.352         	8.405
MS.209         	11.33          	8.409
MS.210         	11.307         	8.391
MS.211         	11.282         	8.405
MS.212         	11.26          	8.407
MS.213         	11.238         	8.403
MS.214         	11.215         	8.405
MS.215         	11.195         	8.387
MS.216         	11.172         	8.389
MS.217         	11.15          	8.397
MS.218         	11.127         	8.387
MS.219         	11.105         	8.405
MS.220         	11.082         	8.401
MS.221         	11.06          	8.407
MS.222         	11.037         	8.397
MS.223         	11.015         	8.411
MS.224         	10.995         	8.405
MS.225         	10.972         	8.429
MS.226         	10.95          	8.433
MS.227         	10.927         	8.433
MS.228         	10.907         	8.421
MS.229         	10.885         	8.421
MS.230         	10.863         	8.423
MS.231         	10.84          	8.407
MS.232         	10.82          	8.407
MS.233         	10.797         	8.405
MS.234         	10.778         	8.407
MS.235         	10.755         	8.397
MS.236         	10.733         	8.423
MS.237         	10.712         	8.411
MS.238         	10.69          	8.419
MS.239         	10.67          	8.385
MS.240         	10.648         	8.373
MS.241         	10.627         	8.383
MS.242         	10.605         	8.367
MS.243         	10.585         	8.371
MS.244         	10.562         	8.365
MS.245         	10.542         	8.367
MS.246         	10.52          	8.389
MS.247         	10.5           	8.401
MS.248         	10.48          	8.415
MS.249         	10.457         	8.415
MS.250         	10.438         	8.405
MS.251         	10.415         	8.417
MS.252         	10.395         	8.421
MS.253         	10.375         	8.411
MS.254         	10.355         	8.405
MS.255         	10.332         	8.403
MS.256         	10.312         	8.387
MS.257         	10.292         	8.389
MS.258         	10.273         	8.401
MS.259         	10.25          	8.417
MS.260         	10.23          	8.405
MS.261         	10.21          	8.397
MS.262         	10.19          	8.403
MS.263         	10.17          	8.407
MS.264         	10.15          	8.399
MS.265         	10.127         	8.397
MS.266         	10.108         	8.409
MS.267         	10.087         	8.413
MS.268         	10.068         	8.399
MS.269         	10.047         	8.401
MS.270         	10.028         	8.445
MS.271         	10.007         	8.431
MS.272         	9.988          	8.439
MS.273         	9.967          	8.437
MS.274         	9.948          	8.453
MS.275         	9.927          	8.449
MS.276         	9.907          	8.441
MS.277         	9.887          	8.455
MS.278         	9.867          	8.47
MS.279         	9.85           	8.455
MS.280         	9.83           	8.464
MS.281         	9.81           	8.474
MS.282         	9.79           	8.466
MS.283         	9.77           	8.486
MS.284         	9.75           	8.482
MS.285         	9.733          	8.482
MS.286         	9.712          	8.474
MS.287         	9.693          	8.474
MS.288         	9.672          	8.476
MS.289         	9.655          	8.474
MS.290         	9.635          	8.472
MS.291         	9.615          	8.447
MS.292         	9.595          	8.47
MS.293         	9.577          	8.447
MS.294         	9.557          	8.443
MS.295         	9.537          	8.455
MS.296         	9.52           	8.427
MS.297         	9.5            	8.431
MS.298         	9.483          	8.437
MS.299         	9.462          	8.453
MS.300         	9.445          	8.433
MS.301         	9.425          	8.496
MS.302         	9.405          	8.429
MS.303         	9.387          	8.425
MS.304         	9.367          	8.468
MS.305         	9.35           	8.522
MS.306         	9.33           	8.512
MS.307         	9.312          	8.524
MS.308         	9.295          	8.54
MS.309         	9.275          	8.457
MS.310         	9.257          	8.552
MS.311         	9.238          	8.514
MS.312         	9.22           	8.516
MS.313         	9.202          	8.514
MS.314         	9.182          	8.459
MS.315         	9.165          	8.552
MS.316         	9.148          	8.53
MS.317         	9.127          	8.445
MS.318         	9.11           	8.532
MS.319         	9.092          	8.56
MS.320         	9.073          	8.538
MS.321         	9.055          	8.548
MS.322         	9.037          	8.53
MS.323         	9.02           	8.544
MS.324         	9              	8.623
MS.325         	8.983          	8.594
MS.326         	8.965          	8.54
MS.327         	8.948          	8.468
MS.328         	8.93           	8.544
MS.329         	8.912          	8.439
MS.330         	8.895          	8.544
MS.331         	8.875          	8.548
MS.332         	8.858          	8.387
MS.333         	8.84           	8.484
MS.334         	8.823          	8.504
MS.335         	8.805          	8.451
MS.336         	8.787          	8.536
MS.337         	8.77           	8.518
MS.338         	8.752          	8.461
MS.339         	8.735          	8.461
MS.340         	8.717          	8.51
MS.341         	8.7            	8.586
MS.342         	8.682          	8.504
MS.343         	8.665          	8.486
MS.344         	8.648          	8.466
MS.345         	8.63           	8.536
MS.346         	8.613          	8.544
MS.347         	8.597          	8.492
MS.348         	8.58           	8.476
MS.349         	8.562          	8.415
MS.350         	8.545          	8.486
MS.351         	8.528          	8.459
MS.352         	8.51           	8.429
MS.353         	8.495          	8.464
MS.354         	8.477          	8.445
MS.355         	8.46           	8.421
MS.356         	8.443          	8.385
MS.357         	8.427          	8.464
MS.358         	8.41           	8.427
MS.359         	8.392          	8.419
MS.360         	8.375          	8.482
MS.361         	8.36           	8.449
MS.362         	8.342          	8.447
MS.363         	8.325          	8.419
MS.364         	8.31           	8.419
MS.365         	8.292          	8.423
MS.366         	8.275          	8.425
MS.367         	8.26           	8.423
MS.368         	8.242          	8.431
MS.369         	8.227          	8.423
MS.370         	8.21           	8.468
MS.371         	8.193          	8.506
MS.372         	8.177          	8.504
MS.373         	8.16           	8.395
MS.374         	8.145          	8.52
MS.375         	8.127          	8.512
MS.376         	8.113          	8.53
MS.377         	8.095          	8.54
MS.378         	8.08           	8.504
MS.379         	8.062          	8.552
MS.380         	8.047          	8.383
MS.381         	8.033          	8.538
MS.382         	8.015          	8.413
MS.383         	8              	8.359
MS.384         	7.982          	8.365
MS.385         	7.967          	8.397
MS.386         	7.952          	8.399
MS.387         	7.935          	8.141
MS.388         	7.92           	8.222
MS.389         	7.905          	7.986
MS.390         	7.887          	7.95
MS.391         	7.872          	7.95
MS.392         	7.857          	8.188
MS.393         	7.84           	8.23
MS.394         	7.825          	8.222
MS.395         	7.81           	7.982
MS.396         	7.795          	7.984
MS.397         	7.777          	7.986
MS.398         	7.762          	7.954
MS.399         	7.747          	7.823
MS.400         	7.732          	8.087
MS.401         	7.717          	7.791
MS.402         	7.7            	7.7
MS.403         	7.685          	7.948
MS.404         	7.67           	7.936
MS.405         	7.655          	7.904
MS.406         	7.64           	7.831
MS.407         	7.625          	7.95
MS.408         	7.61           	7.565
MS.409         	7.595          	7.744
MS.410         	7.58           	7.555
MS.411         	7.562          	7.565
MS.412         	7.547          	7.223
MS.413         	7.532          	7.247
MS.414         	7.517          	7.259
MS.415         	7.503          	7.416
MS.416         	7.487          	7.336
MS.417         	7.472          	7.382
MS.418         	7.457          	7.134
MS.419         	7.442          	7.189
MS.420         	7.427          	7.108
MS.421         	7.415          	7.205
MS.422         	7.4            	6.852
MS.423         	7.385          	6.981
MS.424         	7.37           	6.947
MS.425         	7.355          	6.76
MS.426         	7.34           	6.478
MS.427         	7.325          	6.282
MS.428         	7.31           	6.876
MS.429         	7.295          	6.516
MS.430         	7.282          	6.56
MS.431         	7.267          	6.294
MS.432         	7.253          	5.928
MS.433         	7.237          	6.107
MS.434         	7.222          	6.163
MS.435         	7.21           	6.067
MS.436         	7.195          	5.775
MS.437         	7.18           	5.466
MS.438         	7.165          	6.01
MS.439         	7.152          	6.026
MS.440         	7.137          	5.853
MS.441         	7.122          	5.609
MS.442         	7.11           	5.45
MS.443         	7.095          	5.41
MS.444         	7.08           	5.277
MS.445         	7.067          	5.34
MS.446         	7.052          	5.436
MS.447         	7.037          	5.378
MS.448         	7.025          	5.301
MS.449         	7.01           	5.188
MS.450         	6.995          	5.368
MS.451         	6.983          	5.031
MS.452         	6.967          	5.128
MS.453         	6.955          	4.915
MS.454         	6.94           	4.965
MS.455         	6.927          	4.888
MS.456         	6.912          	4.939
MS.457         	6.9            	4.808
MS.458         	6.885          	4.965
MS.459         	6.872          	4.5
MS.460         	6.858          	4.818
MS.461         	6.845          	4.868
MS.462         	6.83           	4.56
MS.463         	6.817          	4.58
MS.464         	6.802          	4.618
MS.465         	6.79           	4.856
MS.466         	6.775          	4.457
MS.467         	6.762          	4.486
MS.468         	6.747          	4.647
MS.469         	6.735          	4.355
MS.470         	6.722          	4.183
MS.471         	6.707          	4.397
MS.472         	6.695          	4.248
MS.473         	6.682          	4.357
MS.474         	6.668          	4.05
MS.475         	6.655          	3.98
MS.476         	6.642          	4.363
MS.477         	6.628          	3.909
MS.478         	6.615          	4.234
MS.479         	6.602          	4.145
MS.480         	6.587          	3.986
MS.481         	6.575          	3.867
MS.482         	6.562          	3.783
MS.483         	6.55           	3.503
MS.484         	6.535          	3.442
MS.485         	6.523          	3.809
MS.486         	6.51           	3.736
MS.487         	6.497          	3.567
MS.488         	6.485          	3.517
MS.489         	6.47           	3.601
MS.490         	6.457          	3.356
MS.491         	6.445          	3.493
MS.492         	6.432          	3.35
MS.493         	6.42           	3.323
MS.494         	6.407          	3.015
MS.495         	6.395          	2.896
MS.496         	6.38           	3.009
MS.497         	6.367          	3.041
MS.498         	6.355          	2.735
MS.499         	6.342          	2.729
MS.500         	6.33           	2.61
MS.501         	6.317          	2.379
