File:              	C:\Qtrac\Data\Daniel M Sørensen\MScan multicentre study\Data from centres\Antalya\Processed data\TR.NC.ANT.7.1- NCC01025B.QZD
Name:              	TR.NC.ANT.7.1
Protocol:          	MSCAN-R2
Date:              	25/10/20
Start time:        	17:03:44
Age:               	28
Sex:               	f
Temperature:       	33.4
S/R sites:         	ADM
NC/disease:        	NC
Operator:          	ab
Comments:
M-SCAN DATA (7.2-0.6m)
Scanpts: 59, 63, 517, 524
Stim. (mA)     	Amp. (mV)
MS.1           	22.5           	6.88
MS.2           	22.5           	6.886
MS.3           	22.5           	6.826
MS.4           	22.5           	6.814
MS.5           	22.5           	6.832
MS.6           	22.5           	6.864
MS.7           	22.5           	6.824
MS.8           	22.5           	6.834
MS.9           	22.5           	6.826
MS.10          	22.5           	6.83
MS.11          	22.5           	6.816
MS.12          	22.5           	6.808
MS.13          	22.5           	6.824
MS.14          	22.5           	6.826
MS.15          	22.5           	6.85
MS.16          	22.5           	6.892
MS.17          	22.5           	6.87
MS.18          	22.5           	6.892
MS.19          	22.5           	6.876
MS.20          	22.5           	6.882
MS.21          	22.5           	6.905
MS.22          	22.5           	6.89
MS.23          	22.41          	6.778
MS.24          	22.365         	6.778
MS.25          	22.32          	6.868
MS.26          	22.275         	6.862
MS.27          	22.233         	6.854
MS.28          	22.188         	6.862
MS.29          	22.142         	6.858
MS.30          	22.097         	6.858
MS.31          	22.055         	6.864
MS.32          	22.01          	6.83
MS.33          	21.967         	6.878
MS.34          	21.922         	6.894
MS.35          	21.877         	6.84
MS.36          	21.835         	6.836
MS.37          	21.792         	6.886
MS.38          	21.747         	6.816
MS.39          	21.705         	6.81
MS.40          	21.66          	6.884
MS.41          	21.618         	6.764
MS.42          	21.575         	6.776
MS.43          	21.532         	6.848
MS.44          	21.487         	6.86
MS.45          	21.445         	6.832
MS.46          	21.403         	6.852
MS.47          	21.36          	6.868
MS.48          	21.317         	6.896
MS.49          	21.275         	6.85
MS.50          	21.233         	6.886
MS.51          	21.19          	6.888
MS.52          	21.147         	6.925
MS.53          	21.105         	6.907
MS.54          	21.062         	6.894
MS.55          	21.02          	6.933
MS.56          	20.98          	6.927
MS.57          	20.938         	6.939
MS.58          	20.895         	6.923
MS.59          	20.852         	6.947
MS.60          	20.812         	6.951
MS.61          	20.77          	6.951
MS.62          	20.727         	6.951
MS.63          	20.688         	6.939
MS.64          	20.645         	6.935
MS.65          	20.605         	6.913
MS.66          	20.562         	6.943
MS.67          	20.522         	6.951
MS.68          	20.483         	6.911
MS.69          	20.44          	6.856
MS.70          	20.4           	6.927
MS.71          	20.36          	6.951
MS.72          	20.317         	6.943
MS.73          	20.278         	6.933
MS.74          	20.237         	6.921
MS.75          	20.198         	6.907
MS.76          	20.155         	6.919
MS.77          	20.115         	6.84
MS.78          	20.075         	6.812
MS.79          	20.035         	6.798
MS.80          	19.995         	6.774
MS.81          	19.955         	6.804
MS.82          	19.915         	6.824
MS.83          	19.875         	6.804
MS.84          	19.837         	6.784
MS.85          	19.797         	6.778
MS.86          	19.757         	6.806
MS.87          	19.717         	6.794
MS.88          	19.677         	6.806
MS.89          	19.64          	6.792
MS.90          	19.6           	6.794
MS.91          	19.56          	6.792
MS.92          	19.522         	6.786
MS.93          	19.483         	6.786
MS.94          	19.442         	6.788
MS.95          	19.405         	6.798
MS.96          	19.365         	6.796
MS.97          	19.327         	6.778
MS.98          	19.288         	6.812
MS.99          	19.25          	6.8
MS.100         	19.212         	6.816
MS.101         	19.172         	6.802
MS.102         	19.135         	6.808
MS.103         	19.097         	6.802
MS.104         	19.057         	6.806
MS.105         	19.02          	6.784
MS.106         	18.983         	6.788
MS.107         	18.945         	6.808
MS.108         	18.907         	6.802
MS.109         	18.87          	6.784
MS.110         	18.83          	6.772
MS.111         	18.792         	6.774
MS.112         	18.755         	6.786
MS.113         	18.717         	6.782
MS.114         	18.68          	6.784
MS.115         	18.645         	6.782
MS.116         	18.608         	6.772
MS.117         	18.57          	6.786
MS.118         	18.532         	6.766
MS.119         	18.495         	6.786
MS.120         	18.458         	6.792
MS.121         	18.422         	6.812
MS.122         	18.385         	6.794
MS.123         	18.347         	6.741
MS.124         	18.31          	6.703
MS.125         	18.275         	6.697
MS.126         	18.237         	6.727
MS.127         	18.202         	6.707
MS.128         	18.165         	6.774
MS.129         	18.13          	6.753
MS.130         	18.092         	6.737
MS.131         	18.057         	6.749
MS.132         	18.02          	6.766
MS.133         	17.985         	6.77
MS.134         	17.948         	6.737
MS.135         	17.913         	6.786
MS.136         	17.878         	6.741
MS.137         	17.84          	6.76
MS.138         	17.805         	6.788
MS.139         	17.77          	6.77
MS.140         	17.735         	6.796
MS.141         	17.7           	6.733
MS.142         	17.663         	6.764
MS.143         	17.628         	6.629
MS.144         	17.592         	6.58
MS.145         	17.557         	6.612
MS.146         	17.522         	6.695
MS.147         	17.487         	6.725
MS.148         	17.452         	6.733
MS.149         	17.417         	6.729
MS.150         	17.382         	6.768
MS.151         	17.347         	6.725
MS.152         	17.315         	6.749
MS.153         	17.28          	6.707
MS.154         	17.245         	6.758
MS.155         	17.21          	6.731
MS.156         	17.175         	6.772
MS.157         	17.142         	6.691
MS.158         	17.108         	6.725
MS.159         	17.073         	6.77
MS.160         	17.04          	6.733
MS.161         	17.005         	6.711
MS.162         	16.97          	6.705
MS.163         	16.938         	6.76
MS.164         	16.903         	6.758
MS.165         	16.87          	6.703
MS.166         	16.835         	6.737
MS.167         	16.802         	6.723
MS.168         	16.767         	6.701
MS.169         	16.735         	6.669
MS.170         	16.702         	6.703
MS.171         	16.667         	6.693
MS.172         	16.635         	6.665
MS.173         	16.602         	6.645
MS.174         	16.567         	6.598
MS.175         	16.535         	6.602
MS.176         	16.503         	6.647
MS.177         	16.47          	6.584
MS.178         	16.438         	6.564
MS.179         	16.405         	6.554
MS.180         	16.37          	6.574
MS.181         	16.337         	6.556
MS.182         	16.305         	6.707
MS.183         	16.272         	6.588
MS.184         	16.24          	6.596
MS.185         	16.208         	6.576
MS.186         	16.175         	6.5
MS.187         	16.142         	6.478
MS.188         	16.11          	6.484
MS.189         	16.08          	6.53
MS.190         	16.047         	6.502
MS.191         	16.015         	6.508
MS.192         	15.983         	6.459
MS.193         	15.95          	6.486
MS.194         	15.92          	6.445
MS.195         	15.887         	6.411
MS.196         	15.855         	6.522
MS.197         	15.822         	6.439
MS.198         	15.792         	6.453
MS.199         	15.76          	6.353
MS.200         	15.73          	6.52
MS.201         	15.697         	6.459
MS.202         	15.667         	6.556
MS.203         	15.635         	6.504
MS.204         	15.602         	6.548
MS.205         	15.572         	6.52
MS.206         	15.542         	6.578
MS.207         	15.51          	6.425
MS.208         	15.48          	6.407
MS.209         	15.447         	6.377
MS.210         	15.417         	6.443
MS.211         	15.387         	6.389
MS.212         	15.355         	6.385
MS.213         	15.325         	6.401
MS.214         	15.295         	6.357
MS.215         	15.265         	6.29
MS.216         	15.233         	6.292
MS.217         	15.202         	6.3
MS.218         	15.172         	6.288
MS.219         	15.142         	6.232
MS.220         	15.112         	6.202
MS.221         	15.082         	6.153
MS.222         	15.052         	6.087
MS.223         	15.023         	6.103
MS.224         	14.992         	6.061
MS.225         	14.962         	5.978
MS.226         	14.932         	6.069
MS.227         	14.902         	6.117
MS.228         	14.872         	5.885
MS.229         	14.842         	5.994
MS.230         	14.812         	5.889
MS.231         	14.782         	5.777
MS.232         	14.755         	5.815
MS.233         	14.725         	5.803
MS.234         	14.695         	5.72
MS.235         	14.665         	5.867
MS.236         	14.637         	5.767
MS.237         	14.608         	5.773
MS.238         	14.577         	5.521
MS.239         	14.55          	5.646
MS.240         	14.52          	5.64
MS.241         	14.49          	5.561
MS.242         	14.462         	5.352
MS.243         	14.432         	5.418
MS.244         	14.405         	5.511
MS.245         	14.375         	5.279
MS.246         	14.347         	5.39
MS.247         	14.318         	5.42
MS.248         	14.29          	5.174
MS.249         	14.26          	5.442
MS.250         	14.233         	5.219
MS.251         	14.205         	5.307
MS.252         	14.175         	5.245
MS.253         	14.148         	5.178
MS.254         	14.12          	5.076
MS.255         	14.09          	5.054
MS.256         	14.062         	5.031
MS.257         	14.035         	4.798
MS.258         	14.007         	4.923
MS.259         	13.977         	4.84
MS.260         	13.95          	4.995
MS.261         	13.922         	4.784
MS.262         	13.895         	4.792
MS.263         	13.867         	4.846
MS.264         	13.84          	4.723
MS.265         	13.812         	4.739
MS.266         	13.785         	4.59
MS.267         	13.757         	4.336
MS.268         	13.73          	4.407
MS.269         	13.702         	4.457
MS.270         	13.675         	4.502
MS.271         	13.648         	3.942
MS.272         	13.62          	3.986
MS.273         	13.592         	4.175
MS.274         	13.565         	4.181
MS.275         	13.537         	3.891
MS.276         	13.51          	3.97
MS.277         	13.485         	3.97
MS.278         	13.457         	3.996
MS.279         	13.43          	3.839
MS.280         	13.403         	3.831
MS.281         	13.377         	3.783
MS.282         	13.35          	3.537
MS.283         	13.322         	3.71
MS.284         	13.297         	3.581
MS.285         	13.27          	3.541
MS.286         	13.242         	3.341
MS.287         	13.217         	3.652
MS.288         	13.19          	3.303
MS.289         	13.165         	3.37
MS.290         	13.137         	3.424
MS.291         	13.112         	3.291
MS.292         	13.085         	3.295
MS.293         	13.06          	3.011
MS.294         	13.032         	3.011
MS.295         	13.007         	3.021
MS.296         	12.983         	3.092
MS.297         	12.955         	2.84
MS.298         	12.93          	2.937
MS.299         	12.903         	2.856
MS.300         	12.877         	2.725
MS.301         	12.852         	2.709
MS.302         	12.827         	2.614
MS.303         	12.8           	2.735
MS.304         	12.775         	2.745
MS.305         	12.75          	2.542
MS.306         	12.725         	2.314
MS.307         	12.7           	2.435
MS.308         	12.672         	2.326
MS.309         	12.648         	2.391
MS.310         	12.622         	2.191
MS.311         	12.597         	1.922
MS.312         	12.572         	2.069
MS.313         	12.547         	1.996
MS.314         	12.523         	2.032
MS.315         	12.497         	2.071
MS.316         	12.472         	1.867
MS.317         	12.447         	1.75
MS.318         	12.422         	1.601
MS.319         	12.398         	1.861
MS.320         	12.372         	1.694
MS.321         	12.347         	1.676
MS.322         	12.322         	1.456
MS.323         	12.3           	1.706
MS.324         	12.275         	1.686
MS.325         	12.25          	1.629
MS.326         	12.225         	1.603
MS.327         	12.2           	1.571
MS.328         	12.177         	1.394
MS.329         	12.153         	1.337
MS.330         	12.127         	1.305
MS.331         	12.102         	1.416
MS.332         	12.08          	1.386
MS.333         	12.055         	1.428
MS.334         	12.032         	1.394
MS.335         	12.007         	1.358
MS.336         	11.983         	1.396
MS.337         	11.96          	1.297
MS.338         	11.935         	1.267
MS.339         	11.912         	1.325
MS.340         	11.887         	1.235
MS.341         	11.865         	1.273
MS.342         	11.84          	1.295
MS.343         	11.818         	1.279
MS.344         	11.792         	1.126
MS.345         	11.77          	1.178
MS.346         	11.745         	1.152
MS.347         	11.722         	1.211
MS.348         	11.7           	1.16
MS.349         	11.675         	1.184
MS.350         	11.653         	1.144
MS.351         	11.63          	1.092
MS.352         	11.605         	1.112
MS.353         	11.582         	1.027
MS.354         	11.56          	1.059
MS.355         	11.537         	1.063
MS.356         	11.512         	1.124
MS.357         	11.49          	1.059
MS.358         	11.467         	1.045
MS.359         	11.445         	0.92
MS.360         	11.422         	1.049
MS.361         	11.4           	1.015
MS.362         	11.375         	0.939
MS.363         	11.352         	0.997
MS.364         	11.33          	0.997
MS.365         	11.307         	0.91
MS.366         	11.285         	1.039
MS.367         	11.262         	0.89
MS.368         	11.24          	0.951
MS.369         	11.217         	0.866
MS.370         	11.195         	0.808
MS.371         	11.172         	0.878
MS.372         	11.15          	0.836
MS.373         	11.127         	0.824
MS.374         	11.108         	0.769
MS.375         	11.085         	0.794
MS.376         	11.062         	0.745
MS.377         	11.04          	0.872
MS.378         	11.017         	0.765
MS.379         	10.995         	0.729
MS.380         	10.975         	0.838
MS.381         	10.952         	0.729
MS.382         	10.93          	0.691
MS.383         	10.907         	0.743
MS.384         	10.887         	0.8
MS.385         	10.865         	0.769
MS.386         	10.842         	0.786
MS.387         	10.82          	0.771
MS.388         	10.8           	0.675
MS.389         	10.778         	0.711
MS.390         	10.757         	0.636
MS.391         	10.735         	0.657
MS.392         	10.712         	0.659
MS.393         	10.693         	0.626
MS.394         	10.67          	0.413
MS.395         	10.65          	0.598
MS.396         	10.627         	0.449
MS.397         	10.608         	0.401
MS.398         	10.585         	0.469
MS.399         	10.565         	0.576
MS.400         	10.542         	0.572
MS.401         	10.523         	0.558
MS.402         	10.502         	0.562
MS.403         	10.48          	0.34
MS.404         	10.46          	0.608
MS.405         	10.438         	0.25
MS.406         	10.417         	0.385
MS.407         	10.398         	0.352
MS.408         	10.375         	0.326
MS.409         	10.355         	0.397
MS.410         	10.335         	0.246
MS.411         	10.315         	0.336
MS.412         	10.292         	0.334
MS.413         	10.273         	0.312
MS.414         	10.252         	0.298
MS.415         	10.233         	0.373
MS.416         	10.212         	0.312
MS.417         	10.19          	0.34
MS.418         	10.17          	0.304
MS.419         	10.15          	0.334
MS.420         	10.13          	0.348
MS.421         	10.11          	0.256
MS.422         	10.09          	0.443
MS.423         	10.07          	0.3
MS.424         	10.05          	0.332
MS.425         	10.03          	0.268
MS.426         	10.01          	0.314
MS.427         	9.99           	0.244
MS.428         	9.97           	0.26
MS.429         	9.95           	0.25
MS.430         	9.93           	0.222
MS.431         	9.91           	0.28
MS.432         	9.89           	0.228
MS.433         	9.87           	0.216
MS.434         	9.85           	0.185
MS.435         	9.83           	0.193
MS.436         	9.81           	0.161
MS.437         	9.792          	0.155
MS.438         	9.773          	0.131
MS.439         	9.752          	0.117
MS.440         	9.733          	0.131
MS.441         	9.712          	0.205
MS.442         	9.695          	0.23
MS.443         	9.675          	0.278
MS.444         	9.655          	0.292
MS.445         	9.635          	0.234
MS.446         	9.617          	0.31
MS.447         	9.597          	0.242
MS.448         	9.577          	0.222
MS.449         	9.56           	0.214
MS.450         	9.54           	0.254
MS.451         	9.52           	0.171
MS.452         	9.502          	0.199
MS.453         	9.483          	0.26
MS.454         	9.465          	0.121
MS.455         	9.445          	0.151
MS.456         	9.427          	0.157
MS.457         	9.407          	0.091
MS.458         	9.387          	0.139
MS.459         	9.37           	0.135
MS.460         	9.352          	0.169
MS.461         	9.332          	0.129
MS.462         	9.315          	0.167
MS.463         	9.295          	0.171
MS.464         	9.278          	0.147
MS.465         	9.257          	0.135
MS.466         	9.24           	0.111
MS.467         	9.222          	0.197
MS.468         	9.202          	0.107
MS.469         	9.185          	0.113
MS.470         	9.165          	0.133
MS.471         	9.148          	0.125
MS.472         	9.13           	0.073
MS.473         	9.113          	0.109
MS.474         	9.092          	0.157
MS.475         	9.075          	0.103
MS.476         	9.057          	0.093
MS.477         	9.037          	0.107
MS.478         	9.02           	0.155
MS.479         	9.002          	0.066
MS.480         	8.985          	0.056
MS.481         	8.967          	0.101
MS.482         	8.948          	0.07
MS.483         	8.93           	0.075
MS.484         	8.912          	0.105
MS.485         	8.895          	0.07
MS.486         	8.877          	0.054
MS.487         	8.86           	0.058
MS.488         	8.842          	0.048
MS.489         	8.825          	0.056
MS.490         	8.807          	0.056
MS.491         	8.79           	0.06
MS.492         	8.773          	0.056
MS.493         	8.755          	0.056
MS.494         	8.738          	0.056
MS.495         	8.72           	0.058
MS.496         	8.702          	0.05
MS.497         	8.685          	0.056
MS.498         	8.667          	0.052
MS.499         	8.65           	0.115
MS.500         	8.632          	0.052
MS.501         	8.615          	0.097
