File:              	C:\Qtrac\Data\Daniel M Sørensen\MScan multicentre study\Data from centres\Antalya\Processed data\TR.NC.ANT.1.2- NCC00219C.QZD
Name:              	TR.NC.ANT.1.2
Protocol:          	MSCAN-R2
Date:              	19/2/20
Start time:        	20:46:05
Age:               	68
Sex:               	f
Temperature:       	32.3
S/R sites:         	TA
NC/disease:        	NC
Operator:          	ab
Comments:          	left TA
M-SCAN DATA (10.1-5.9m)
Scanpts: 6, 11, 425, 434
Stim. (mA)     	Amp. (mV)
MS.1           	24             	6.612
MS.2           	24             	6.592
MS.3           	24             	6.558
MS.4           	24             	6.586
MS.5           	24             	6.663
MS.6           	24             	6.675
MS.7           	24             	6.655
MS.8           	24             	6.627
MS.9           	24             	6.649
MS.10          	24             	6.671
MS.11          	24             	6.685
MS.12          	24             	6.58
MS.13          	24             	6.653
MS.14          	24             	6.679
MS.15          	24             	6.669
MS.16          	24             	6.647
MS.17          	24             	6.572
MS.18          	24             	6.633
MS.19          	24             	6.679
MS.20          	24             	6.657
MS.21          	24             	6.621
MS.22          	24             	6.596
MS.23          	24             	6.627
MS.24          	23.905         	6.631
MS.25          	23.858         	6.588
MS.26          	23.807         	6.675
MS.27          	23.76          	6.629
MS.28          	23.712         	6.623
MS.29          	23.665         	6.623
MS.30          	23.62          	6.602
MS.31          	23.573         	6.655
MS.32          	23.525         	6.584
MS.33          	23.477         	6.572
MS.34          	23.43          	6.602
MS.35          	23.385         	6.625
MS.36          	23.337         	6.631
MS.37          	23.29          	6.59
MS.38          	23.245         	6.596
MS.39          	23.198         	6.615
MS.40          	23.153         	6.588
MS.41          	23.105         	6.604
MS.42          	23.06          	6.596
MS.43          	23.012         	6.623
MS.44          	22.967         	6.556
MS.45          	22.92          	6.608
MS.46          	22.875         	6.578
MS.47          	22.83          	6.612
MS.48          	22.785         	6.57
MS.49          	22.737         	6.544
MS.50          	22.692         	6.6
MS.51          	22.647         	6.552
MS.52          	22.602         	6.596
MS.53          	22.557         	6.604
MS.54          	22.512         	6.576
MS.55          	22.467         	6.494
MS.56          	22.422         	6.5
MS.57          	22.377         	6.538
MS.58          	22.332         	6.498
MS.59          	22.288         	6.502
MS.60          	22.243         	6.534
MS.61          	22.2           	6.496
MS.62          	22.155         	6.504
MS.63          	22.11          	6.482
MS.64          	22.067         	6.502
MS.65          	22.022         	6.498
MS.66          	21.977         	6.552
MS.67          	21.935         	6.494
MS.68          	21.89          	6.465
MS.69          	21.847         	6.504
MS.70          	21.802         	6.461
MS.71          	21.76          	6.449
MS.72          	21.715         	6.467
MS.73          	21.672         	6.459
MS.74          	21.63          	6.463
MS.75          	21.585         	6.417
MS.76          	21.542         	6.471
MS.77          	21.5           	6.427
MS.78          	21.458         	6.397
MS.79          	21.415         	6.407
MS.80          	21.372         	6.421
MS.81          	21.327         	6.379
MS.82          	21.285         	6.461
MS.83          	21.243         	6.331
MS.84          	21.2           	6.387
MS.85          	21.157         	6.324
MS.86          	21.118         	6.343
MS.87          	21.075         	6.171
MS.88          	21.032         	6.353
MS.89          	20.99          	6.21
MS.90          	20.948         	6.131
MS.91          	20.907         	6.107
MS.92          	20.865         	6.111
MS.93          	20.823         	6.278
MS.94          	20.78          	6.117
MS.95          	20.74          	6.32
MS.96          	20.698         	6.262
MS.97          	20.657         	6.036
MS.98          	20.615         	6.091
MS.99          	20.575         	5.958
MS.100         	20.532         	6.02
MS.101         	20.493         	6.03
MS.102         	20.452         	5.97
MS.103         	20.41          	6.02
MS.104         	20.37          	5.954
MS.105         	20.33          	5.962
MS.106         	20.288         	5.92
MS.107         	20.247         	5.883
MS.108         	20.208         	5.954
MS.109         	20.167         	5.881
MS.110         	20.127         	5.938
MS.111         	20.087         	5.889
MS.112         	20.047         	5.809
MS.113         	20.007         	5.845
MS.114         	19.967         	5.895
MS.115         	19.927         	5.891
MS.116         	19.887         	5.811
MS.117         	19.847         	5.813
MS.118         	19.807         	5.813
MS.119         	19.767         	5.781
MS.120         	19.727         	5.781
MS.121         	19.69          	5.789
MS.122         	19.65          	5.746
MS.123         	19.61          	5.734
MS.124         	19.57          	5.722
MS.125         	19.532         	5.644
MS.126         	19.493         	5.624
MS.127         	19.455         	5.607
MS.128         	19.415         	5.644
MS.129         	19.377         	5.577
MS.130         	19.337         	5.412
MS.131         	19.3           	5.559
MS.132         	19.26          	5.485
MS.133         	19.222         	5.485
MS.134         	19.182         	5.47
MS.135         	19.145         	5.283
MS.136         	19.108         	5.414
MS.137         	19.067         	5.34
MS.138         	19.03          	5.382
MS.139         	18.993         	5.297
MS.140         	18.955         	5.321
MS.141         	18.917         	5.321
MS.142         	18.88          	5.18
MS.143         	18.842         	5.126
MS.144         	18.802         	5.193
MS.145         	18.765         	5.052
MS.146         	18.727         	5.078
MS.147         	18.69          	5.035
MS.148         	18.655         	5.007
MS.149         	18.618         	4.985
MS.150         	18.58          	4.961
MS.151         	18.542         	4.89
MS.152         	18.505         	4.921
MS.153         	18.467         	4.808
MS.154         	18.432         	4.882
MS.155         	18.395         	4.8
MS.156         	18.358         	4.78
MS.157         	18.32          	4.641
MS.158         	18.285         	4.699
MS.159         	18.247         	4.612
MS.160         	18.212         	4.62
MS.161         	18.175         	4.643
MS.162         	18.137         	4.449
MS.163         	18.102         	4.353
MS.164         	18.067         	4.504
MS.165         	18.03          	4.373
MS.166         	17.995         	4.143
MS.167         	17.958         	4.097
MS.168         	17.922         	4.276
MS.169         	17.887         	4.121
MS.170         	17.85          	4.25
MS.171         	17.815         	4.069
MS.172         	17.78          	4.024
MS.173         	17.745         	4.024
MS.174         	17.708         	3.928
MS.175         	17.672         	3.964
MS.176         	17.637         	3.871
MS.177         	17.602         	3.789
MS.178         	17.567         	3.756
MS.179         	17.532         	3.817
MS.180         	17.497         	3.702
MS.181         	17.462         	3.712
MS.182         	17.427         	3.634
MS.183         	17.392         	3.583
MS.184         	17.358         	3.573
MS.185         	17.323         	3.497
MS.186         	17.288         	3.482
MS.187         	17.255         	3.484
MS.188         	17.22          	3.487
MS.189         	17.185         	3.482
MS.190         	17.15          	3.394
MS.191         	17.118         	3.392
MS.192         	17.083         	3.217
MS.193         	17.047         	3.309
MS.194         	17.015         	3.235
MS.195         	16.98          	3.07
MS.196         	16.948         	3.217
MS.197         	16.913         	3.12
MS.198         	16.878         	2.939
MS.199         	16.845         	3.078
MS.200         	16.812         	3.033
MS.201         	16.778         	3.072
MS.202         	16.745         	2.919
MS.203         	16.71          	2.963
MS.204         	16.677         	2.949
MS.205         	16.645         	2.88
MS.206         	16.61          	2.808
MS.207         	16.577         	2.784
MS.208         	16.545         	2.685
MS.209         	16.512         	2.776
MS.210         	16.477         	2.657
MS.211         	16.445         	2.741
MS.212         	16.413         	2.655
MS.213         	16.38          	2.639
MS.214         	16.347         	2.622
MS.215         	16.315         	2.524
MS.216         	16.282         	2.594
MS.217         	16.25          	2.512
MS.218         	16.217         	2.538
MS.219         	16.185         	2.451
MS.220         	16.153         	2.306
MS.221         	16.12          	2.447
MS.222         	16.087         	2.375
MS.223         	16.055         	2.338
MS.224         	16.022         	2.201
MS.225         	15.992         	2.185
MS.226         	15.96          	2.222
MS.227         	15.927         	2.127
MS.228         	15.895         	2.133
MS.229         	15.865         	2.042
MS.230         	15.832         	1.968
MS.231         	15.8           	1.964
MS.232         	15.77          	1.883
MS.233         	15.737         	1.924
MS.234         	15.705         	1.829
MS.235         	15.675         	1.907
MS.236         	15.642         	1.897
MS.237         	15.612         	1.855
MS.238         	15.58          	1.768
MS.239         	15.55          	1.738
MS.240         	15.52          	1.635
MS.241         	15.487         	1.664
MS.242         	15.457         	1.629
MS.243         	15.425         	1.65
MS.244         	15.395         	1.478
MS.245         	15.365         	1.551
MS.246         	15.332         	1.559
MS.247         	15.302         	1.549
MS.248         	15.273         	1.482
MS.249         	15.242         	1.466
MS.250         	15.212         	1.452
MS.251         	15.18          	1.347
MS.252         	15.15          	1.267
MS.253         	15.12          	1.356
MS.254         	15.09          	1.331
MS.255         	15.06          	1.285
MS.256         	15.03          	1.331
MS.257         	15             	1.211
MS.258         	14.97          	1.275
MS.259         	14.94          	1.219
MS.260         	14.91          	1.204
MS.261         	14.88          	1.174
MS.262         	14.85          	1.182
MS.263         	14.82          	1.098
MS.264         	14.792         	1.124
MS.265         	14.762         	1.142
MS.266         	14.733         	1.128
MS.267         	14.702         	1.053
MS.268         	14.672         	1.045
MS.269         	14.645         	1.025
MS.270         	14.615         	1.082
MS.271         	14.585         	1.063
MS.272         	14.557         	1.049
MS.273         	14.527         	0.973
MS.274         	14.497         	0.981
MS.275         	14.47          	0.941
MS.276         	14.44          	0.949
MS.277         	14.412         	0.784
MS.278         	14.382         	0.941
MS.279         	14.355         	0.908
MS.280         	14.325         	0.798
MS.281         	14.297         	0.792
MS.282         	14.267         	0.675
MS.283         	14.24          	0.771
MS.284         	14.212         	0.703
MS.285         	14.182         	0.679
MS.286         	14.155         	0.705
MS.287         	14.127         	0.657
MS.288         	14.097         	0.731
MS.289         	14.07          	0.576
MS.290         	14.042         	0.562
MS.291         	14.015         	0.582
MS.292         	13.985         	0.6
MS.293         	13.957         	0.606
MS.294         	13.93          	0.55
MS.295         	13.903         	0.461
MS.296         	13.875         	0.475
MS.297         	13.847         	0.5
MS.298         	13.82          	0.514
MS.299         	13.792         	0.453
MS.300         	13.765         	0.405
MS.301         	13.737         	0.453
MS.302         	13.71          	0.429
MS.303         	13.682         	0.417
MS.304         	13.655         	0.405
MS.305         	13.627         	0.371
MS.306         	13.6           	0.387
MS.307         	13.572         	0.326
MS.308         	13.545         	0.387
MS.309         	13.517         	0.34
MS.310         	13.492         	0.369
MS.311         	13.465         	0.326
MS.312         	13.438         	0.344
MS.313         	13.41          	0.312
MS.314         	13.385         	0.324
MS.315         	13.358         	0.292
MS.316         	13.33          	0.286
MS.317         	13.305         	0.284
MS.318         	13.278         	0.284
MS.319         	13.25          	0.29
MS.320         	13.225         	0.272
MS.321         	13.197         	0.292
MS.322         	13.172         	0.248
MS.323         	13.145         	0.252
MS.324         	13.12          	0.24
MS.325         	13.092         	0.218
MS.326         	13.068         	0.211
MS.327         	13.04          	0.234
MS.328         	13.015         	0.268
MS.329         	12.987         	0.216
MS.330         	12.962         	0.201
MS.331         	12.938         	0.22
MS.332         	12.91          	0.193
MS.333         	12.885         	0.179
MS.334         	12.86          	0.209
MS.335         	12.832         	0.179
MS.336         	12.807         	0.177
MS.337         	12.782         	0.149
MS.338         	12.757         	0.175
MS.339         	12.73          	0.151
MS.340         	12.705         	0.163
MS.341         	12.68          	0.155
MS.342         	12.655         	0.133
MS.343         	12.63          	0.147
MS.344         	12.605         	0.151
MS.345         	12.58          	0.137
MS.346         	12.555         	0.135
MS.347         	12.53          	0.157
MS.348         	12.505         	0.129
MS.349         	12.48          	0.151
MS.350         	12.455         	0.129
MS.351         	12.43          	0.159
MS.352         	12.405         	0.137
MS.353         	12.38          	0.139
MS.354         	12.355         	0.147
MS.355         	12.33          	0.135
MS.356         	12.305         	0.133
MS.357         	12.28          	0.125
MS.358         	12.257         	0.125
MS.359         	12.233         	0.125
MS.360         	12.207         	0.133
MS.361         	12.182         	0.109
MS.362         	12.16          	0.109
MS.363         	12.135         	0.125
MS.364         	12.11          	0.105
MS.365         	12.085         	0.099
MS.366         	12.062         	0.099
MS.367         	12.037         	0.087
MS.368         	12.012         	0.095
MS.369         	11.99          	0.089
MS.370         	11.965         	0.089
MS.371         	11.943         	0.081
MS.372         	11.917         	0.087
MS.373         	11.895         	0.073
MS.374         	11.87          	0.062
MS.375         	11.847         	0.073
MS.376         	11.822         	0.081
MS.377         	11.8           	0.087
MS.378         	11.775         	0.079
MS.379         	11.752         	0.06
MS.380         	11.73          	0.068
MS.381         	11.705         	0.056
MS.382         	11.682         	0.056
MS.383         	11.657         	0.06
MS.384         	11.635         	0.056
MS.385         	11.613         	0.058
MS.386         	11.59          	0.06
MS.387         	11.565         	0.042
MS.388         	11.542         	0.052
MS.389         	11.52          	0.054
MS.390         	11.497         	0.044
MS.391         	11.472         	0.046
MS.392         	11.45          	0.046
MS.393         	11.427         	0.044
MS.394         	11.405         	0.036
MS.395         	11.382         	0.038
MS.396         	11.36          	0.048
MS.397         	11.337         	0.044
MS.398         	11.315         	0.038
MS.399         	11.292         	0.044
MS.400         	11.27          	0.042
MS.401         	11.247         	0.044
MS.402         	11.225         	0.036
MS.403         	11.202         	0.042
MS.404         	11.18          	0.032
MS.405         	11.157         	0.04
MS.406         	11.135         	0.034
MS.407         	11.113         	0.024
MS.408         	11.09          	0.026
MS.409         	11.068         	0.036
MS.410         	11.045         	0.038
MS.411         	11.023         	0.028
MS.412         	11.002         	0.034
MS.413         	10.98          	0.022
MS.414         	10.957         	0.024
MS.415         	10.935         	0.026
MS.416         	10.915         	0.038
MS.417         	10.892         	0.02
MS.418         	10.87          	0.028
MS.419         	10.85          	0.034
MS.420         	10.827         	0.032
MS.421         	10.805         	0.032
MS.422         	10.785         	0.028
MS.423         	10.762         	0.024
MS.424         	10.74          	0.022
MS.425         	10.72          	0.028
MS.426         	10.698         	0.03
MS.427         	10.677         	0.032
MS.428         	10.655         	0.026
MS.429         	10.635         	0.026
MS.430         	10.613         	0.022
MS.431         	10.592         	0.026
MS.432         	10.57          	0.026
MS.433         	10.55          	0.022
MS.434         	10.528         	0.03
MS.435         	10.507         	0.026
MS.436         	10.485         	0.028
MS.437         	10.465         	0.024
MS.438         	10.445         	0.024
MS.439         	10.422         	0.022
MS.440         	10.403         	0.028
MS.441         	10.382         	0.026
MS.442         	10.36          	0.022
MS.443         	10.34          	0.02
MS.444         	10.32          	0.024
MS.445         	10.3           	0.02
MS.446         	10.278         	0.02
MS.447         	10.257         	0.018
MS.448         	10.238         	0.018
MS.449         	10.217         	0.026
MS.450         	10.198         	0.018
MS.451         	10.175         	0.016
MS.452         	10.155         	0.02
MS.453         	10.135         	0.026
MS.454         	10.115         	0.02
MS.455         	10.095         	0.022
MS.456         	10.075         	0.022
MS.457         	10.055         	0.02
MS.458         	10.035         	0.028
MS.459         	10.015         	0.02
MS.460         	9.995          	0.02
MS.461         	9.975          	0.01
MS.462         	9.955          	0.01
MS.463         	9.935          	0.022
MS.464         	9.915          	0.022
MS.465         	9.895          	0.022
MS.466         	9.875          	0.014
MS.467         	9.855          	0.012
MS.468         	9.835          	0.016
MS.469         	9.818          	0.026
MS.470         	9.797          	0.02
MS.471         	9.778          	0.012
DERIVED EXCITABILITY VARIABLES
Program = QTracP 3/4/2020
Threshold method = 6 (optimised for CAP, using data for present condition only)
SR method = 1 (using actual data values)
6.                 	0.000               	Peak response\(mV)
9.                 	32.3                	Temperature ( C)
17.                	68                  	Age (years)
18.                	2                   	Sex (M=1, F=2)

EXTRA VARIABLES

MScPeak(mV) = 6.62
MScS5(mA) = 13.5
MScS50(mA) = 17.07
MScS95(mA) = 20.92
MScNSteps = 0
MScSteps(%) = 0.0
MScStepMax(%) = 0.0
MScD50 = 49
MScSlope = 5.54
MSFPeakAmp(mV) = 6.63
MSFNUnits = 184
MSFMeanUnitAmp(uV) = 36.1
MSFHuntTime(m) = 3.24
MSFError(%) = 1.57
MSFNLarge = 60.99
MSFMedianAmp(%) = 0.473
MSFMedianAmp(mV) = 0.0314
MSFHalfAmpAmp(%) = 0.555
MSFHalfAmpAmp(mV) = 0.0368
MSFLargestAmp(%) = 3.3
MSFLargestAmp(mV) = 0.219
MSFMeanRS(%) = 2
MSFOpts = 10106121
MScDuration(min) = 4.2
MSFTraces = 429
MSFSizeLimit(uV) = 16.6
MSFLimitType = 1
MSFSmallestAmp(uV) = 16.8

EXTRA WAVEFORMS


!MScan Model
!184
	1	11.67	0.47	2
	2	11.93	0.35	2
	3	12.08	0.33	2.4
	4	12.09	0.31	2
	5	12.24	0.31	2
