File:              	C:\Qtrac\Data\Daniel M Sørensen\MScan multicentre study\Data from centres\Antalya\Processed data\TR.NC.ANT.4.2- NCC00329E.QZD
Name:              	TR.NC.ANT.4.2
Protocol:          	MSCAN-R2
Date:              	29/3/20
Start time:        	20:52:44
Age:               	21
Sex:               	f
Temperature:       	30.3
S/R sites:         	TA
NC/disease:        	NC
Operator:          	ab
Comments:          	left TA
M-SCAN DATA (7.2-1.8m)
Scanpts: 11, 17, 566, 587
Stim. (mA)     	Amp. (mV)
MS.1           	33.5           	7.233
MS.2           	33.5           	7.227
MS.3           	33.5           	7.201
MS.4           	33.5           	7.195
MS.5           	33.5           	7.217
MS.6           	33.5           	7.205
MS.7           	33.5           	7.18
MS.8           	33.5           	7.217
MS.9           	33.5           	7.158
MS.10          	33.5           	7.191
MS.11          	33.5           	7.17
MS.12          	33.5           	7.156
MS.13          	33.5           	7.148
MS.14          	33.5           	7.156
MS.15          	33.5           	7.185
MS.16          	33.5           	7.16
MS.17          	33.5           	7.191
MS.18          	33.5           	7.166
MS.19          	33.5           	7.197
MS.20          	33.5           	7.152
MS.21          	33.5           	7.168
MS.22          	33.5           	7.162
MS.23          	33.365         	7.07
MS.24          	33.3           	7.1
MS.25          	33.232         	7.176
MS.26          	33.167         	7.164
MS.27          	33.1           	7.134
MS.28          	33.035         	7.178
MS.29          	32.967         	7.185
MS.30          	32.903         	7.17
MS.31          	32.837         	7.15
MS.32          	32.77          	7.164
MS.33          	32.705         	7.185
MS.34          	32.64          	7.126
MS.35          	32.575         	7.136
MS.36          	32.51          	7.128
MS.37          	32.445         	7.142
MS.38          	32.38          	7.146
MS.39          	32.315         	7.138
MS.40          	32.25          	7.197
MS.41          	32.188         	7.154
MS.42          	32.122         	7.09
MS.43          	32.057         	7.11
MS.44          	31.995         	7.102
MS.45          	31.93          	7.128
MS.46          	31.865         	7.126
MS.47          	31.802         	7.118
MS.48          	31.74          	7.13
MS.49          	31.675         	7.096
MS.50          	31.612         	7.092
MS.51          	31.55          	7.102
MS.52          	31.485         	7.124
MS.53          	31.422         	7.082
MS.54          	31.36          	7.08
MS.55          	31.297         	7.13
MS.56          	31.235         	7.094
MS.57          	31.172         	7.09
MS.58          	31.11          	7.106
MS.59          	31.047         	7.09
MS.60          	30.985         	7.094
MS.61          	30.925         	7.05
MS.62          	30.862         	7.074
MS.63          	30.8           	7.1
MS.64          	30.74          	7.08
MS.65          	30.677         	7.048
MS.66          	30.617         	7.048
MS.67          	30.555         	7.037
MS.68          	30.495         	7.05
MS.69          	30.432         	7.025
MS.70          	30.372         	6.995
MS.71          	30.312         	6.987
MS.72          	30.252         	7.001
MS.73          	30.19          	7.003
MS.74          	30.13          	6.987
MS.75          	30.07          	6.937
MS.76          	30.01          	6.985
MS.77          	29.95          	6.943
MS.78          	29.89          	6.953
MS.79          	29.83          	6.939
MS.80          	29.77          	6.909
MS.81          	29.712         	6.951
MS.82          	29.653         	6.896
MS.83          	29.592         	6.905
MS.84          	29.535         	6.876
MS.85          	29.475         	6.84
MS.86          	29.415         	6.85
MS.87          	29.358         	6.888
MS.88          	29.297         	6.864
MS.89          	29.24          	6.894
MS.90          	29.182         	6.864
MS.91          	29.122         	6.774
MS.92          	29.065         	6.834
MS.93          	29.007         	6.741
MS.94          	28.95          	6.78
MS.95          	28.892         	6.768
MS.96          	28.832         	6.751
MS.97          	28.775         	6.701
MS.98          	28.717         	6.699
MS.99          	28.66          	6.661
MS.100         	28.605         	6.667
MS.101         	28.547         	6.723
MS.102         	28.49          	6.598
MS.103         	28.432         	6.695
MS.104         	28.375         	6.58
MS.105         	28.32          	6.582
MS.106         	28.262         	6.604
MS.107         	28.205         	6.673
MS.108         	28.15          	6.518
MS.109         	28.092         	6.58
MS.110         	28.037         	6.59
MS.111         	27.983         	6.52
MS.112         	27.925         	6.53
MS.113         	27.87          	6.556
MS.114         	27.815         	6.51
MS.115         	27.757         	6.532
MS.116         	27.702         	6.463
MS.117         	27.647         	6.385
MS.118         	27.592         	6.409
MS.119         	27.537         	6.389
MS.120         	27.483         	6.399
MS.121         	27.427         	6.318
MS.122         	27.372         	6.316
MS.123         	27.317         	6.328
MS.124         	27.262         	6.3
MS.125         	27.21          	6.252
MS.126         	27.155         	6.29
MS.127         	27.1           	6.272
MS.128         	27.045         	6.177
MS.129         	26.993         	6.234
MS.130         	26.938         	6.21
MS.131         	26.885         	6.302
MS.132         	26.83          	6.155
MS.133         	26.778         	6.169
MS.134         	26.722         	6.141
MS.135         	26.67          	6.175
MS.136         	26.618         	6.063
MS.137         	26.562         	6.047
MS.138         	26.51          	6.183
MS.139         	26.457         	5.954
MS.140         	26.405         	5.988
MS.141         	26.352         	5.936
MS.142         	26.3           	6.026
MS.143         	26.247         	6
MS.144         	26.195         	5.954
MS.145         	26.142         	5.853
MS.146         	26.09          	5.813
MS.147         	26.037         	5.92
MS.148         	25.985         	5.885
MS.149         	25.932         	5.873
MS.150         	25.882         	5.809
MS.151         	25.83          	5.799
MS.152         	25.778         	5.763
MS.153         	25.727         	5.742
MS.154         	25.675         	5.712
MS.155         	25.625         	5.716
MS.156         	25.573         	5.69
MS.157         	25.522         	5.634
MS.158         	25.47          	5.644
MS.159         	25.42          	5.63
MS.160         	25.37          	5.535
MS.161         	25.317         	5.499
MS.162         	25.267         	5.333
MS.163         	25.217         	5.366
MS.164         	25.167         	5.416
MS.165         	25.118         	5.38
MS.166         	25.067         	5.329
MS.167         	25.017         	5.398
MS.168         	24.967         	5.36
MS.169         	24.917         	5.321
MS.170         	24.868         	5.15
MS.171         	24.817         	5.213
MS.172         	24.767         	5.058
MS.173         	24.717         	5.015
MS.174         	24.67          	5.108
MS.175         	24.62          	5.009
MS.176         	24.57          	4.953
MS.177         	24.522         	4.997
MS.178         	24.472         	4.874
MS.179         	24.422         	4.947
MS.180         	24.375         	4.904
MS.181         	24.325         	4.782
MS.182         	24.278         	4.862
MS.183         	24.23          	4.842
MS.184         	24.18          	4.705
MS.185         	24.132         	4.713
MS.186         	24.085         	4.58
MS.187         	24.035         	4.677
MS.188         	23.987         	4.673
MS.189         	23.94          	4.566
MS.190         	23.892         	4.552
MS.191         	23.845         	4.546
MS.192         	23.797         	4.528
MS.193         	23.75          	4.419
MS.194         	23.702         	4.336
MS.195         	23.655         	4.393
MS.196         	23.608         	4.385
MS.197         	23.56          	4.296
MS.198         	23.512         	4.256
MS.199         	23.465         	4.113
MS.200         	23.42          	4.183
MS.201         	23.372         	4.262
MS.202         	23.325         	4.03
MS.203         	23.28          	4.075
MS.204         	23.233         	4.073
MS.205         	23.185         	4.125
MS.206         	23.14          	4.03
MS.207         	23.092         	4.091
MS.208         	23.047         	3.948
MS.209         	23             	3.928
MS.210         	22.955         	3.76
MS.211         	22.91          	3.827
MS.212         	22.862         	3.611
MS.213         	22.817         	3.734
MS.214         	22.772         	3.543
MS.215         	22.727         	3.491
MS.216         	22.682         	3.545
MS.217         	22.635         	3.47
MS.218         	22.59          	3.525
MS.219         	22.545         	3.406
MS.220         	22.5           	3.337
MS.221         	22.455         	3.396
MS.222         	22.41          	3.239
MS.223         	22.365         	3.168
MS.224         	22.323         	3.223
MS.225         	22.278         	3.118
MS.226         	22.233         	3.078
MS.227         	22.188         	3.068
MS.228         	22.142         	3.088
MS.229         	22.1           	3.088
MS.230         	22.055         	2.927
MS.231         	22.01          	2.985
MS.232         	21.967         	2.816
MS.233         	21.922         	2.735
MS.234         	21.88          	2.856
MS.235         	21.835         	2.818
MS.236         	21.792         	2.761
MS.237         	21.747         	2.78
MS.238         	21.705         	2.778
MS.239         	21.663         	2.459
MS.240         	21.618         	2.57
MS.241         	21.575         	2.628
MS.242         	21.532         	2.492
MS.243         	21.49          	2.427
MS.244         	21.445         	2.411
MS.245         	21.403         	2.296
MS.246         	21.36          	2.353
MS.247         	21.317         	2.308
MS.248         	21.275         	2.431
MS.249         	21.233         	2.216
MS.250         	21.19          	2.264
MS.251         	21.147         	2.159
MS.252         	21.105         	2.062
MS.253         	21.062         	2.147
MS.254         	21.022         	1.98
MS.255         	20.98          	2.032
MS.256         	20.938         	2.062
MS.257         	20.895         	1.847
MS.258         	20.855         	1.76
MS.259         	20.812         	1.877
MS.260         	20.77          	1.754
MS.261         	20.73          	1.74
MS.262         	20.688         	1.615
MS.263         	20.647         	1.67
MS.264         	20.605         	1.527
MS.265         	20.565         	1.615
MS.266         	20.522         	1.43
MS.267         	20.483         	1.629
MS.268         	20.44          	1.46
MS.269         	20.4           	1.553
MS.270         	20.36          	1.366
MS.271         	20.317         	1.392
MS.272         	20.278         	1.307
MS.273         	20.237         	1.206
MS.274         	20.198         	1.251
MS.275         	20.157         	1.17
MS.276         	20.118         	1.249
MS.277         	20.077         	1.158
MS.278         	20.035         	1.198
MS.279         	19.995         	1.174
MS.280         	19.955         	1.134
MS.281         	19.917         	1.104
MS.282         	19.877         	1.098
MS.283         	19.837         	1.021
MS.284         	19.797         	1.013
MS.285         	19.757         	1.025
MS.286         	19.717         	0.963
MS.287         	19.68          	0.957
MS.288         	19.64          	0.949
MS.289         	19.6           	0.933
MS.290         	19.56          	0.83
MS.291         	19.522         	0.788
MS.292         	19.483         	0.832
MS.293         	19.445         	0.784
MS.294         	19.405         	0.826
MS.295         	19.368         	0.796
MS.296         	19.327         	0.729
MS.297         	19.29          	0.699
MS.298         	19.25          	0.707
MS.299         	19.212         	0.721
MS.300         	19.172         	0.765
MS.301         	19.135         	0.687
MS.302         	19.097         	0.709
MS.303         	19.06          	0.667
MS.304         	19.02          	0.649
MS.305         	18.983         	0.689
MS.306         	18.945         	0.592
MS.307         	18.907         	0.606
MS.308         	18.87          	0.576
MS.309         	18.833         	0.558
MS.310         	18.795         	0.572
MS.311         	18.757         	0.52
MS.312         	18.72          	0.491
MS.313         	18.682         	0.447
MS.314         	18.645         	0.469
MS.315         	18.608         	0.465
MS.316         	18.57          	0.463
MS.317         	18.532         	0.445
MS.318         	18.495         	0.439
MS.319         	18.46          	0.409
MS.320         	18.422         	0.455
MS.321         	18.385         	0.365
MS.322         	18.347         	0.369
MS.323         	18.312         	0.387
MS.324         	18.275         	0.357
MS.325         	18.237         	0.342
MS.326         	18.202         	0.403
MS.327         	18.165         	0.375
MS.328         	18.13          	0.357
MS.329         	18.092         	0.371
MS.330         	18.057         	0.33
MS.331         	18.02          	0.308
MS.332         	17.985         	0.308
MS.333         	17.95          	0.304
MS.334         	17.913         	0.29
MS.335         	17.878         	0.306
MS.336         	17.842         	0.302
MS.337         	17.805         	0.312
MS.338         	17.77          	0.31
MS.339         	17.735         	0.244
MS.340         	17.7           	0.286
MS.341         	17.665         	0.254
MS.342         	17.63          	0.256
MS.343         	17.592         	0.248
MS.344         	17.557         	0.266
MS.345         	17.522         	0.246
MS.346         	17.487         	0.252
MS.347         	17.452         	0.228
MS.348         	17.417         	0.218
MS.349         	17.385         	0.242
MS.350         	17.35          	0.224
MS.351         	17.315         	0.201
MS.352         	17.28          	0.211
MS.353         	17.245         	0.195
MS.354         	17.21          	0.228
MS.355         	17.177         	0.167
MS.356         	17.142         	0.177
MS.357         	17.108         	0.169
MS.358         	17.073         	0.171
MS.359         	17.04          	0.189
MS.360         	17.005         	0.169
MS.361         	16.972         	0.169
MS.362         	16.938         	0.135
MS.363         	16.905         	0.149
MS.364         	16.87          	0.147
MS.365         	16.837         	0.145
MS.366         	16.802         	0.133
MS.367         	16.77          	0.121
MS.368         	16.735         	0.139
MS.369         	16.702         	0.143
MS.370         	16.67          	0.125
MS.371         	16.635         	0.123
MS.372         	16.602         	0.123
MS.373         	16.57          	0.153
MS.374         	16.535         	0.119
MS.375         	16.503         	0.137
MS.376         	16.47          	0.121
MS.377         	16.438         	0.123
MS.378         	16.405         	0.121
MS.379         	16.372         	0.127
MS.380         	16.34          	0.107
MS.381         	16.305         	0.101
MS.382         	16.272         	0.113
MS.383         	16.24          	0.111
MS.384         	16.208         	0.113
MS.385         	16.175         	0.111
MS.386         	16.145         	0.115
MS.387         	16.112         	0.115
MS.388         	16.08          	0.105
MS.389         	16.047         	0.095
MS.390         	16.015         	0.105
MS.391         	15.983         	0.099
MS.392         	15.952         	0.093
MS.393         	15.92          	0.093
MS.394         	15.887         	0.095
MS.395         	15.855         	0.099
MS.396         	15.825         	0.097
MS.397         	15.792         	0.091
MS.398         	15.76          	0.089
MS.399         	15.73          	0.083
MS.400         	15.697         	0.099
MS.401         	15.667         	0.095
MS.402         	15.635         	0.087
MS.403         	15.605         	0.097
MS.404         	15.572         	0.083
MS.405         	15.542         	0.087
MS.406         	15.51          	0.085
MS.407         	15.48          	0.083
MS.408         	15.45          	0.083
MS.409         	15.417         	0.083
MS.410         	15.387         	0.085
MS.411         	15.358         	0.077
MS.412         	15.325         	0.081
MS.413         	15.295         	0.089
MS.414         	15.265         	0.083
MS.415         	15.235         	0.07
MS.416         	15.202         	0.085
MS.417         	15.172         	0.083
MS.418         	15.142         	0.083
MS.419         	15.112         	0.068
MS.420         	15.082         	0.064
MS.421         	15.052         	0.077
MS.422         	15.023         	0.068
MS.423         	14.992         	0.068
MS.424         	14.962         	0.073
MS.425         	14.932         	0.068
MS.426         	14.902         	0.07
MS.427         	14.872         	0.07
MS.428         	14.842         	0.073
MS.429         	14.812         	0.064
MS.430         	14.785         	0.073
MS.431         	14.755         	0.07
MS.432         	14.725         	0.07
MS.433         	14.695         	0.07
MS.434         	14.665         	0.073
MS.435         	14.637         	0.07
MS.436         	14.608         	0.068
MS.437         	14.577         	0.07
MS.438         	14.55          	0.068
MS.439         	14.52          	0.068
MS.440         	14.49          	0.073
MS.441         	14.462         	0.064
MS.442         	14.432         	0.075
MS.443         	14.405         	0.068
MS.444         	14.375         	0.06
MS.445         	14.347         	0.068
MS.446         	14.318         	0.07
MS.447         	14.29          	0.07
MS.448         	14.26          	0.064
MS.449         	14.233         	0.066
MS.450         	14.205         	0.066
MS.451         	14.175         	0.068
MS.452         	14.148         	0.064
MS.453         	14.12          	0.064
MS.454         	14.09          	0.068
MS.455         	14.062         	0.068
MS.456         	14.035         	0.054
MS.457         	14.007         	0.06
MS.458         	13.98          	0.068
MS.459         	13.95          	0.054
MS.460         	13.922         	0.062
MS.461         	13.895         	0.062
MS.462         	13.867         	0.054
MS.463         	13.84          	0.056
MS.464         	13.812         	0.06
MS.465         	13.785         	0.06
MS.466         	13.757         	0.058
MS.467         	13.73          	0.06
MS.468         	13.702         	0.052
MS.469         	13.675         	0.052
MS.470         	13.648         	0.052
MS.471         	13.62          	0.052
MS.472         	13.592         	0.05
MS.473         	13.565         	0.034
MS.474         	13.537         	0.052
MS.475         	13.512         	0.058
MS.476         	13.485         	0.05
MS.477         	13.457         	0.052
MS.478         	13.43          	0.056
MS.479         	13.405         	0.052
MS.480         	13.377         	0.052
MS.481         	13.35          	0.054
MS.482         	13.322         	0.05
MS.483         	13.297         	0.052
MS.484         	13.27          	0.052
MS.485         	13.245         	0.052
MS.486         	13.217         	0.05
MS.487         	13.19          	0.054
MS.488         	13.165         	0.036
MS.489         	13.137         	0.032
MS.490         	13.112         	0.052
MS.491         	13.085         	0.032
MS.492         	13.06          	0.036
MS.493         	13.032         	0.042
MS.494         	13.007         	0.036
MS.495         	12.983         	0.034
MS.496         	12.955         	0.034
MS.497         	12.93          	0.036
MS.498         	12.905         	0.036
MS.499         	12.877         	0.034
MS.500         	12.852         	0.036
MS.501         	12.827         	0.032
