File:              	C:\Qtrac\Data\Daniel M Sørensen\MScan multicentre study\Data from centres\Antalya\Processed data\TR.NC.ANT.8.1- NCC01115C.QZD
Name:              	TR.NC.ANT.8.1
Protocol:          	MSCAN-R2
Date:              	15/11/20
Start time:        	14:57:09
Age:               	45
Sex:               	f
Temperature:       	30.8
S/R sites:         	TA
NC/disease:        	NC
Operator:          	ab
Comments:
M-SCAN DATA (8.2-1m)
Scanpts: 30, 37, 743, 756
Stim. (mA)     	Amp. (mV)
MS.1           	28.5           	7.803
MS.2           	28.5           	7.797
MS.3           	28.5           	7.785
MS.4           	28.5           	7.765
MS.5           	28.5           	7.793
MS.6           	28.5           	7.746
MS.7           	28.5           	7.748
MS.8           	28.5           	7.75
MS.9           	28.5           	7.736
MS.10          	28.5           	7.718
MS.11          	28.5           	7.71
MS.12          	28.5           	7.742
MS.13          	28.5           	7.698
MS.14          	28.5           	7.72
MS.15          	28.5           	7.704
MS.16          	28.5           	7.7
MS.17          	28.5           	7.682
MS.18          	28.5           	7.686
MS.19          	28.5           	7.704
MS.20          	28.5           	7.69
MS.21          	28.5           	7.688
MS.22          	28.5           	7.696
MS.23          	28.5           	7.708
MS.24          	28.385         	7.666
MS.25          	28.33          	7.704
MS.26          	28.272         	7.664
MS.27          	28.217         	7.714
MS.28          	28.16          	7.682
MS.29          	28.102         	7.668
MS.30          	28.047         	7.664
MS.31          	27.993         	7.688
MS.32          	27.935         	7.666
MS.33          	27.88          	7.698
MS.34          	27.825         	7.678
MS.35          	27.767         	7.692
MS.36          	27.712         	7.684
MS.37          	27.657         	7.678
MS.38          	27.602         	7.688
MS.39          	27.547         	7.69
MS.40          	27.493         	7.706
MS.41          	27.438         	7.67
MS.42          	27.382         	7.698
MS.43          	27.327         	7.7
MS.44          	27.272         	7.676
MS.45          	27.217         	7.678
MS.46          	27.165         	7.676
MS.47          	27.11          	7.682
MS.48          	27.055         	7.676
MS.49          	27.002         	7.678
MS.50          	26.948         	7.668
MS.51          	26.895         	7.638
MS.52          	26.84          	7.676
MS.53          	26.787         	7.682
MS.54          	26.733         	7.668
MS.55          	26.68          	7.688
MS.56          	26.627         	7.684
MS.57          	26.573         	7.668
MS.58          	26.52          	7.654
MS.59          	26.467         	7.67
MS.60          	26.415         	7.664
MS.61          	26.362         	7.65
MS.62          	26.307         	7.66
MS.63          	26.255         	7.67
MS.64          	26.202         	7.66
MS.65          	26.153         	7.654
MS.66          	26.1           	7.66
MS.67          	26.047         	7.662
MS.68          	25.995         	7.648
MS.69          	25.942         	7.652
MS.70          	25.89          	7.652
MS.71          	25.84          	7.652
MS.72          	25.787         	7.644
MS.73          	25.735         	7.632
MS.74          	25.685         	7.638
MS.75          	25.632         	7.646
MS.76          	25.582         	7.624
MS.77          	25.53          	7.642
MS.78          	25.48          	7.65
MS.79          	25.43          	7.632
MS.80          	25.377         	7.626
MS.81          	25.327         	7.63
MS.82          	25.278         	7.565
MS.83          	25.227         	7.599
MS.84          	25.175         	7.64
MS.85          	25.125         	7.585
MS.86          	25.075         	7.628
MS.87          	25.025         	7.62
MS.88          	24.975         	7.628
MS.89          	24.925         	7.595
MS.90          	24.875         	7.622
MS.91          	24.825         	7.591
MS.92          	24.778         	7.543
MS.93          	24.727         	7.573
MS.94          	24.677         	7.607
MS.95          	24.627         	7.609
MS.96          	24.58          	7.537
MS.97          	24.53          	7.581
MS.98          	24.48          	7.537
MS.99          	24.432         	7.523
MS.100         	24.382         	7.553
MS.101         	24.335         	7.507
MS.102         	24.285         	7.551
MS.103         	24.237         	7.529
MS.104         	24.19          	7.577
MS.105         	24.14          	7.519
MS.106         	24.092         	7.533
MS.107         	24.045         	7.545
MS.108         	23.997         	7.517
MS.109         	23.948         	7.515
MS.110         	23.9           	7.521
MS.111         	23.852         	7.527
MS.112         	23.805         	7.509
MS.113         	23.757         	7.529
MS.114         	23.71          	7.497
MS.115         	23.663         	7.501
MS.116         	23.615         	7.509
MS.117         	23.567         	7.507
MS.118         	23.52          	7.515
MS.119         	23.475         	7.525
MS.120         	23.427         	7.519
MS.121         	23.38          	7.495
MS.122         	23.332         	7.477
MS.123         	23.288         	7.507
MS.124         	23.24          	7.466
MS.125         	23.195         	7.491
MS.126         	23.147         	7.46
MS.127         	23.102         	7.515
MS.128         	23.055         	7.444
MS.129         	23.01          	7.464
MS.130         	22.962         	7.469
MS.131         	22.917         	7.491
MS.132         	22.872         	7.485
MS.133         	22.825         	7.491
MS.134         	22.78          	7.489
MS.135         	22.735         	7.479
MS.136         	22.69          	7.464
MS.137         	22.645         	7.473
MS.138         	22.6           	7.466
MS.139         	22.552         	7.483
MS.140         	22.507         	7.434
MS.141         	22.462         	7.477
MS.142         	22.42          	7.464
MS.143         	22.375         	7.446
MS.144         	22.33          	7.454
MS.145         	22.285         	7.456
MS.146         	22.24          	7.458
MS.147         	22.195         	7.458
MS.148         	22.153         	7.466
MS.149         	22.108         	7.442
MS.150         	22.062         	7.44
MS.151         	22.02          	7.458
MS.152         	21.975         	7.436
MS.153         	21.93          	7.42
MS.154         	21.887         	7.424
MS.155         	21.842         	7.41
MS.156         	21.8           	7.4
MS.157         	21.755         	7.414
MS.158         	21.712         	7.398
MS.159         	21.67          	7.408
MS.160         	21.625         	7.422
MS.161         	21.583         	7.44
MS.162         	21.54          	7.388
MS.163         	21.497         	7.424
MS.164         	21.455         	7.38
MS.165         	21.41          	7.382
MS.166         	21.368         	7.358
MS.167         	21.325         	7.376
MS.168         	21.282         	7.366
MS.169         	21.24          	7.364
MS.170         	21.198         	7.364
MS.171         	21.155         	7.358
MS.172         	21.112         	7.36
MS.173         	21.07          	7.358
MS.174         	21.03          	7.354
MS.175         	20.987         	7.317
MS.176         	20.945         	7.352
MS.177         	20.903         	7.328
MS.178         	20.862         	7.33
MS.179         	20.82          	7.35
MS.180         	20.778         	7.297
MS.181         	20.737         	7.321
MS.182         	20.695         	7.344
MS.183         	20.655         	7.273
MS.184         	20.612         	7.309
MS.185         	20.573         	7.332
MS.186         	20.53          	7.299
MS.187         	20.49          	7.281
MS.188         	20.448         	7.277
MS.189         	20.407         	7.315
MS.190         	20.368         	7.285
MS.191         	20.325         	7.307
MS.192         	20.285         	7.291
MS.193         	20.245         	7.307
MS.194         	20.205         	7.326
MS.195         	20.165         	7.321
MS.196         	20.122         	7.285
MS.197         	20.083         	7.307
MS.198         	20.042         	7.303
MS.199         	20.002         	7.273
MS.200         	19.962         	7.297
MS.201         	19.922         	7.241
MS.202         	19.882         	7.281
MS.203         	19.845         	7.247
MS.204         	19.805         	7.301
MS.205         	19.765         	7.255
MS.206         	19.725         	7.207
MS.207         	19.685         	7.178
MS.208         	19.647         	7.189
MS.209         	19.608         	7.235
MS.210         	19.567         	7.189
MS.211         	19.53          	7.17
MS.212         	19.49          	7.166
MS.213         	19.45          	7.197
MS.214         	19.413         	7.158
MS.215         	19.372         	7.164
MS.216         	19.335         	7.158
MS.217         	19.295         	7.14
MS.218         	19.257         	7.082
MS.219         	19.22          	7.086
MS.220         	19.18          	7.076
MS.221         	19.142         	7.142
MS.222         	19.105         	7.11
MS.223         	19.065         	7.062
MS.224         	19.028         	7.1
MS.225         	18.99          	7.058
MS.226         	18.952         	7.078
MS.227         	18.915         	7.092
MS.228         	18.875         	6.961
MS.229         	18.837         	7.035
MS.230         	18.8           	7.015
MS.231         	18.762         	6.919
MS.232         	18.725         	6.955
MS.233         	18.688         	6.969
MS.234         	18.65          	7.007
MS.235         	18.612         	6.953
MS.236         	18.577         	6.818
MS.237         	18.54          	7.007
MS.238         	18.503         	6.886
MS.239         	18.465         	6.911
MS.240         	18.427         	6.81
MS.241         	18.392         	6.826
MS.242         	18.355         	6.87
MS.243         	18.317         	6.834
MS.244         	18.282         	6.886
MS.245         	18.245         	6.943
MS.246         	18.208         	6.852
MS.247         	18.172         	6.812
MS.248         	18.135         	6.677
MS.249         	18.1           	6.818
MS.250         	18.062         	6.854
MS.251         	18.028         	6.878
MS.252         	17.993         	6.778
MS.253         	17.955         	6.864
MS.254         	17.92          	6.82
MS.255         	17.885         	6.888
MS.256         	17.847         	6.878
MS.257         	17.812         	6.739
MS.258         	17.778         	6.77
MS.259         	17.743         	6.691
MS.260         	17.705         	6.729
MS.261         	17.67          	6.766
MS.262         	17.635         	6.812
MS.263         	17.6           	6.844
MS.264         	17.565         	6.848
MS.265         	17.53          	6.874
MS.266         	17.495         	6.768
MS.267         	17.46          	6.695
MS.268         	17.425         	6.661
MS.269         	17.39          	6.749
MS.270         	17.355         	6.778
MS.271         	17.32          	6.751
MS.272         	17.285         	6.596
MS.273         	17.253         	6.709
MS.274         	17.217         	6.707
MS.275         	17.182         	6.683
MS.276         	17.147         	6.647
MS.277         	17.115         	6.749
MS.278         	17.08          	6.711
MS.279         	17.045         	6.566
MS.280         	17.012         	6.657
MS.281         	16.977         	6.735
MS.282         	16.945         	6.645
MS.283         	16.91          	6.647
MS.284         	16.875         	6.564
MS.285         	16.842         	6.566
MS.286         	16.81          	6.6
MS.287         	16.775         	6.562
MS.288         	16.743         	6.522
MS.289         	16.708         	6.558
MS.290         	16.675         	6.516
MS.291         	16.642         	6.556
MS.292         	16.608         	6.52
MS.293         	16.575         	6.417
MS.294         	16.542         	6.437
MS.295         	16.51          	6.449
MS.296         	16.475         	6.437
MS.297         	16.442         	6.471
MS.298         	16.41          	6.484
MS.299         	16.378         	6.365
MS.300         	16.345         	6.429
MS.301         	16.312         	6.282
MS.302         	16.28          	6.341
MS.303         	16.247         	6.234
MS.304         	16.215         	6.276
MS.305         	16.182         	6.163
MS.306         	16.15          	6.097
MS.307         	16.118         	6.165
MS.308         	16.085         	6.159
MS.309         	16.052         	6.163
MS.310         	16.02          	6.065
MS.311         	15.99          	6.006
MS.312         	15.957         	6.047
MS.313         	15.925         	6.097
MS.314         	15.892         	5.976
MS.315         	15.862         	6.093
MS.316         	15.83          	5.859
MS.317         	15.797         	6.01
MS.318         	15.767         	5.95
MS.319         	15.735         	5.821
MS.320         	15.705         	6.018
MS.321         	15.672         	6.032
MS.322         	15.64          	5.95
MS.323         	15.61          	5.76
MS.324         	15.577         	5.893
MS.325         	15.547         	5.835
MS.326         	15.517         	5.777
MS.327         	15.485         	5.748
MS.328         	15.455         	5.779
MS.329         	15.422         	5.769
MS.330         	15.392         	5.756
MS.331         	15.362         	5.634
MS.332         	15.332         	5.65
MS.333         	15.3           	5.644
MS.334         	15.27          	5.527
MS.335         	15.24          	5.585
MS.336         	15.21          	5.466
MS.337         	15.18          	5.523
MS.338         	15.148         	5.267
MS.339         	15.117         	5.489
MS.340         	15.087         	5.207
MS.341         	15.057         	5.213
MS.342         	15.027         	5.474
MS.343         	14.997         	5.535
MS.344         	14.967         	5.235
MS.345         	14.938         	5.285
MS.346         	14.907         	5.215
MS.347         	14.877         	5.027
MS.348         	14.847         	5.267
MS.349         	14.82          	5.267
MS.350         	14.79          	5.277
MS.351         	14.76          	5.126
MS.352         	14.73          	5.102
MS.353         	14.7           	5.19
MS.354         	14.672         	5.213
MS.355         	14.642         	5.007
MS.356         	14.612         	4.906
MS.357         	14.582         	4.836
MS.358         	14.555         	4.759
MS.359         	14.525         	5.001
MS.360         	14.497         	4.858
MS.361         	14.467         	4.878
MS.362         	14.438         	4.618
MS.363         	14.41          	4.451
MS.364         	14.38          	4.465
MS.365         	14.352         	4.488
MS.366         	14.322         	4.441
MS.367         	14.295         	4.409
MS.368         	14.267         	4.145
MS.369         	14.237         	4.232
MS.370         	14.21          	4.272
MS.371         	14.18          	4.143
MS.372         	14.153         	4.161
MS.373         	14.125         	3.958
MS.374         	14.095         	4.25
MS.375         	14.068         	4.097
MS.376         	14.04          	4
MS.377         	14.012         	3.803
MS.378         	13.985         	3.879
MS.379         	13.955         	3.926
MS.380         	13.927         	3.839
MS.381         	13.9           	3.758
MS.382         	13.872         	3.865
MS.383         	13.845         	3.76
MS.384         	13.818         	3.736
MS.385         	13.79          	3.678
MS.386         	13.762         	3.65
MS.387         	13.735         	3.666
MS.388         	13.707         	3.72
MS.389         	13.68          	3.553
MS.390         	13.653         	3.609
MS.391         	13.625         	3.762
MS.392         	13.597         	3.541
MS.393         	13.57          	3.545
MS.394         	13.542         	3.505
MS.395         	13.517         	3.563
MS.396         	13.49          	3.491
MS.397         	13.462         	3.497
MS.398         	13.435         	3.513
MS.399         	13.407         	3.426
MS.400         	13.382         	3.38
MS.401         	13.355         	3.501
MS.402         	13.327         	3.577
MS.403         	13.302         	3.525
MS.404         	13.275         	3.41
MS.405         	13.247         	3.366
MS.406         	13.222         	3.321
MS.407         	13.195         	3.406
MS.408         	13.17          	3.259
MS.409         	13.142         	3.422
MS.410         	13.117         	3.376
MS.411         	13.09          	3.344
MS.412         	13.065         	3.406
MS.413         	13.037         	3.412
MS.414         	13.012         	3.38
MS.415         	12.987         	3.309
MS.416         	12.96          	3.416
MS.417         	12.935         	3.396
MS.418         	12.907         	3.311
MS.419         	12.882         	3.311
MS.420         	12.858         	3.15
MS.421         	12.832         	3.201
MS.422         	12.805         	3.221
MS.423         	12.78          	3.19
MS.424         	12.755         	3.033
MS.425         	12.73          	3.009
MS.426         	12.705         	3.152
MS.427         	12.677         	2.983
MS.428         	12.653         	3.134
MS.429         	12.627         	3.08
MS.430         	12.602         	2.965
MS.431         	12.577         	3.037
MS.432         	12.552         	2.995
MS.433         	12.528         	2.921
MS.434         	12.502         	2.947
MS.435         	12.477         	2.941
MS.436         	12.452         	2.86
MS.437         	12.427         	2.88
MS.438         	12.403         	2.906
MS.439         	12.377         	2.778
MS.440         	12.352         	2.769
MS.441         	12.327         	2.707
MS.442         	12.302         	2.699
MS.443         	12.28          	2.715
MS.444         	12.255         	2.675
MS.445         	12.23          	2.61
MS.446         	12.205         	2.641
MS.447         	12.182         	2.596
MS.448         	12.157         	2.584
MS.449         	12.132         	2.538
MS.450         	12.108         	2.496
MS.451         	12.085         	2.616
MS.452         	12.06          	2.574
MS.453         	12.035         	2.514
MS.454         	12.012         	2.397
MS.455         	11.988         	2.485
MS.456         	11.965         	2.467
MS.457         	11.94          	2.473
MS.458         	11.915         	2.322
MS.459         	11.892         	2.393
MS.460         	11.867         	2.409
MS.461         	11.845         	2.417
MS.462         	11.822         	2.332
MS.463         	11.797         	2.322
MS.464         	11.775         	2.296
MS.465         	11.75          	2.234
MS.466         	11.727         	2.169
MS.467         	11.702         	2.292
MS.468         	11.68          	2.23
MS.469         	11.657         	2.141
MS.470         	11.632         	2.103
MS.471         	11.61          	2.113
MS.472         	11.587         	2.177
MS.473         	11.565         	2.151
MS.474         	11.54          	2.087
MS.475         	11.517         	2.083
MS.476         	11.495         	2.01
MS.477         	11.472         	2.083
MS.478         	11.45          	2.085
MS.479         	11.425         	2.008
MS.480         	11.403         	1.952
MS.481         	11.38          	2.024
MS.482         	11.358         	1.962
MS.483         	11.335         	1.936
MS.484         	11.312         	1.843
MS.485         	11.29          	1.813
MS.486         	11.267         	1.768
MS.487         	11.245         	1.849
MS.488         	11.222         	1.779
MS.489         	11.2           	1.738
MS.490         	11.177         	1.633
MS.491         	11.155         	1.785
MS.492         	11.132         	1.712
MS.493         	11.11          	1.668
MS.494         	11.087         	1.571
MS.495         	11.068         	1.623
MS.496         	11.045         	1.617
MS.497         	11.023         	1.611
MS.498         	11             	1.706
MS.499         	10.977         	1.551
MS.500         	10.955         	1.484
MS.501         	10.935         	1.428
