File:              	C:\Qtrac\Data\Daniel M Sørensen\MScan multicentre study\Data from centres\Antalya\Processed data\TR.NC.ANT.6.1- HLC00915B.QZD
Name:              	TR.NC.ANT.6.1
Protocol:          	MSCAN-R2
Date:              	15/9/20
Start time:        	13:43:19
Age:               	27
Sex:               	m
Temperature:       	34.1
S/R sites:         	APB
NC/disease:        	NC
Operator:          	ab
Comments:
M-SCAN DATA (7.1-0.9m)
Scanpts: 261, 267, 605, 620
Stim. (mA)     	Amp. (mV)
MS.1           	16.5           	13.05
MS.2           	16.5           	13.03
MS.3           	16.5           	13.052
MS.4           	16.5           	13.011
MS.5           	16.5           	13.018
MS.6           	16.5           	12.997
MS.7           	16.5           	13.011
MS.8           	16.5           	13.005
MS.9           	16.5           	13.026
MS.10          	16.5           	13.036
MS.11          	16.5           	13.018
MS.12          	16.5           	13.016
MS.13          	16.5           	13.009
MS.14          	16.5           	13.003
MS.15          	16.5           	12.987
MS.16          	16.5           	12.999
MS.17          	16.5           	12.993
MS.18          	16.5           	12.989
MS.19          	16.5           	13.003
MS.20          	16.5           	13.026
MS.21          	16.5           	13.034
MS.22          	16.5           	13.013
MS.23          	16.5           	13.086
MS.24          	16.435         	13.026
MS.25          	16.4           	13.024
MS.26          	16.368         	13.044
MS.27          	16.335         	13.048
MS.28          	16.302         	13.046
MS.29          	16.27          	13.046
MS.30          	16.237         	13.078
MS.31          	16.205         	13.086
MS.32          	16.172         	13.108
MS.33          	16.14          	13.104
MS.34          	16.108         	13.108
MS.35          	16.077         	13.108
MS.36          	16.045         	13.104
MS.37          	16.012         	13.124
MS.38          	15.98          	13.124
MS.39          	15.947         	13.136
MS.40          	15.917         	13.134
MS.41          	15.885         	13.13
MS.42          	15.852         	13.126
MS.43          	15.822         	13.118
MS.44          	15.79          	13.108
MS.45          	15.757         	13.094
MS.46          	15.727         	13.11
MS.47          	15.695         	13.102
MS.48          	15.665         	13.102
MS.49          	15.632         	13.026
MS.50          	15.602         	12.979
MS.51          	15.57          	12.959
MS.52          	15.54          	12.967
MS.53          	15.507         	12.953
MS.54          	15.477         	12.943
MS.55          	15.445         	12.955
MS.56          	15.415         	12.965
MS.57          	15.385         	12.963
MS.58          	15.352         	12.979
MS.59          	15.322         	12.983
MS.60          	15.292         	12.977
MS.61          	15.262         	12.967
MS.62          	15.233         	12.971
MS.63          	15.2           	12.977
MS.64          	15.17          	12.983
MS.65          	15.14          	12.965
MS.66          	15.11          	12.967
MS.67          	15.08          	12.941
MS.68          	15.05          	12.965
MS.69          	15.02          	12.957
MS.70          	14.99          	12.951
MS.71          	14.96          	12.957
MS.72          	14.93          	12.969
MS.73          	14.9           	12.979
MS.74          	14.87          	12.961
MS.75          	14.84          	12.961
MS.76          	14.81          	12.927
MS.77          	14.78          	12.931
MS.78          	14.752         	12.925
MS.79          	14.722         	12.911
MS.80          	14.693         	12.897
MS.81          	14.662         	12.925
MS.82          	14.635         	12.921
MS.83          	14.605         	12.917
MS.84          	14.575         	12.901
MS.85          	14.547         	12.899
MS.86          	14.517         	12.907
MS.87          	14.487         	12.907
MS.88          	14.46          	12.907
MS.89          	14.43          	12.895
MS.90          	14.403         	12.854
MS.91          	14.372         	12.885
MS.92          	14.345         	12.879
MS.93          	14.315         	12.897
MS.94          	14.287         	12.911
MS.95          	14.257         	12.933
MS.96          	14.23          	12.921
MS.97          	14.202         	12.893
MS.98          	14.172         	12.923
MS.99          	14.145         	12.923
MS.100         	14.117         	12.933
MS.101         	14.087         	12.923
MS.102         	14.06          	12.917
MS.103         	14.032         	12.907
MS.104         	14.005         	12.921
MS.105         	13.975         	12.899
MS.106         	13.947         	12.911
MS.107         	13.92          	12.929
MS.108         	13.892         	12.915
MS.109         	13.865         	12.927
MS.110         	13.837         	12.931
MS.111         	13.81          	12.921
MS.112         	13.782         	12.905
MS.113         	13.755         	12.901
MS.114         	13.727         	12.895
MS.115         	13.7           	12.905
MS.116         	13.672         	12.889
MS.117         	13.645         	12.872
MS.118         	13.617         	12.87
MS.119         	13.59          	12.852
MS.120         	13.562         	12.85
MS.121         	13.535         	12.848
MS.122         	13.51          	12.854
MS.123         	13.483         	12.812
MS.124         	13.455         	12.776
MS.125         	13.427         	12.804
MS.126         	13.403         	12.806
MS.127         	13.375         	12.812
MS.128         	13.347         	12.812
MS.129         	13.32          	12.806
MS.130         	13.295         	12.836
MS.131         	13.267         	12.812
MS.132         	13.242         	12.82
MS.133         	13.215         	12.8
MS.134         	13.188         	12.814
MS.135         	13.162         	12.816
MS.136         	13.135         	12.794
MS.137         	13.11          	12.814
MS.138         	13.082         	12.808
MS.139         	13.057         	12.806
MS.140         	13.032         	12.794
MS.141         	13.005         	12.768
MS.142         	12.98          	12.76
MS.143         	12.952         	12.766
MS.144         	12.927         	12.744
MS.145         	12.903         	12.705
MS.146         	12.875         	12.701
MS.147         	12.85          	12.681
MS.148         	12.825         	12.673
MS.149         	12.8           	12.659
MS.150         	12.773         	12.669
MS.151         	12.747         	12.679
MS.152         	12.722         	12.677
MS.153         	12.697         	12.705
MS.154         	12.672         	12.675
MS.155         	12.645         	12.721
MS.156         	12.62          	12.707
MS.157         	12.595         	12.736
MS.158         	12.57          	12.746
MS.159         	12.545         	12.766
MS.160         	12.52          	12.734
MS.161         	12.495         	12.756
MS.162         	12.47          	12.774
MS.163         	12.445         	12.762
MS.164         	12.42          	12.774
MS.165         	12.395         	12.756
MS.166         	12.37          	12.782
MS.167         	12.347         	12.76
MS.168         	12.322         	12.754
MS.169         	12.297         	12.77
MS.170         	12.273         	12.762
MS.171         	12.247         	12.762
MS.172         	12.222         	12.756
MS.173         	12.2           	12.732
MS.174         	12.175         	12.738
MS.175         	12.15          	12.725
MS.176         	12.125         	12.723
MS.177         	12.102         	12.699
MS.178         	12.077         	12.701
MS.179         	12.052         	12.641
MS.180         	12.03          	12.649
MS.181         	12.005         	12.657
MS.182         	11.983         	12.661
MS.183         	11.957         	12.625
MS.184         	11.932         	12.647
MS.185         	11.91          	12.657
MS.186         	11.885         	12.635
MS.187         	11.863         	12.615
MS.188         	11.837         	12.609
MS.189         	11.815         	12.625
MS.190         	11.79          	12.617
MS.191         	11.767         	12.582
MS.192         	11.745         	12.558
MS.193         	11.72          	12.576
MS.194         	11.697         	12.57
MS.195         	11.675         	12.552
MS.196         	11.65          	12.528
MS.197         	11.627         	12.528
MS.198         	11.605         	12.52
MS.199         	11.58          	12.518
MS.200         	11.557         	12.48
MS.201         	11.535         	12.48
MS.202         	11.512         	12.472
MS.203         	11.488         	12.482
MS.204         	11.465         	12.46
MS.205         	11.443         	12.474
MS.206         	11.42          	12.464
MS.207         	11.398         	12.452
MS.208         	11.375         	12.445
MS.209         	11.352         	12.45
MS.210         	11.33          	12.445
MS.211         	11.307         	12.429
MS.212         	11.282         	12.439
MS.213         	11.26          	12.439
MS.214         	11.238         	12.427
MS.215         	11.215         	12.417
MS.216         	11.195         	12.407
MS.217         	11.172         	12.371
MS.218         	11.15          	12.377
MS.219         	11.127         	12.379
MS.220         	11.105         	12.381
MS.221         	11.082         	12.367
MS.222         	11.06          	12.367
MS.223         	11.037         	12.339
MS.224         	11.015         	12.327
MS.225         	10.995         	12.302
MS.226         	10.972         	12.282
MS.227         	10.95          	12.286
MS.228         	10.927         	12.288
MS.229         	10.907         	12.268
MS.230         	10.885         	12.282
MS.231         	10.863         	12.286
MS.232         	10.84          	12.248
MS.233         	10.82          	12.246
MS.234         	10.797         	12.246
MS.235         	10.778         	12.242
MS.236         	10.755         	12.236
MS.237         	10.733         	12.218
MS.238         	10.712         	12.224
MS.239         	10.69          	12.182
MS.240         	10.67          	12.194
MS.241         	10.648         	12.149
MS.242         	10.627         	12.133
MS.243         	10.605         	12.174
MS.244         	10.585         	12.192
MS.245         	10.562         	12.226
MS.246         	10.542         	12.204
MS.247         	10.52          	12.182
MS.248         	10.5           	12.159
MS.249         	10.48          	12.131
MS.250         	10.457         	12.103
MS.251         	10.438         	12.174
MS.252         	10.415         	12.186
MS.253         	10.395         	12.228
MS.254         	10.375         	12.246
MS.255         	10.355         	12.232
MS.256         	10.332         	12.256
MS.257         	10.312         	12.278
MS.258         	10.292         	12.302
MS.259         	10.273         	12.311
MS.260         	10.25          	12.359
MS.261         	10.23          	12.355
MS.262         	10.21          	12.337
MS.263         	10.19          	12.317
MS.264         	10.17          	12.315
MS.265         	10.15          	12.315
MS.266         	10.127         	12.321
MS.267         	10.108         	12.321
MS.268         	10.087         	12.317
MS.269         	10.068         	12.294
MS.270         	10.047         	12.286
MS.271         	10.028         	12.307
MS.272         	10.007         	12.309
MS.273         	9.988          	12.28
MS.274         	9.967          	12.323
MS.275         	9.948          	12.313
MS.276         	9.927          	12.321
MS.277         	9.907          	12.347
MS.278         	9.887          	12.341
MS.279         	9.867          	12.363
MS.280         	9.85           	12.349
MS.281         	9.83           	12.337
MS.282         	9.81           	12.327
MS.283         	9.79           	12.311
MS.284         	9.77           	12.333
MS.285         	9.75           	12.292
MS.286         	9.733          	12.29
MS.287         	9.712          	12.284
MS.288         	9.693          	12.272
MS.289         	9.672          	12.264
MS.290         	9.655          	12.266
MS.291         	9.635          	12.151
MS.292         	9.615          	12.234
MS.293         	9.595          	12.129
MS.294         	9.577          	12.19
MS.295         	9.557          	12.123
MS.296         	9.537          	12.139
MS.297         	9.52           	12.238
MS.298         	9.5            	12.166
MS.299         	9.483          	12.151
MS.300         	9.462          	12.236
MS.301         	9.445          	12.109
MS.302         	9.425          	12.093
MS.303         	9.405          	12.089
MS.304         	9.387          	12.069
MS.305         	9.367          	12.105
MS.306         	9.35           	12.079
MS.307         	9.33           	12.097
MS.308         	9.312          	12.039
MS.309         	9.295          	12.033
MS.310         	9.275          	12.025
MS.311         	9.257          	12.087
MS.312         	9.238          	12.137
MS.313         	9.22           	12.149
MS.314         	9.202          	12.105
MS.315         	9.182          	12.115
MS.316         	9.165          	12.147
MS.317         	9.148          	12.143
MS.318         	9.127          	12.155
MS.319         	9.11           	12.111
MS.320         	9.092          	12.186
MS.321         	9.073          	12.101
MS.322         	9.055          	12.023
MS.323         	9.037          	12.107
MS.324         	9.02           	12.081
MS.325         	9              	12.012
MS.326         	8.983          	12.033
MS.327         	8.965          	11.944
MS.328         	8.948          	11.922
MS.329         	8.93           	11.791
MS.330         	8.912          	11.583
MS.331         	8.895          	11.821
MS.332         	8.875          	11.63
MS.333         	8.858          	11.732
MS.334         	8.84           	11.803
MS.335         	8.823          	11.728
MS.336         	8.805          	11.892
MS.337         	8.787          	11.763
MS.338         	8.77           	11.694
MS.339         	8.752          	11.531
MS.340         	8.735          	11.686
MS.341         	8.717          	11.573
MS.342         	8.7            	11.434
MS.343         	8.682          	11.378
MS.344         	8.665          	11.193
MS.345         	8.648          	11.366
MS.346         	8.63           	10.939
MS.347         	8.613          	10.87
MS.348         	8.597          	10.965
MS.349         	8.58           	11.046
MS.350         	8.562          	10.84
MS.351         	8.545          	10.907
MS.352         	8.528          	10.832
MS.353         	8.51           	10.878
MS.354         	8.495          	10.762
MS.355         	8.477          	10.691
MS.356         	8.46           	10.657
MS.357         	8.443          	10.619
MS.358         	8.427          	10.665
MS.359         	8.41           	10.508
MS.360         	8.392          	10.689
MS.361         	8.375          	10.419
MS.362         	8.36           	10.337
MS.363         	8.342          	10.359
MS.364         	8.325          	10.329
MS.365         	8.31           	10.244
MS.366         	8.292          	10.143
MS.367         	8.275          	10.069
MS.368         	8.26           	10.178
MS.369         	8.242          	10.282
MS.370         	8.227          	10.002
MS.371         	8.21           	9.986
MS.372         	8.193          	10.022
MS.373         	8.177          	9.902
MS.374         	8.16           	9.831
MS.375         	8.145          	9.92
MS.376         	8.127          	9.74
MS.377         	8.113          	9.736
MS.378         	8.095          	9.74
MS.379         	8.08           	9.714
MS.380         	8.062          	9.688
MS.381         	8.047          	9.656
MS.382         	8.033          	9.593
MS.383         	8.015          	9.458
MS.384         	8              	9.456
MS.385         	7.982          	9.458
MS.386         	7.967          	9.354
MS.387         	7.952          	9.4
MS.388         	7.935          	9.114
MS.389         	7.92           	9.16
MS.390         	7.905          	9.257
MS.391         	7.887          	9.255
MS.392         	7.872          	9.118
MS.393         	7.857          	8.927
MS.394         	7.84           	8.834
MS.395         	7.825          	8.899
MS.396         	7.81           	8.836
MS.397         	7.795          	8.891
MS.398         	7.777          	8.84
MS.399         	7.762          	8.766
MS.400         	7.747          	8.882
MS.401         	7.732          	8.764
MS.402         	7.717          	8.671
MS.403         	7.7            	8.598
MS.404         	7.685          	8.598
MS.405         	7.67           	8.504
MS.406         	7.655          	8.665
MS.407         	7.64           	8.594
MS.408         	7.625          	8.645
MS.409         	7.61           	8.617
MS.410         	7.595          	8.621
MS.411         	7.58           	8.502
MS.412         	7.562          	8.387
MS.413         	7.547          	8.548
MS.414         	7.532          	8.445
MS.415         	7.517          	8.542
MS.416         	7.503          	8.196
MS.417         	7.487          	8.327
MS.418         	7.472          	8.194
MS.419         	7.457          	8.212
MS.420         	7.442          	8.012
MS.421         	7.427          	8.041
MS.422         	7.415          	8.095
MS.423         	7.4            	7.837
MS.424         	7.385          	7.926
MS.425         	7.37           	8.103
MS.426         	7.355          	7.74
MS.427         	7.34           	7.656
MS.428         	7.325          	7.755
MS.429         	7.31           	7.446
MS.430         	7.295          	7.581
MS.431         	7.282          	7.34
MS.432         	7.267          	7.015
MS.433         	7.253          	7.187
MS.434         	7.237          	7.17
MS.435         	7.222          	6.57
MS.436         	7.21           	6.306
MS.437         	7.195          	6.699
MS.438         	7.18           	6.806
MS.439         	7.165          	6.625
MS.440         	7.152          	6.322
MS.441         	7.137          	6.443
MS.442         	7.122          	6.101
MS.443         	7.11           	5.797
MS.444         	7.095          	5.829
MS.445         	7.08           	5.644
MS.446         	7.067          	5.505
MS.447         	7.052          	5.765
MS.448         	7.037          	5.281
MS.449         	7.025          	5.082
MS.450         	7.01           	4.747
MS.451         	6.995          	5.047
MS.452         	6.983          	5.037
MS.453         	6.967          	4.663
MS.454         	6.955          	4.824
MS.455         	6.94           	4.749
MS.456         	6.927          	4.651
MS.457         	6.912          	4.27
MS.458         	6.9            	4.439
MS.459         	6.885          	4.149
MS.460         	6.872          	3.972
MS.461         	6.858          	4.191
MS.462         	6.845          	3.889
MS.463         	6.83           	3.696
MS.464         	6.817          	3.595
MS.465         	6.802          	3.313
MS.466         	6.79           	3.549
MS.467         	6.775          	3.297
MS.468         	6.762          	3.074
MS.469         	6.747          	3.104
MS.470         	6.735          	2.995
MS.471         	6.722          	2.459
MS.472         	6.707          	2.483
MS.473         	6.695          	2.574
MS.474         	6.682          	2.586
MS.475         	6.668          	2.427
MS.476         	6.655          	2.469
MS.477         	6.642          	2.216
MS.478         	6.628          	1.932
MS.479         	6.615          	1.65
MS.480         	6.602          	1.702
MS.481         	6.587          	1.873
MS.482         	6.575          	1.287
MS.483         	6.562          	1.354
MS.484         	6.55           	1.434
MS.485         	6.535          	1.579
MS.486         	6.523          	1.327
MS.487         	6.51           	1.174
MS.488         	6.497          	1.356
MS.489         	6.485          	1.08
MS.490         	6.47           	1.092
MS.491         	6.457          	1.106
