File:              	C:\Qtrac\Data\Daniel M Sørensen\MScan multicentre study\Data from centres\Antalya\Processed data\TR.NC.ANT.1.2- NCC00219B.QZD
Name:              	TR.NC.ANT.1.2
Protocol:          	MSCAN-R2
Date:              	19/2/20
Start time:        	20:20:39
Age:               	68
Sex:               	f
Temperature:       	32.1
S/R sites:         	ADM
NC/disease:        	NC
Operator:          	ab
Comments:          	right ADM
M-SCAN DATA (10.9-3.3m)
Scanpts: 91, 100, 788, 809
Stim. (mA)     	Amp. (mV)
MS.1           	27             	6.715
MS.2           	27             	6.725
MS.3           	27             	6.76
MS.4           	27             	6.741
MS.5           	27             	6.745
MS.6           	27             	6.745
MS.7           	27             	6.758
MS.8           	27             	6.741
MS.9           	27             	6.739
MS.10          	27             	6.764
MS.11          	27             	6.778
MS.12          	27             	6.749
MS.13          	27             	6.792
MS.14          	27             	6.79
MS.15          	27             	6.798
MS.16          	27             	6.8
MS.17          	27             	6.81
MS.18          	27             	6.812
MS.19          	27             	6.816
MS.20          	27             	6.832
MS.21          	27             	6.846
MS.22          	27             	6.836
MS.23          	27             	6.856
MS.24          	26.892         	6.824
MS.25          	26.837         	6.85
MS.26          	26.785         	6.864
MS.27          	26.73          	6.858
MS.28          	26.677         	6.86
MS.29          	26.625         	6.888
MS.30          	26.573         	6.87
MS.31          	26.517         	6.894
MS.32          	26.465         	6.892
MS.33          	26.412         	6.901
MS.34          	26.36          	6.913
MS.35          	26.307         	6.901
MS.36          	26.255         	6.907
MS.37          	26.202         	6.884
MS.38          	26.15          	6.929
MS.39          	26.097         	6.905
MS.40          	26.045         	6.915
MS.41          	25.993         	6.935
MS.42          	25.94          	6.923
MS.43          	25.89          	6.911
MS.44          	25.837         	6.939
MS.45          	25.785         	6.905
MS.46          	25.735         	6.923
MS.47          	25.682         	6.915
MS.48          	25.632         	6.917
MS.49          	25.58          	6.917
MS.50          	25.53          	6.927
MS.51          	25.477         	6.915
MS.52          	25.427         	6.937
MS.53          	25.377         	6.896
MS.54          	25.325         	6.949
MS.55          	25.275         	6.951
MS.56          	25.225         	6.953
MS.57          	25.175         	6.947
MS.58          	25.125         	6.945
MS.59          	25.075         	6.947
MS.60          	25.025         	6.949
MS.61          	24.975         	6.973
MS.62          	24.925         	6.963
MS.63          	24.875         	6.949
MS.64          	24.825         	6.967
MS.65          	24.775         	6.989
MS.66          	24.725         	6.971
MS.67          	24.675         	6.967
MS.68          	24.627         	6.953
MS.69          	24.577         	6.973
MS.70          	24.528         	6.981
MS.71          	24.48          	6.997
MS.72          	24.43          	6.999
MS.73          	24.382         	6.999
MS.74          	24.332         	6.985
MS.75          	24.285         	7.017
MS.76          	24.235         	6.993
MS.77          	24.188         	6.973
MS.78          	24.14          	6.991
MS.79          	24.09          	6.983
MS.80          	24.042         	6.999
MS.81          	23.995         	7.009
MS.82          	23.948         	7.003
MS.83          	23.9           	7.029
MS.84          	23.85          	7.021
MS.85          	23.802         	7.029
MS.86          	23.755         	7.037
MS.87          	23.707         	7.031
MS.88          	23.66          	7.023
MS.89          	23.615         	7.048
MS.90          	23.567         	7.035
MS.91          	23.52          	7.027
MS.92          	23.472         	7.017
MS.93          	23.425         	7.039
MS.94          	23.38          	7.054
MS.95          	23.332         	7.058
MS.96          	23.285         	7.048
MS.97          	23.24          	7.046
MS.98          	23.192         	7.056
MS.99          	23.145         	7.046
MS.100         	23.1           	7.037
MS.101         	23.055         	7.044
MS.102         	23.007         	7.05
MS.103         	22.962         	7.05
MS.104         	22.915         	7.011
MS.105         	22.87          	7.052
MS.106         	22.825         	7.044
MS.107         	22.78          	7.05
MS.108         	22.733         	7.001
MS.109         	22.688         	7.048
MS.110         	22.642         	6.999
MS.111         	22.597         	7.015
MS.112         	22.552         	6.981
MS.113         	22.507         	6.983
MS.114         	22.462         	7.027
MS.115         	22.417         	6.975
MS.116         	22.372         	6.975
MS.117         	22.327         	6.973
MS.118         	22.282         	6.961
MS.119         	22.237         	6.999
MS.120         	22.195         	7.003
MS.121         	22.15          	6.921
MS.122         	22.105         	6.971
MS.123         	22.062         	6.965
MS.124         	22.017         	6.892
MS.125         	21.972         	6.957
MS.126         	21.93          	6.965
MS.127         	21.885         	6.931
MS.128         	21.842         	6.963
MS.129         	21.797         	6.955
MS.130         	21.755         	6.953
MS.131         	21.712         	6.911
MS.132         	21.667         	6.953
MS.133         	21.625         	6.943
MS.134         	21.583         	6.872
MS.135         	21.538         	6.826
MS.136         	21.495         	6.798
MS.137         	21.452         	6.933
MS.138         	21.41          	6.951
MS.139         	21.368         	6.886
MS.140         	21.325         	6.86
MS.141         	21.282         	6.937
MS.142         	21.24          	6.84
MS.143         	21.198         	6.798
MS.144         	21.155         	6.89
MS.145         	21.112         	6.909
MS.146         	21.07          	6.888
MS.147         	21.028         	6.884
MS.148         	20.985         	6.896
MS.149         	20.942         	6.832
MS.150         	20.903         	6.824
MS.151         	20.86          	6.874
MS.152         	20.817         	6.886
MS.153         	20.778         	6.774
MS.154         	20.735         	6.764
MS.155         	20.695         	6.826
MS.156         	20.653         	6.802
MS.157         	20.61          	6.751
MS.158         	20.57          	6.818
MS.159         	20.53          	6.824
MS.160         	20.487         	6.739
MS.161         	20.448         	6.735
MS.162         	20.405         	6.717
MS.163         	20.365         	6.665
MS.164         	20.325         	6.653
MS.165         	20.285         	6.703
MS.166         	20.243         	6.772
MS.167         	20.202         	6.653
MS.168         	20.163         	6.677
MS.169         	20.122         	6.679
MS.170         	20.083         	6.709
MS.171         	20.042         	6.697
MS.172         	20.002         	6.717
MS.173         	19.962         	6.707
MS.174         	19.922         	6.639
MS.175         	19.882         	6.629
MS.176         	19.842         	6.673
MS.177         	19.802         	6.679
MS.178         	19.762         	6.729
MS.179         	19.725         	6.683
MS.180         	19.685         	6.653
MS.181         	19.645         	6.659
MS.182         	19.605         	6.637
MS.183         	19.567         	6.665
MS.184         	19.528         	6.691
MS.185         	19.487         	6.627
MS.186         	19.45          	6.673
MS.187         	19.41          	6.705
MS.188         	19.372         	6.564
MS.189         	19.333         	6.572
MS.190         	19.295         	6.54
MS.191         	19.255         	6.524
MS.192         	19.217         	6.474
MS.193         	19.18          	6.508
MS.194         	19.14          	6.484
MS.195         	19.102         	6.586
MS.196         	19.065         	6.56
MS.197         	19.028         	6.48
MS.198         	18.987         	6.478
MS.199         	18.95          	6.461
MS.200         	18.913         	6.526
MS.201         	18.875         	6.496
MS.202         	18.837         	6.486
MS.203         	18.8           	6.498
MS.204         	18.762         	6.506
MS.205         	18.725         	6.482
MS.206         	18.688         	6.465
MS.207         	18.65          	6.469
MS.208         	18.612         	6.476
MS.209         	18.575         	6.492
MS.210         	18.538         	6.5
MS.211         	18.5           	6.526
MS.212         	18.465         	6.48
MS.213         	18.427         	6.506
MS.214         	18.39          	6.504
MS.215         	18.352         	6.514
MS.216         	18.317         	6.524
MS.217         	18.28          	6.512
MS.218         	18.245         	6.52
MS.219         	18.208         	6.524
MS.220         	18.17          	6.506
MS.221         	18.135         	6.51
MS.222         	18.097         	6.516
MS.223         	18.062         	6.536
MS.224         	18.028         	6.526
MS.225         	17.99          	6.474
MS.226         	17.955         	6.508
MS.227         	17.917         	6.524
MS.228         	17.882         	6.54
MS.229         	17.847         	6.504
MS.230         	17.812         	6.465
MS.231         	17.775         	6.526
MS.232         	17.74          	6.504
MS.233         	17.705         	6.504
MS.234         	17.67          	6.469
MS.235         	17.635         	6.461
MS.236         	17.6           	6.532
MS.237         	17.562         	6.467
MS.238         	17.528         	6.51
MS.239         	17.493         	6.461
MS.240         	17.458         	6.435
MS.241         	17.422         	6.459
MS.242         	17.39          	6.455
MS.243         	17.355         	6.467
MS.244         	17.32          	6.449
MS.245         	17.285         	6.433
MS.246         	17.25          	6.484
MS.247         	17.215         	6.445
MS.248         	17.182         	6.413
MS.249         	17.147         	6.482
MS.250         	17.112         	6.439
MS.251         	17.077         	6.48
MS.252         	17.045         	6.431
MS.253         	17.01          	6.423
MS.254         	16.977         	6.443
MS.255         	16.942         	6.407
MS.256         	16.91          	6.391
MS.257         	16.875         	6.415
MS.258         	16.842         	6.439
MS.259         	16.807         	6.401
MS.260         	16.775         	6.441
MS.261         	16.74          	6.427
MS.262         	16.708         	6.439
MS.263         	16.672         	6.355
MS.264         	16.64          	6.377
MS.265         	16.608         	6.397
MS.266         	16.575         	6.379
MS.267         	16.54          	6.391
MS.268         	16.507         	6.385
MS.269         	16.475         	6.409
MS.270         	16.442         	6.383
MS.271         	16.41          	6.318
MS.272         	16.378         	6.351
MS.273         	16.342         	6.399
MS.274         	16.31          	6.381
MS.275         	16.278         	6.349
MS.276         	16.245         	6.232
MS.277         	16.212         	6.345
MS.278         	16.18          	6.371
MS.279         	16.147         	6.278
MS.280         	16.118         	6.268
MS.281         	16.085         	6.331
MS.282         	16.052         	6.308
MS.283         	16.02          	6.337
MS.284         	15.987         	6.139
MS.285         	15.955         	6.242
MS.286         	15.925         	6.198
MS.287         	15.892         	6.147
MS.288         	15.86          	6.167
MS.289         	15.83          	6.059
MS.290         	15.797         	6.051
MS.291         	15.765         	6.145
MS.292         	15.735         	6.133
MS.293         	15.702         	6.192
MS.294         	15.672         	6.105
MS.295         	15.64          	6.091
MS.296         	15.61          	5.938
MS.297         	15.577         	6.157
MS.298         	15.547         	5.879
MS.299         	15.515         	5.932
MS.300         	15.485         	5.944
MS.301         	15.452         	5.918
MS.302         	15.422         	5.821
MS.303         	15.392         	5.906
MS.304         	15.36          	5.962
MS.305         	15.33          	5.559
MS.306         	15.3           	5.871
MS.307         	15.27          	5.555
MS.308         	15.237         	5.622
MS.309         	15.207         	5.615
MS.310         	15.177         	5.65
MS.311         	15.148         	5.797
MS.312         	15.117         	5.587
MS.313         	15.087         	5.483
MS.314         	15.057         	5.64
MS.315         	15.027         	5.342
MS.316         	14.997         	5.462
MS.317         	14.967         	5.186
MS.318         	14.938         	5.295
MS.319         	14.907         	5.406
MS.320         	14.877         	5.366
MS.321         	14.847         	5.072
MS.322         	14.818         	4.965
MS.323         	14.787         	5.154
MS.324         	14.757         	5.14
MS.325         	14.73          	4.981
MS.326         	14.7           	5.009
MS.327         	14.67          	4.995
MS.328         	14.64          	4.933
MS.329         	14.612         	4.868
MS.330         	14.582         	4.832
MS.331         	14.552         	4.796
MS.332         	14.525         	4.9
MS.333         	14.495         	4.88
MS.334         	14.467         	4.743
MS.335         	14.438         	4.482
MS.336         	14.407         	4.759
MS.337         	14.38          	4.645
MS.338         	14.35          	4.612
MS.339         	14.322         	4.332
MS.340         	14.295         	4.387
MS.341         	14.265         	4.473
MS.342         	14.237         	4.544
MS.343         	14.207         	4.316
MS.344         	14.18          	4.189
MS.345         	14.153         	3.972
MS.346         	14.122         	3.96
MS.347         	14.095         	3.96
MS.348         	14.068         	3.835
MS.349         	14.04          	3.845
MS.350         	14.01          	3.833
MS.351         	13.983         	3.664
MS.352         	13.955         	3.756
MS.353         	13.927         	3.535
MS.354         	13.9           	3.591
MS.355         	13.872         	3.339
MS.356         	13.842         	3.281
MS.357         	13.815         	3.372
MS.358         	13.787         	3.398
MS.359         	13.76          	3.408
MS.360         	13.733         	3.088
MS.361         	13.705         	3.102
MS.362         	13.677         	3.108
MS.363         	13.653         	3.086
MS.364         	13.625         	2.858
MS.365         	13.597         	3.07
MS.366         	13.57          	3.009
MS.367         	13.542         	2.935
MS.368         	13.515         	2.941
MS.369         	13.487         	2.79
MS.370         	13.462         	2.852
MS.371         	13.435         	2.917
MS.372         	13.407         	2.906
MS.373         	13.38          	2.862
MS.374         	13.355         	2.83
MS.375         	13.327         	2.866
MS.376         	13.3           	2.822
MS.377         	13.275         	2.723
MS.378         	13.247         	2.701
MS.379         	13.222         	2.713
MS.380         	13.195         	2.735
MS.381         	13.167         	2.673
MS.382         	13.142         	2.647
MS.383         	13.115         	2.616
MS.384         	13.09          	2.435
MS.385         	13.062         	2.463
MS.386         	13.037         	2.506
MS.387         	13.012         	2.467
MS.388         	12.985         	2.49
MS.389         	12.96          	2.391
MS.390         	12.932         	2.361
MS.391         	12.907         	2.375
MS.392         	12.882         	2.441
MS.393         	12.858         	2.316
MS.394         	12.83          	2.346
MS.395         	12.805         	2.226
MS.396         	12.78          	2.149
MS.397         	12.755         	2.135
MS.398         	12.727         	2.228
MS.399         	12.702         	2.218
MS.400         	12.677         	1.958
MS.401         	12.653         	2.177
MS.402         	12.627         	2.173
MS.403         	12.602         	1.911
MS.404         	12.577         	1.938
MS.405         	12.552         	1.962
MS.406         	12.528         	1.978
MS.407         	12.502         	2.008
MS.408         	12.477         	1.93
MS.409         	12.452         	1.99
MS.410         	12.427         	1.774
MS.411         	12.403         	1.853
MS.412         	12.377         	1.718
MS.413         	12.352         	1.748
MS.414         	12.327         	1.853
MS.415         	12.302         	1.76
MS.416         	12.278         	1.75
MS.417         	12.255         	1.712
MS.418         	12.23          	1.793
MS.419         	12.205         	1.702
MS.420         	12.18          	1.648
MS.421         	12.155         	1.768
MS.422         	12.132         	1.627
MS.423         	12.108         	1.66
MS.424         	12.082         	1.617
MS.425         	12.06          	1.609
MS.426         	12.035         	1.609
MS.427         	12.01          	1.549
MS.428         	11.988         	1.565
MS.429         	11.962         	1.549
MS.430         	11.94          	1.454
MS.431         	11.915         	1.505
MS.432         	11.892         	1.386
MS.433         	11.867         	1.454
MS.434         	11.845         	1.436
MS.435         	11.82          	1.464
MS.436         	11.797         	1.41
MS.437         	11.773         	1.349
MS.438         	11.75          	1.408
MS.439         	11.727         	1.47
MS.440         	11.702         	1.321
MS.441         	11.68          	1.233
MS.442         	11.655         	1.303
MS.443         	11.632         	1.311
MS.444         	11.61          	1.269
MS.445         	11.587         	1.323
MS.446         	11.562         	1.194
MS.447         	11.54          	1.253
MS.448         	11.517         	1.14
MS.449         	11.495         	1.255
MS.450         	11.47          	1.128
MS.451         	11.447         	1.184
MS.452         	11.425         	1.102
MS.453         	11.403         	1.086
MS.454         	11.38          	1.031
MS.455         	11.358         	1.074
MS.456         	11.335         	1.023
MS.457         	11.312         	0.989
MS.458         	11.29          	1.025
MS.459         	11.267         	0.991
MS.460         	11.245         	0.963
MS.461         	11.222         	0.892
MS.462         	11.2           	0.874
MS.463         	11.177         	0.852
MS.464         	11.155         	0.838
MS.465         	11.132         	0.828
MS.466         	11.11          	0.739
MS.467         	11.087         	0.814
MS.468         	11.065         	0.878
MS.469         	11.042         	0.777
MS.470         	11.023         	0.759
MS.471         	11             	0.816
MS.472         	10.977         	0.733
MS.473         	10.955         	0.761
MS.474         	10.932         	0.737
MS.475         	10.912         	0.85
MS.476         	10.89          	0.741
MS.477         	10.867         	0.661
MS.478         	10.847         	0.536
MS.479         	10.825         	0.693
MS.480         	10.802         	0.618
MS.481         	10.782         	0.608
MS.482         	10.76          	0.683
MS.483         	10.738         	0.57
MS.484         	10.717         	0.548
MS.485         	10.695         	0.381
MS.486         	10.675         	0.512
MS.487         	10.653         	0.479
MS.488         	10.632         	0.431
MS.489         	10.61          	0.497
MS.490         	10.59          	0.431
MS.491         	10.568         	0.463
MS.492         	10.547         	0.473
MS.493         	10.525         	0.389
MS.494         	10.505         	0.425
MS.495         	10.485         	0.471
MS.496         	10.462         	0.417
MS.497         	10.443         	0.379
MS.498         	10.42          	0.435
MS.499         	10.4           	0.413
MS.500         	10.38          	0.417
