File:              	C:\Qtrac\Data\Daniel M Sørensen\MScan multicentre study\Data from centres\Antalya\Processed data\TR.NC.ANT.9.2- NCC01208J.QZD
Name:              	TR.NC.ANT.9.2
Protocol:          	MSCAN-R2
Date:              	8/12/20
Start time:        	18:47:55
Age:               	48
Sex:               	f
Temperature:       	30
S/R sites:               TA
NC/disease:        	NC
Operator:          	ab
Comments:
M-SCAN DATA (8.8-0.6m)
Scanpts: 292, 297, 841, 861
Stim. (mA)     	Amp. (mV)
MS.1           	16.5           	5.924
MS.2           	16.5           	5.934
MS.3           	16.5           	5.932
MS.4           	16.5           	5.92
MS.5           	16.5           	5.918
MS.6           	16.5           	5.918
MS.7           	16.5           	5.899
MS.8           	16.5           	5.904
MS.9           	16.5           	5.904
MS.10          	16.5           	5.91
MS.11          	16.5           	5.899
MS.12          	16.5           	5.891
MS.13          	16.5           	5.901
MS.14          	16.5           	5.901
MS.15          	16.5           	5.904
MS.16          	16.5           	5.893
MS.17          	16.5           	5.904
MS.18          	16.5           	5.904
MS.19          	16.5           	5.899
MS.20          	16.5           	5.916
MS.21          	16.5           	5.895
MS.22          	16.5           	5.91
MS.23          	16.5           	5.906
MS.24          	16.435         	5.895
MS.25          	16.4           	5.877
MS.26          	16.368         	5.895
MS.27          	16.335         	5.897
MS.28          	16.302         	5.922
MS.29          	16.27          	5.914
MS.30          	16.237         	5.914
MS.31          	16.205         	5.912
MS.32          	16.172         	5.914
MS.33          	16.14          	5.916
MS.34          	16.108         	5.924
MS.35          	16.077         	5.924
MS.36          	16.045         	5.92
MS.37          	16.012         	5.934
MS.38          	15.98          	5.92
MS.39          	15.947         	5.922
MS.40          	15.917         	5.918
MS.41          	15.885         	5.922
MS.42          	15.852         	5.924
MS.43          	15.822         	5.934
MS.44          	15.79          	5.924
MS.45          	15.757         	5.928
MS.46          	15.727         	5.922
MS.47          	15.695         	5.934
MS.48          	15.665         	5.934
MS.49          	15.632         	5.92
MS.50          	15.602         	5.936
MS.51          	15.57          	5.932
MS.52          	15.54          	5.936
MS.53          	15.507         	5.936
MS.54          	15.477         	5.93
MS.55          	15.445         	5.938
MS.56          	15.415         	5.942
MS.57          	15.385         	5.94
MS.58          	15.352         	5.938
MS.59          	15.322         	5.932
MS.60          	15.292         	5.94
MS.61          	15.262         	5.942
MS.62          	15.233         	5.924
MS.63          	15.2           	5.946
MS.64          	15.17          	5.944
MS.65          	15.14          	5.948
MS.66          	15.11          	5.936
MS.67          	15.08          	5.938
MS.68          	15.05          	5.946
MS.69          	15.02          	5.95
MS.70          	14.99          	5.954
MS.71          	14.96          	5.948
MS.72          	14.93          	5.944
MS.73          	14.9           	5.956
MS.74          	14.87          	5.948
MS.75          	14.84          	5.954
MS.76          	14.81          	5.952
MS.77          	14.78          	5.964
MS.78          	14.752         	5.944
MS.79          	14.722         	5.958
MS.80          	14.693         	5.96
MS.81          	14.662         	5.954
MS.82          	14.635         	5.94
MS.83          	14.605         	5.958
MS.84          	14.575         	5.954
MS.85          	14.547         	5.96
MS.86          	14.517         	5.958
MS.87          	14.487         	5.962
MS.88          	14.46          	5.95
MS.89          	14.43          	5.962
MS.90          	14.403         	5.952
MS.91          	14.372         	5.936
MS.92          	14.345         	5.956
MS.93          	14.315         	5.954
MS.94          	14.287         	5.946
MS.95          	14.257         	5.964
MS.96          	14.23          	5.954
MS.97          	14.202         	5.962
MS.98          	14.172         	5.964
MS.99          	14.145         	5.966
MS.100         	14.117         	5.956
MS.101         	14.087         	5.972
MS.102         	14.06          	5.962
MS.103         	14.032         	5.964
MS.104         	14.005         	5.958
MS.105         	13.975         	5.964
MS.106         	13.947         	5.972
MS.107         	13.92          	5.964
MS.108         	13.892         	5.964
MS.109         	13.865         	5.96
MS.110         	13.837         	5.966
MS.111         	13.81          	5.968
MS.112         	13.782         	5.966
MS.113         	13.755         	5.958
MS.114         	13.727         	5.96
MS.115         	13.7           	5.98
MS.116         	13.672         	5.97
MS.117         	13.645         	5.956
MS.118         	13.617         	5.976
MS.119         	13.59          	5.976
MS.120         	13.562         	5.978
MS.121         	13.535         	5.968
MS.122         	13.51          	5.96
MS.123         	13.483         	5.984
MS.124         	13.455         	5.968
MS.125         	13.427         	5.976
MS.126         	13.403         	5.964
MS.127         	13.375         	5.978
MS.128         	13.347         	5.966
MS.129         	13.32          	5.972
MS.130         	13.295         	5.972
MS.131         	13.267         	5.972
MS.132         	13.242         	5.978
MS.133         	13.215         	5.964
MS.134         	13.188         	5.972
MS.135         	13.162         	5.98
MS.136         	13.135         	5.976
MS.137         	13.11          	5.984
MS.138         	13.082         	5.97
MS.139         	13.057         	5.984
MS.140         	13.032         	5.99
MS.141         	13.005         	5.978
MS.142         	12.98          	5.984
MS.143         	12.952         	5.99
MS.144         	12.927         	5.976
MS.145         	12.903         	5.972
MS.146         	12.875         	5.998
MS.147         	12.85          	5.974
MS.148         	12.825         	5.992
MS.149         	12.8           	5.994
MS.150         	12.773         	5.978
MS.151         	12.747         	5.986
MS.152         	12.722         	5.988
MS.153         	12.697         	5.988
MS.154         	12.672         	5.992
MS.155         	12.645         	5.99
MS.156         	12.62          	5.988
MS.157         	12.595         	5.97
MS.158         	12.57          	5.996
MS.159         	12.545         	5.984
MS.160         	12.52          	5.984
MS.161         	12.495         	5.986
MS.162         	12.47          	5.992
MS.163         	12.445         	5.996
MS.164         	12.42          	5.986
MS.165         	12.395         	5.98
MS.166         	12.37          	5.992
MS.167         	12.347         	5.986
MS.168         	12.322         	5.986
MS.169         	12.297         	6.004
MS.170         	12.273         	5.998
MS.171         	12.247         	5.98
MS.172         	12.222         	5.986
MS.173         	12.2           	5.986
MS.174         	12.175         	5.988
MS.175         	12.15          	5.978
MS.176         	12.125         	5.986
MS.177         	12.102         	5.992
MS.178         	12.077         	5.98
MS.179         	12.052         	5.996
MS.180         	12.03          	5.994
MS.181         	12.005         	6
MS.182         	11.983         	5.984
MS.183         	11.957         	5.994
MS.184         	11.932         	5.994
MS.185         	11.91          	5.992
MS.186         	11.885         	6
MS.187         	11.863         	5.984
MS.188         	11.837         	5.988
MS.189         	11.815         	5.99
MS.190         	11.79          	5.986
MS.191         	11.767         	5.986
MS.192         	11.745         	5.996
MS.193         	11.72          	5.998
MS.194         	11.697         	5.976
MS.195         	11.675         	5.986
MS.196         	11.65          	5.998
MS.197         	11.627         	5.99
MS.198         	11.605         	5.988
MS.199         	11.58          	5.996
MS.200         	11.557         	5.996
MS.201         	11.535         	5.998
MS.202         	11.512         	5.99
MS.203         	11.488         	5.994
MS.204         	11.465         	5.998
MS.205         	11.443         	6.002
MS.206         	11.42          	6.002
MS.207         	11.398         	5.988
MS.208         	11.375         	5.994
MS.209         	11.352         	5.992
MS.210         	11.33          	6.006
MS.211         	11.307         	5.992
MS.212         	11.282         	5.99
MS.213         	11.26          	5.996
MS.214         	11.238         	5.996
MS.215         	11.215         	5.994
MS.216         	11.195         	6.008
MS.217         	11.172         	5.988
MS.218         	11.15          	6
MS.219         	11.127         	6.01
MS.220         	11.105         	6.004
MS.221         	11.082         	6
MS.222         	11.06          	5.99
MS.223         	11.037         	5.984
MS.224         	11.015         	6.014
MS.225         	10.995         	5.996
MS.226         	10.972         	6
MS.227         	10.95          	6.004
MS.228         	10.927         	6.002
MS.229         	10.907         	6.004
MS.230         	10.885         	5.998
MS.231         	10.863         	6
MS.232         	10.84          	6.002
MS.233         	10.82          	5.998
MS.234         	10.797         	6.008
MS.235         	10.778         	5.994
MS.236         	10.755         	6
MS.237         	10.733         	6.006
MS.238         	10.712         	5.996
MS.239         	10.69          	6.002
MS.240         	10.67          	5.986
MS.241         	10.648         	5.992
MS.242         	10.627         	6.004
MS.243         	10.605         	5.994
MS.244         	10.585         	5.998
MS.245         	10.562         	5.992
MS.246         	10.542         	5.994
MS.247         	10.52          	6.008
MS.248         	10.5           	5.996
MS.249         	10.48          	6.002
MS.250         	10.457         	5.998
MS.251         	10.438         	6.008
MS.252         	10.415         	6
MS.253         	10.395         	5.992
MS.254         	10.375         	5.998
MS.255         	10.355         	5.988
MS.256         	10.332         	5.996
MS.257         	10.312         	6.004
MS.258         	10.292         	6.002
MS.259         	10.273         	5.998
MS.260         	10.25          	5.992
MS.261         	10.23          	6.008
MS.262         	10.21          	5.988
MS.263         	10.19          	5.996
MS.264         	10.17          	6.002
MS.265         	10.15          	6.004
MS.266         	10.127         	5.996
MS.267         	10.108         	5.988
MS.268         	10.087         	6.004
MS.269         	10.068         	6.008
MS.270         	10.047         	6.004
MS.271         	10.028         	6.012
MS.272         	10.007         	6.006
MS.273         	9.988          	6.004
MS.274         	9.967          	6.014
MS.275         	9.948          	5.996
MS.276         	9.927          	6.016
MS.277         	9.907          	6.002
MS.278         	9.887          	6.012
MS.279         	9.867          	6.006
MS.280         	9.85           	5.994
MS.281         	9.83           	6.018
MS.282         	9.81           	6.006
MS.283         	9.79           	6.004
MS.284         	9.77           	6.004
MS.285         	9.75           	5.996
MS.286         	9.733          	5.99
MS.287         	9.712          	6.002
MS.288         	9.693          	6.01
MS.289         	9.672          	6
MS.290         	9.655          	5.994
MS.291         	9.635          	6.004
MS.292         	9.615          	6.006
MS.293         	9.595          	6.016
MS.294         	9.577          	5.99
MS.295         	9.557          	6.008
MS.296         	9.537          	6.012
MS.297         	9.52           	6.006
MS.298         	9.5            	6.004
MS.299         	9.483          	6.002
MS.300         	9.462          	5.996
MS.301         	9.445          	6.012
MS.302         	9.425          	6.012
MS.303         	9.405          	6.006
MS.304         	9.387          	6.018
MS.305         	9.367          	6.006
MS.306         	9.35           	6.002
MS.307         	9.33           	5.988
MS.308         	9.312          	6.002
MS.309         	9.295          	6.012
MS.310         	9.275          	6.01
MS.311         	9.257          	5.966
MS.312         	9.238          	5.998
MS.313         	9.22           	5.992
MS.314         	9.202          	5.99
MS.315         	9.182          	6.008
MS.316         	9.165          	5.98
MS.317         	9.148          	5.998
MS.318         	9.127          	6.006
MS.319         	9.11           	5.998
MS.320         	9.092          	5.996
MS.321         	9.073          	5.982
MS.322         	9.055          	6.004
MS.323         	9.037          	5.99
MS.324         	9.02           	5.982
MS.325         	9              	5.98
MS.326         	8.983          	5.984
MS.327         	8.965          	5.986
MS.328         	8.948          	5.984
MS.329         	8.93           	5.972
MS.330         	8.912          	5.97
MS.331         	8.895          	5.966
MS.332         	8.875          	5.956
MS.333         	8.858          	5.964
MS.334         	8.84           	5.964
MS.335         	8.823          	5.946
MS.336         	8.805          	5.966
MS.337         	8.787          	5.96
MS.338         	8.77           	5.95
MS.339         	8.752          	5.952
MS.340         	8.735          	5.948
MS.341         	8.717          	5.922
MS.342         	8.7            	5.94
MS.343         	8.682          	5.95
MS.344         	8.665          	5.95
MS.345         	8.648          	5.936
MS.346         	8.63           	5.922
MS.347         	8.613          	5.93
MS.348         	8.597          	5.916
MS.349         	8.58           	5.916
MS.350         	8.562          	5.901
MS.351         	8.545          	5.922
MS.352         	8.528          	5.904
MS.353         	8.51           	5.914
MS.354         	8.495          	5.908
MS.355         	8.477          	5.904
MS.356         	8.46           	5.889
MS.357         	8.443          	5.885
MS.358         	8.427          	5.897
MS.359         	8.41           	5.889
MS.360         	8.392          	5.893
MS.361         	8.375          	5.865
MS.362         	8.36           	5.887
MS.363         	8.342          	5.906
MS.364         	8.325          	5.875
MS.365         	8.31           	5.873
MS.366         	8.292          	5.855
MS.367         	8.275          	5.863
MS.368         	8.26           	5.877
MS.369         	8.242          	5.881
MS.370         	8.227          	5.873
MS.371         	8.21           	5.869
MS.372         	8.193          	5.829
MS.373         	8.177          	5.863
MS.374         	8.16           	5.839
MS.375         	8.145          	5.807
MS.376         	8.127          	5.845
MS.377         	8.113          	5.797
MS.378         	8.095          	5.845
MS.379         	8.08           	5.819
MS.380         	8.062          	5.813
MS.381         	8.047          	5.829
MS.382         	8.033          	5.805
MS.383         	8.015          	5.785
MS.384         	8              	5.773
MS.385         	7.982          	5.801
MS.386         	7.967          	5.773
MS.387         	7.952          	5.783
MS.388         	7.935          	5.793
MS.389         	7.92           	5.767
MS.390         	7.905          	5.771
MS.391         	7.887          	5.736
MS.392         	7.872          	5.773
MS.393         	7.857          	5.756
MS.394         	7.84           	5.758
MS.395         	7.825          	5.738
MS.396         	7.81           	5.742
MS.397         	7.795          	5.734
MS.398         	7.777          	5.742
MS.399         	7.762          	5.738
MS.400         	7.747          	5.76
MS.401         	7.732          	5.73
MS.402         	7.717          	5.732
MS.403         	7.7            	5.736
MS.404         	7.685          	5.714
MS.405         	7.67           	5.694
MS.406         	7.655          	5.672
MS.407         	7.64           	5.73
MS.408         	7.625          	5.656
MS.409         	7.61           	5.656
MS.410         	7.595          	5.684
MS.411         	7.58           	5.694
MS.412         	7.562          	5.624
MS.413         	7.547          	5.64
MS.414         	7.532          	5.674
MS.415         	7.517          	5.624
MS.416         	7.503          	5.617
MS.417         	7.487          	5.601
MS.418         	7.472          	5.644
MS.419         	7.457          	5.599
MS.420         	7.442          	5.583
MS.421         	7.427          	5.607
MS.422         	7.415          	5.613
MS.423         	7.4            	5.585
MS.424         	7.385          	5.573
MS.425         	7.37           	5.565
MS.426         	7.355          	5.533
MS.427         	7.34           	5.541
MS.428         	7.325          	5.541
MS.429         	7.31           	5.483
MS.430         	7.295          	5.535
MS.431         	7.282          	5.541
MS.432         	7.267          	5.527
MS.433         	7.253          	5.517
MS.434         	7.237          	5.493
MS.435         	7.222          	5.495
MS.436         	7.21           	5.47
MS.437         	7.195          	5.47
MS.438         	7.18           	5.442
MS.439         	7.165          	5.45
MS.440         	7.152          	5.45
MS.441         	7.137          	5.446
MS.442         	7.122          	5.396
MS.443         	7.11           	5.438
MS.444         	7.095          	5.434
MS.445         	7.08           	5.356
MS.446         	7.067          	5.364
MS.447         	7.052          	5.333
MS.448         	7.037          	5.396
MS.449         	7.025          	5.36
MS.450         	7.01           	5.273
MS.451         	6.995          	5.295
MS.452         	6.983          	5.255
MS.453         	6.967          	5.323
MS.454         	6.955          	5.319
MS.455         	6.94           	5.307
MS.456         	6.927          	5.193
MS.457         	6.912          	5.207
MS.458         	6.9            	5.199
MS.459         	6.885          	5.156
MS.460         	6.872          	5.257
MS.461         	6.858          	5.207
MS.462         	6.845          	5.168
MS.463         	6.83           	5.195
MS.464         	6.817          	5.17
MS.465         	6.802          	5.17
MS.466         	6.79           	5.132
MS.467         	6.775          	5.124
MS.468         	6.762          	5.058
MS.469         	6.747          	5.09
MS.470         	6.735          	5.058
MS.471         	6.722          	5.072
MS.472         	6.707          	5.031
MS.473         	6.695          	5.064
MS.474         	6.682          	5.035
MS.475         	6.668          	5.013
MS.476         	6.655          	5.015
MS.477         	6.642          	4.939
MS.478         	6.628          	4.953
MS.479         	6.615          	4.989
MS.480         	6.602          	4.904
MS.481         	6.587          	4.862
MS.482         	6.575          	4.884
MS.483         	6.562          	4.854
MS.484         	6.55           	4.798
MS.485         	6.535          	4.8
MS.486         	6.523          	4.804
MS.487         	6.51           	4.802
MS.488         	6.497          	4.822
MS.489         	6.485          	4.798
MS.490         	6.47           	4.743
MS.491         	6.457          	4.798
MS.492         	6.445          	4.673
MS.493         	6.432          	4.747
MS.494         	6.42           	4.709
MS.495         	6.407          	4.596
MS.496         	6.395          	4.685
MS.497         	6.38           	4.687
MS.498         	6.367          	4.629
MS.499         	6.355          	4.572
MS.500         	6.342          	4.622
MS.501         	6.33           	4.516
MS.502         	6.317          	4.584
