File:              	C:\Qtrac\Data\Daniel M Sørensen\MScan multicentre study\Data from centres\Antalya\Processed data\TR.NC.ANT.8.2- NCC01208D.QZD
Name:              	TR.NC.ANT.8.2
Protocol:          	MSCAN-R2
Date:              	8/12/20
Start time:        	16:13:42
Age:               	45
Sex:               	f
Temperature:       	30.4
S/R sites:         	TA
NC/disease:        	NC
Operator:          	ab
Comments:
M-SCAN DATA (7.4-0.7m)
Scanpts: 13, 19, 693, 706
Stim. (mA)     	Amp. (mV)
MS.1           	27             	5.954
MS.2           	27             	5.964
MS.3           	27             	5.946
MS.4           	27             	5.948
MS.5           	27             	5.942
MS.6           	27             	5.908
MS.7           	27             	5.972
MS.8           	27             	5.962
MS.9           	27             	5.932
MS.10          	27             	5.918
MS.11          	27             	5.938
MS.12          	27             	5.93
MS.13          	27             	5.942
MS.14          	27             	5.968
MS.15          	27             	5.936
MS.16          	27             	5.928
MS.17          	27             	5.944
MS.18          	27             	5.932
MS.19          	27             	5.946
MS.20          	27             	5.936
MS.21          	27             	5.946
MS.22          	27             	5.938
MS.23          	27             	5.887
MS.24          	26.837         	5.906
MS.25          	26.785         	5.918
MS.26          	26.73          	5.934
MS.27          	26.677         	5.899
MS.28          	26.625         	5.924
MS.29          	26.573         	5.91
MS.30          	26.517         	5.899
MS.31          	26.465         	5.904
MS.32          	26.412         	5.873
MS.33          	26.36          	5.914
MS.34          	26.307         	5.847
MS.35          	26.255         	5.845
MS.36          	26.202         	5.863
MS.37          	26.15          	5.839
MS.38          	26.097         	5.853
MS.39          	26.045         	5.803
MS.40          	25.993         	5.863
MS.41          	25.94          	5.829
MS.42          	25.89          	5.803
MS.43          	25.837         	5.805
MS.44          	25.785         	5.736
MS.45          	25.735         	5.722
MS.46          	25.682         	5.754
MS.47          	25.632         	5.799
MS.48          	25.58          	5.732
MS.49          	25.53          	5.787
MS.50          	25.477         	5.75
MS.51          	25.427         	5.783
MS.52          	25.377         	5.831
MS.53          	25.325         	5.807
MS.54          	25.275         	5.837
MS.55          	25.225         	5.752
MS.56          	25.175         	5.855
MS.57          	25.125         	5.855
MS.58          	25.075         	5.795
MS.59          	25.025         	5.756
MS.60          	24.975         	5.885
MS.61          	24.925         	5.805
MS.62          	24.875         	5.805
MS.63          	24.825         	5.845
MS.64          	24.775         	5.795
MS.65          	24.725         	5.853
MS.66          	24.675         	5.839
MS.67          	24.627         	5.752
MS.68          	24.577         	5.797
MS.69          	24.528         	5.835
MS.70          	24.48          	5.853
MS.71          	24.43          	5.863
MS.72          	24.382         	5.801
MS.73          	24.332         	5.904
MS.74          	24.285         	5.849
MS.75          	24.235         	5.704
MS.76          	24.188         	5.859
MS.77          	24.14          	5.849
MS.78          	24.09          	5.787
MS.79          	24.042         	5.869
MS.80          	23.995         	5.799
MS.81          	23.948         	5.664
MS.82          	23.9           	5.779
MS.83          	23.85          	5.767
MS.84          	23.802         	5.754
MS.85          	23.755         	5.801
MS.86          	23.707         	5.809
MS.87          	23.66          	5.714
MS.88          	23.615         	5.825
MS.89          	23.567         	5.732
MS.90          	23.52          	5.73
MS.91          	23.472         	5.746
MS.92          	23.425         	5.805
MS.93          	23.38          	5.767
MS.94          	23.332         	5.698
MS.95          	23.285         	5.696
MS.96          	23.24          	5.736
MS.97          	23.192         	5.825
MS.98          	23.145         	5.692
MS.99          	23.1           	5.674
MS.100         	23.055         	5.71
MS.101         	23.007         	5.599
MS.102         	22.962         	5.607
MS.103         	22.915         	5.561
MS.104         	22.87          	5.668
MS.105         	22.825         	5.573
MS.106         	22.78          	5.539
MS.107         	22.733         	5.65
MS.108         	22.688         	5.684
MS.109         	22.642         	5.599
MS.110         	22.597         	5.636
MS.111         	22.552         	5.692
MS.112         	22.507         	5.781
MS.113         	22.462         	5.813
MS.114         	22.417         	5.799
MS.115         	22.372         	5.797
MS.116         	22.327         	5.765
MS.117         	22.282         	5.69
MS.118         	22.237         	5.704
MS.119         	22.195         	5.696
MS.120         	22.15          	5.658
MS.121         	22.105         	5.656
MS.122         	22.062         	5.648
MS.123         	22.017         	5.698
MS.124         	21.972         	5.678
MS.125         	21.93          	5.599
MS.126         	21.885         	5.624
MS.127         	21.842         	5.601
MS.128         	21.797         	5.66
MS.129         	21.755         	5.591
MS.130         	21.712         	5.567
MS.131         	21.667         	5.599
MS.132         	21.625         	5.591
MS.133         	21.583         	5.535
MS.134         	21.538         	5.662
MS.135         	21.495         	5.545
MS.136         	21.452         	5.565
MS.137         	21.41          	5.642
MS.138         	21.368         	5.533
MS.139         	21.325         	5.575
MS.140         	21.282         	5.553
MS.141         	21.24          	5.597
MS.142         	21.198         	5.523
MS.143         	21.155         	5.561
MS.144         	21.112         	5.545
MS.145         	21.07          	5.505
MS.146         	21.028         	5.519
MS.147         	20.985         	5.571
MS.148         	20.942         	5.477
MS.149         	20.903         	5.493
MS.150         	20.86          	5.537
MS.151         	20.817         	5.501
MS.152         	20.778         	5.474
MS.153         	20.735         	5.493
MS.154         	20.695         	5.414
MS.155         	20.653         	5.529
MS.156         	20.61          	5.487
MS.157         	20.57          	5.432
MS.158         	20.53          	5.404
MS.159         	20.487         	5.539
MS.160         	20.448         	5.466
MS.161         	20.405         	5.493
MS.162         	20.365         	5.464
MS.163         	20.325         	5.499
MS.164         	20.285         	5.569
MS.165         	20.243         	5.493
MS.166         	20.202         	5.503
MS.167         	20.163         	5.479
MS.168         	20.122         	5.466
MS.169         	20.083         	5.47
MS.170         	20.042         	5.509
MS.171         	20.002         	5.414
MS.172         	19.962         	5.458
MS.173         	19.922         	5.456
MS.174         	19.882         	5.442
MS.175         	19.842         	5.418
MS.176         	19.802         	5.424
MS.177         	19.762         	5.468
MS.178         	19.725         	5.398
MS.179         	19.685         	5.412
MS.180         	19.645         	5.338
MS.181         	19.605         	5.42
MS.182         	19.567         	5.485
MS.183         	19.528         	5.372
MS.184         	19.487         	5.346
MS.185         	19.45          	5.416
MS.186         	19.41          	5.426
MS.187         	19.372         	5.368
MS.188         	19.333         	5.305
MS.189         	19.295         	5.317
MS.190         	19.255         	5.352
MS.191         	19.217         	5.336
MS.192         	19.18          	5.275
MS.193         	19.14          	5.37
MS.194         	19.102         	5.279
MS.195         	19.065         	5.289
MS.196         	19.028         	5.231
MS.197         	18.987         	5.195
MS.198         	18.95          	5.199
MS.199         	18.913         	5.269
MS.200         	18.875         	5.203
MS.201         	18.837         	5.209
MS.202         	18.8           	5.195
MS.203         	18.762         	5.247
MS.204         	18.725         	5.158
MS.205         	18.688         	5.146
MS.206         	18.65          	5.154
MS.207         	18.612         	5.19
MS.208         	18.575         	5.17
MS.209         	18.538         	5.144
MS.210         	18.5           	5.126
MS.211         	18.465         	5.096
MS.212         	18.427         	5.148
MS.213         	18.39          	5.086
MS.214         	18.352         	5.076
MS.215         	18.317         	5.162
MS.216         	18.28          	5.112
MS.217         	18.245         	4.991
MS.218         	18.208         	5.015
MS.219         	18.17          	5.1
MS.220         	18.135         	5.122
MS.221         	18.097         	5.064
MS.222         	18.062         	5.072
MS.223         	18.028         	4.987
MS.224         	17.99          	5.009
MS.225         	17.955         	5.013
MS.226         	17.917         	5.041
MS.227         	17.882         	5.005
MS.228         	17.847         	5.029
MS.229         	17.812         	4.997
MS.230         	17.775         	5.003
MS.231         	17.74          	5.023
MS.232         	17.705         	4.945
MS.233         	17.67          	5.007
MS.234         	17.635         	4.935
MS.235         	17.6           	4.917
MS.236         	17.562         	4.913
MS.237         	17.528         	4.892
MS.238         	17.493         	4.9
MS.239         	17.458         	4.896
MS.240         	17.422         	4.906
MS.241         	17.39          	4.86
MS.242         	17.355         	4.878
MS.243         	17.32          	4.846
MS.244         	17.285         	4.937
MS.245         	17.25          	4.854
MS.246         	17.215         	4.808
MS.247         	17.182         	4.864
MS.248         	17.147         	4.866
MS.249         	17.112         	4.802
MS.250         	17.077         	4.87
MS.251         	17.045         	4.832
MS.252         	17.01          	4.878
MS.253         	16.977         	4.846
MS.254         	16.942         	4.838
MS.255         	16.91          	4.804
MS.256         	16.875         	4.689
MS.257         	16.842         	4.766
MS.258         	16.807         	4.737
MS.259         	16.775         	4.685
MS.260         	16.74          	4.778
MS.261         	16.708         	4.641
MS.262         	16.672         	4.721
MS.263         	16.64          	4.695
MS.264         	16.608         	4.673
MS.265         	16.575         	4.604
MS.266         	16.54          	4.669
MS.267         	16.507         	4.711
MS.268         	16.475         	4.528
MS.269         	16.442         	4.564
MS.270         	16.41          	4.401
MS.271         	16.378         	4.451
MS.272         	16.342         	4.502
MS.273         	16.31          	4.415
MS.274         	16.278         	4.441
MS.275         	16.245         	4.242
MS.276         	16.212         	4.475
MS.277         	16.18          	4.488
MS.278         	16.147         	4.389
MS.279         	16.118         	4.181
MS.280         	16.085         	4.149
MS.281         	16.052         	4.127
MS.282         	16.02          	4.169
MS.283         	15.987         	4.099
MS.284         	15.955         	4.191
MS.285         	15.925         	4.133
MS.286         	15.892         	4.113
MS.287         	15.86          	4.097
MS.288         	15.83          	4.073
MS.289         	15.797         	3.98
MS.290         	15.765         	4.163
MS.291         	15.735         	4.185
MS.292         	15.702         	3.974
MS.293         	15.672         	3.976
MS.294         	15.64          	3.978
MS.295         	15.61          	4.212
MS.296         	15.577         	4.095
MS.297         	15.547         	4.254
MS.298         	15.515         	4.111
MS.299         	15.485         	4.121
MS.300         	15.452         	4.065
MS.301         	15.422         	4.165
MS.302         	15.392         	4.169
MS.303         	15.36          	4.183
MS.304         	15.33          	4.081
MS.305         	15.3           	4.028
MS.306         	15.27          	3.801
MS.307         	15.237         	4.046
MS.308         	15.207         	3.962
MS.309         	15.177         	3.972
MS.310         	15.148         	4.135
MS.311         	15.117         	4.034
MS.312         	15.087         	3.952
MS.313         	15.057         	4.113
MS.314         	15.027         	4.05
MS.315         	14.997         	4.061
MS.316         	14.967         	4.119
MS.317         	14.938         	4.03
MS.318         	14.907         	3.992
MS.319         	14.877         	4.018
MS.320         	14.847         	3.988
MS.321         	14.818         	3.865
MS.322         	14.787         	4.107
MS.323         	14.757         	3.944
MS.324         	14.73          	3.958
MS.325         	14.7           	4.002
MS.326         	14.67          	3.813
MS.327         	14.64          	3.887
MS.328         	14.612         	3.809
MS.329         	14.582         	3.728
MS.330         	14.552         	3.805
MS.331         	14.525         	3.597
MS.332         	14.495         	3.69
MS.333         	14.467         	3.837
MS.334         	14.438         	3.547
MS.335         	14.407         	3.537
MS.336         	14.38          	3.48
MS.337         	14.35          	3.64
MS.338         	14.322         	3.646
MS.339         	14.295         	3.575
MS.340         	14.265         	3.424
MS.341         	14.237         	3.452
MS.342         	14.207         	3.541
MS.343         	14.18          	3.406
MS.344         	14.153         	3.39
MS.345         	14.122         	3.539
MS.346         	14.095         	3.291
MS.347         	14.068         	3.39
MS.348         	14.04          	3.194
MS.349         	14.01          	3.309
MS.350         	13.983         	3.309
MS.351         	13.955         	3.327
MS.352         	13.927         	3.337
MS.353         	13.9           	3.331
MS.354         	13.872         	3.237
MS.355         	13.842         	3.14
MS.356         	13.815         	3.128
MS.357         	13.787         	3.223
MS.358         	13.76          	3.184
MS.359         	13.733         	3.068
MS.360         	13.705         	3.122
MS.361         	13.677         	3.158
MS.362         	13.653         	2.943
MS.363         	13.625         	2.955
MS.364         	13.597         	3.037
MS.365         	13.57          	2.949
MS.366         	13.542         	3.007
MS.367         	13.515         	3.029
MS.368         	13.487         	3.015
MS.369         	13.462         	2.945
MS.370         	13.435         	3.001
MS.371         	13.407         	2.898
MS.372         	13.38          	2.834
MS.373         	13.355         	2.979
MS.374         	13.327         	2.862
MS.375         	13.3           	2.784
MS.376         	13.275         	2.771
MS.377         	13.247         	2.747
MS.378         	13.222         	2.82
MS.379         	13.195         	2.681
MS.380         	13.167         	2.653
MS.381         	13.142         	2.703
MS.382         	13.115         	2.751
MS.383         	13.09          	2.633
MS.384         	13.062         	2.616
MS.385         	13.037         	2.717
MS.386         	13.012         	2.536
MS.387         	12.985         	2.767
MS.388         	12.96          	2.532
MS.389         	12.932         	2.689
MS.390         	12.907         	2.492
MS.391         	12.882         	2.435
MS.392         	12.858         	2.622
MS.393         	12.83          	2.727
MS.394         	12.805         	2.725
MS.395         	12.78          	2.622
MS.396         	12.755         	2.453
MS.397         	12.727         	2.49
MS.398         	12.702         	2.389
MS.399         	12.677         	2.522
MS.400         	12.653         	2.574
MS.401         	12.627         	2.389
MS.402         	12.602         	2.363
MS.403         	12.577         	2.439
MS.404         	12.552         	2.385
MS.405         	12.528         	2.334
MS.406         	12.502         	2.316
MS.407         	12.477         	2.328
MS.408         	12.452         	2.254
MS.409         	12.427         	2.296
MS.410         	12.403         	2.26
MS.411         	12.377         	2.302
MS.412         	12.352         	2.292
MS.413         	12.327         	2.169
MS.414         	12.302         	2.258
MS.415         	12.278         	2.201
MS.416         	12.255         	2.214
MS.417         	12.23          	2.169
MS.418         	12.205         	2.183
MS.419         	12.18          	2.075
MS.420         	12.155         	2.089
MS.421         	12.132         	2.042
MS.422         	12.108         	2.109
MS.423         	12.082         	2.073
MS.424         	12.06          	2.079
MS.425         	12.035         	2.099
MS.426         	12.01          	2.089
MS.427         	11.988         	2.04
MS.428         	11.962         	2
MS.429         	11.94          	1.998
MS.430         	11.915         	2.032
MS.431         	11.892         	2.002
MS.432         	11.867         	1.974
MS.433         	11.845         	1.95
MS.434         	11.82          	1.986
MS.435         	11.797         	1.934
MS.436         	11.773         	1.919
MS.437         	11.75          	1.819
MS.438         	11.727         	1.781
MS.439         	11.702         	1.738
MS.440         	11.68          	1.774
MS.441         	11.655         	1.791
MS.442         	11.632         	1.77
MS.443         	11.61          	1.716
MS.444         	11.587         	1.722
MS.445         	11.562         	1.676
MS.446         	11.54          	1.732
MS.447         	11.517         	1.67
MS.448         	11.495         	1.696
MS.449         	11.47          	1.678
MS.450         	11.447         	1.64
MS.451         	11.425         	1.666
MS.452         	11.403         	1.587
MS.453         	11.38          	1.642
MS.454         	11.358         	1.529
MS.455         	11.335         	1.448
MS.456         	11.312         	1.509
MS.457         	11.29          	1.529
MS.458         	11.267         	1.456
MS.459         	11.245         	1.45
MS.460         	11.222         	1.372
MS.461         	11.2           	1.392
MS.462         	11.177         	1.392
MS.463         	11.155         	1.49
MS.464         	11.132         	1.315
MS.465         	11.11          	1.273
MS.466         	11.087         	1.223
MS.467         	11.065         	1.267
MS.468         	11.042         	1.319
MS.469         	11.023         	1.112
MS.470         	11             	1.194
MS.471         	10.977         	1.241
MS.472         	10.955         	1.174
MS.473         	10.932         	1.19
MS.474         	10.912         	1.15
MS.475         	10.89          	1.084
MS.476         	10.867         	1.047
MS.477         	10.847         	1.074
MS.478         	10.825         	1.059
MS.479         	10.802         	1.035
MS.480         	10.782         	1.057
MS.481         	10.76          	0.929
MS.482         	10.738         	1.047
MS.483         	10.717         	0.894
MS.484         	10.695         	0.84
MS.485         	10.675         	0.878
MS.486         	10.653         	0.88
MS.487         	10.632         	0.854
MS.488         	10.61          	0.828
MS.489         	10.59          	0.723
MS.490         	10.568         	0.786
MS.491         	10.547         	0.804
MS.492         	10.525         	0.804
MS.493         	10.505         	0.739
MS.494         	10.485         	0.727
MS.495         	10.462         	0.767
MS.496         	10.443         	0.719
MS.497         	10.42          	0.683
MS.498         	10.4           	0.638
MS.499         	10.38          	0.641
MS.500         	10.36          	0.689
MS.501         	10.337         	0.634
