File:              	C:\Qtrac\Data\Daniel M Sørensen\MScan multicentre study\Data from centres\Antalya\Processed data\TR.NC.ANT.9.1- NCC01201A.QZD
Name:              	TR.NC.ANT.9.1
Protocol:          	MSCAN-R2
Date:              	1/12/20
Start time:        	18:27:03
Age:               	49
Sex:               	f
Temperature:       	31.1
S/R sites:         	ADM
NC/disease:        	NC
Operator:
Comments:
M-SCAN DATA (9.2-0.6m)
Scanpts: 81, 86, 856, 866
Stim. (mA)     	Amp. (mV)
MS.1           	25.5           	8.085
MS.2           	25.5           	8.23
MS.3           	25.5           	8.145
MS.4           	25.5           	8.163
MS.5           	25.5           	8.196
MS.6           	25.5           	8.184
MS.7           	25.5           	8.163
MS.8           	25.5           	8.204
MS.9           	25.5           	8.238
MS.10          	25.5           	8.151
MS.11          	25.5           	8.169
MS.12          	25.5           	8.19
MS.13          	25.5           	8.202
MS.14          	25.5           	8.246
MS.15          	25.5           	8.276
MS.16          	25.5           	8.298
MS.17          	25.5           	8.323
MS.18          	25.5           	8.337
MS.19          	25.5           	8.367
MS.20          	25.5           	8.367
MS.21          	25.5           	8.391
MS.22          	25.5           	8.437
MS.23          	25.5           	8.461
MS.24          	25.397         	8.421
MS.25          	25.347         	8.419
MS.26          	25.297         	8.439
MS.27          	25.245         	8.419
MS.28          	25.195         	8.544
MS.29          	25.145         	8.405
MS.30          	25.095         	8.461
MS.31          	25.045         	8.47
MS.32          	24.995         	8.455
MS.33          	24.945         	8.518
MS.34          	24.895         	8.484
MS.35          	24.845         	8.413
MS.36          	24.795         	8.447
MS.37          	24.747         	8.466
MS.38          	24.698         	8.494
MS.39          	24.647         	8.506
MS.40          	24.597         	8.51
MS.41          	24.55          	8.5
MS.42          	24.5           	8.472
MS.43          	24.45          	8.508
MS.44          	24.403         	8.508
MS.45          	24.352         	8.486
MS.46          	24.305         	8.472
MS.47          	24.257         	8.496
MS.48          	24.207         	8.49
MS.49          	24.16          	8.488
MS.50          	24.11          	8.514
MS.51          	24.062         	8.498
MS.52          	24.015         	8.498
MS.53          	23.967         	8.512
MS.54          	23.92          	8.5
MS.55          	23.87          	8.506
MS.56          	23.823         	8.524
MS.57          	23.775         	8.466
MS.58          	23.727         	8.494
MS.59          	23.68          	8.588
MS.60          	23.632         	8.536
MS.61          	23.587         	8.431
MS.62          	23.54          	8.449
MS.63          	23.493         	8.482
MS.64          	23.445         	8.508
MS.65          	23.397         	8.548
MS.66          	23.352         	8.52
MS.67          	23.305         	8.488
MS.68          	23.257         	8.486
MS.69          	23.212         	8.518
MS.70          	23.165         	8.574
MS.71          	23.12          	8.57
MS.72          	23.073         	8.528
MS.73          	23.028         	8.566
MS.74          	22.98          	8.584
MS.75          	22.935         	8.562
MS.76          	22.89          	8.586
MS.77          	22.842         	8.607
MS.78          	22.797         	8.582
MS.79          	22.752         	8.613
MS.80          	22.707         	8.592
MS.81          	22.663         	8.602
MS.82          	22.618         	8.602
MS.83          	22.57          	8.607
MS.84          	22.525         	8.613
MS.85          	22.48          	8.619
MS.86          	22.435         	8.598
MS.87          	22.392         	8.613
MS.88          	22.347         	8.607
MS.89          	22.302         	8.602
MS.90          	22.257         	8.613
MS.91          	22.212         	8.604
MS.92          	22.167         	8.574
MS.93          	22.125         	8.57
MS.94          	22.08          	8.574
MS.95          	22.035         	8.57
MS.96          	21.993         	8.572
MS.97          	21.948         	8.586
MS.98          	21.905         	8.572
MS.99          	21.86          	8.588
MS.100         	21.817         	8.57
MS.101         	21.772         	8.568
MS.102         	21.73          	8.576
MS.103         	21.685         	8.58
MS.104         	21.642         	8.572
MS.105         	21.6           	8.578
MS.106         	21.557         	8.572
MS.107         	21.512         	8.558
MS.108         	21.47          	8.57
MS.109         	21.427         	8.58
MS.110         	21.385         	8.554
MS.111         	21.342         	8.526
MS.112         	21.3           	8.53
MS.113         	21.257         	8.514
MS.114         	21.215         	8.516
MS.115         	21.172         	8.524
MS.116         	21.13          	8.544
MS.117         	21.087         	8.57
MS.118         	21.045         	8.528
MS.119         	21.002         	8.538
MS.120         	20.96          	8.508
MS.121         	20.92          	8.512
MS.122         	20.877         	8.516
MS.123         	20.835         	8.504
MS.124         	20.795         	8.496
MS.125         	20.752         	8.508
MS.126         	20.71          	8.472
MS.127         	20.67          	8.498
MS.128         	20.627         	8.441
MS.129         	20.587         	8.472
MS.130         	20.545         	8.51
MS.131         	20.505         	8.476
MS.132         	20.465         	8.496
MS.133         	20.422         	8.466
MS.134         	20.382         	8.472
MS.135         	20.342         	8.472
MS.136         	20.3           	8.47
MS.137         	20.26          	8.48
MS.138         	20.22          	8.506
MS.139         	20.18          	8.47
MS.140         	20.14          	8.516
MS.141         	20.1           	8.516
MS.142         	20.06          	8.478
MS.143         	20.02          	8.484
MS.144         	19.98          	8.478
MS.145         	19.94          	8.459
MS.146         	19.9           	8.47
MS.147         	19.86          	8.451
MS.148         	19.82          	8.437
MS.149         	19.78          	8.453
MS.150         	19.74          	8.429
MS.151         	19.7           	8.419
MS.152         	19.663         	8.421
MS.153         	19.622         	8.419
MS.154         	19.583         	8.421
MS.155         	19.545         	8.389
MS.156         	19.505         	8.429
MS.157         	19.465         	8.423
MS.158         	19.427         	8.399
MS.159         	19.387         	8.377
MS.160         	19.35          	8.407
MS.161         	19.31          	8.413
MS.162         	19.272         	8.411
MS.163         	19.235         	8.371
MS.164         	19.195         	8.379
MS.165         	19.157         	8.381
MS.166         	19.12          	8.337
MS.167         	19.08          	8.389
MS.168         	19.042         	8.355
MS.169         	19.005         	8.387
MS.170         	18.967         	8.389
MS.171         	18.927         	8.353
MS.172         	18.89          	8.381
MS.173         	18.852         	8.343
MS.174         	18.815         	8.325
MS.175         	18.778         	8.204
MS.176         	18.74          	8.264
MS.177         	18.702         	8.262
MS.178         	18.665         	8.278
MS.179         	18.628         	8.268
MS.180         	18.59          	8.264
MS.181         	18.555         	8.26
MS.182         	18.517         	8.268
MS.183         	18.48          	8.27
MS.184         	18.442         	8.282
MS.185         	18.405         	8.318
MS.186         	18.37          	8.31
MS.187         	18.333         	8.329
MS.188         	18.295         	8.323
MS.189         	18.26          	8.331
MS.190         	18.222         	8.355
MS.191         	18.188         	8.325
MS.192         	18.15          	8.3
MS.193         	18.115         	8.331
MS.194         	18.077         	8.331
MS.195         	18.042         	8.3
MS.196         	18.005         	8.341
MS.197         	17.97          	8.365
MS.198         	17.932         	8.361
MS.199         	17.897         	8.385
MS.200         	17.862         	8.331
MS.201         	17.827         	8.308
MS.202         	17.79          	8.325
MS.203         	17.755         	8.339
MS.204         	17.72          	8.31
MS.205         	17.685         	8.325
MS.206         	17.65          	8.333
MS.207         	17.612         	8.308
MS.208         	17.577         	8.292
MS.209         	17.542         	8.296
MS.210         	17.507         	8.316
MS.211         	17.472         	8.258
MS.212         	17.438         	8.252
MS.213         	17.403         	8.268
MS.214         	17.37          	8.258
MS.215         	17.335         	8.208
MS.216         	17.3           	8.25
MS.217         	17.265         	8.258
MS.218         	17.23          	8.262
MS.219         	17.195         	8.2
MS.220         	17.163         	8.264
MS.221         	17.128         	8.254
MS.222         	17.092         	8.222
MS.223         	17.06          	8.214
MS.224         	17.025         	8.244
MS.225         	16.99          	8.212
MS.226         	16.958         	8.228
MS.227         	16.922         	8.212
MS.228         	16.89          	8.21
MS.229         	16.855         	8.206
MS.230         	16.823         	8.234
MS.231         	16.788         	8.2
MS.232         	16.755         	8.186
MS.233         	16.72          	8.214
MS.234         	16.688         	8.184
MS.235         	16.655         	8.155
MS.236         	16.62          	8.171
MS.237         	16.587         	8.159
MS.238         	16.555         	8.165
MS.239         	16.522         	8.131
MS.240         	16.487         	8.171
MS.241         	16.455         	8.177
MS.242         	16.422         	8.208
MS.243         	16.39          	8.139
MS.244         	16.358         	8.153
MS.245         	16.325         	8.147
MS.246         	16.292         	8.167
MS.247         	16.26          	8.109
MS.248         	16.227         	8.079
MS.249         	16.195         	8.006
MS.250         	16.163         	8.061
MS.251         	16.13          	8.024
MS.252         	16.097         	7.972
MS.253         	16.065         	7.896
MS.254         	16.032         	7.99
MS.255         	16.003         	8.039
MS.256         	15.97          	7.972
MS.257         	15.938         	7.978
MS.258         	15.905         	7.994
MS.259         	15.875         	7.968
MS.260         	15.842         	7.998
MS.261         	15.81          	7.966
MS.262         	15.78          	7.934
MS.263         	15.747         	7.954
MS.264         	15.715         	7.946
MS.265         	15.685         	7.908
MS.266         	15.652         	7.908
MS.267         	15.622         	7.934
MS.268         	15.59          	7.883
MS.269         	15.56          	7.849
MS.270         	15.527         	7.91
MS.271         	15.497         	7.835
MS.272         	15.467         	7.887
MS.273         	15.435         	7.849
MS.274         	15.405         	7.833
MS.275         	15.375         	7.9
MS.276         	15.342         	7.889
MS.277         	15.312         	7.843
MS.278         	15.282         	7.843
MS.279         	15.252         	7.853
MS.280         	15.22          	7.871
MS.281         	15.19          	7.893
MS.282         	15.16          	7.825
MS.283         	15.13          	7.817
MS.284         	15.1           	7.849
MS.285         	15.07          	7.847
MS.286         	15.04          	7.783
MS.287         	15.01          	7.821
MS.288         	14.98          	7.825
MS.289         	14.95          	7.825
MS.290         	14.92          	7.765
MS.291         	14.89          	7.775
MS.292         	14.86          	7.767
MS.293         	14.83          	7.795
MS.294         	14.8           	7.787
MS.295         	14.77          	7.612
MS.296         	14.742         	7.785
MS.297         	14.712         	7.777
MS.298         	14.682         	7.718
MS.299         	14.652         	7.761
MS.300         	14.625         	7.533
MS.301         	14.595         	7.571
MS.302         	14.565         	7.755
MS.303         	14.537         	7.682
MS.304         	14.507         	7.676
MS.305         	14.477         	7.668
MS.306         	14.45          	7.652
MS.307         	14.42          	7.622
MS.308         	14.392         	7.597
MS.309         	14.362         	7.197
MS.310         	14.335         	7.71
MS.311         	14.305         	7.682
MS.312         	14.278         	7.579
MS.313         	14.25          	7.644
MS.314         	14.22          	7.491
MS.315         	14.193         	7.678
MS.316         	14.162         	7.696
MS.317         	14.135         	7.563
MS.318         	14.108         	7.662
MS.319         	14.08          	7.609
MS.320         	14.05          	7.603
MS.321         	14.023         	7.664
MS.322         	13.995         	7.607
MS.323         	13.967         	7.452
MS.324         	13.94          	7.612
MS.325         	13.91          	7.547
MS.326         	13.882         	7.682
MS.327         	13.855         	7.555
MS.328         	13.827         	7.523
MS.329         	13.8           	7.583
MS.330         	13.773         	7.497
MS.331         	13.745         	7.199
MS.332         	13.717         	7.614
MS.333         	13.69          	7.581
MS.334         	13.662         	7.595
MS.335         	13.635         	7.37
MS.336         	13.608         	7.376
MS.337         	13.58          	7.495
MS.338         	13.555         	7.315
MS.339         	13.528         	7.118
MS.340         	13.5           	7.469
MS.341         	13.472         	7.475
MS.342         	13.445         	7.442
MS.343         	13.42          	7.38
MS.344         	13.392         	7.14
MS.345         	13.365         	7.39
MS.346         	13.34          	7.273
MS.347         	13.312         	6.913
MS.348         	13.285         	7.273
MS.349         	13.26          	6.864
MS.350         	13.233         	7.116
MS.351         	13.205         	7.205
MS.352         	13.18          	6.828
MS.353         	13.153         	7.313
MS.354         	13.127         	7.046
MS.355         	13.1           	6.592
MS.356         	13.075         	7.138
MS.357         	13.047         	6.693
MS.358         	13.023         	6.578
MS.359         	12.997         	7.003
MS.360         	12.97          	6.653
MS.361         	12.945         	6.31
MS.362         	12.917         	6.447
MS.363         	12.892         	6.359
MS.364         	12.867         	6.536
MS.365         	12.842         	5.628
MS.366         	12.815         	6.441
MS.367         	12.79          	6.431
MS.368         	12.765         	6.921
MS.369         	12.74          	6.415
MS.370         	12.712         	5.98
MS.371         	12.688         	6.53
MS.372         	12.662         	6.439
MS.373         	12.637         	6.584
MS.374         	12.613         	6.419
MS.375         	12.587         	5.553
MS.376         	12.562         	6.679
MS.377         	12.537         	6.282
MS.378         	12.512         	6.268
MS.379         	12.488         	6.405
MS.380         	12.462         	5.835
MS.381         	12.438         	6.689
MS.382         	12.412         	6.449
MS.383         	12.387         	5.968
MS.384         	12.363         	6.411
MS.385         	12.337         	6.234
MS.386         	12.312         	6.534
MS.387         	12.287         	6.385
MS.388         	12.265         	5.922
MS.389         	12.24          	6.594
MS.390         	12.215         	6.494
MS.391         	12.19          	6.437
MS.392         	12.167         	6.417
MS.393         	12.142         	6.196
MS.394         	12.117         	6.623
MS.395         	12.092         	6.365
MS.396         	12.07          	6.034
MS.397         	12.045         	6.387
MS.398         	12.02          	6.101
MS.399         	11.997         	6.633
MS.400         	11.972         	6.417
MS.401         	11.95          	5.495
MS.402         	11.925         	6.357
MS.403         	11.903         	6.129
MS.404         	11.877         	6.333
MS.405         	11.855         	6.431
MS.406         	11.83          	5.95
MS.407         	11.807         	6.393
MS.408         	11.782         	6.216
MS.409         	11.76          	5.918
MS.410         	11.735         	6.353
MS.411         	11.712         	5.906
MS.412         	11.69          	6.373
MS.413         	11.665         	6.324
MS.414         	11.642         	5.841
MS.415         	11.62          	6.31
MS.416         	11.595         	6.038
MS.417         	11.572         	6.202
MS.418         	11.55          	6.339
MS.419         	11.528         	5.958
MS.420         	11.505         	6.288
MS.421         	11.48          	6.29
MS.422         	11.457         	6.091
MS.423         	11.435         	6.421
MS.424         	11.412         	6.101
MS.425         	11.39          	6.421
MS.426         	11.367         	6.494
MS.427         	11.345         	6.047
MS.428         	11.32          	6.333
MS.429         	11.297         	5.948
MS.430         	11.275         	5.585
MS.431         	11.252         	6.228
MS.432         	11.23          	5.926
MS.433         	11.207         	6.137
MS.434         	11.185         	5.948
MS.435         	11.165         	5.976
MS.436         	11.142         	6.057
MS.437         	11.12          	5.674
MS.438         	11.097         	5.106
MS.439         	11.075         	5.668
MS.440         	11.052         	5.595
MS.441         	11.03          	6.044
MS.442         	11.007         	5.607
MS.443         	10.988         	4.453
MS.444         	10.965         	5.805
MS.445         	10.943         	5.563
MS.446         	10.92          	4.884
MS.447         	10.9           	5.321
MS.448         	10.877         	4.677
MS.449         	10.855         	5.843
MS.450         	10.835         	5.416
MS.451         	10.812         	4.387
MS.452         	10.79          	5.267
MS.453         	10.77          	5.033
MS.454         	10.747         	5.249
MS.455         	10.725         	5.382
MS.456         	10.705         	4.409
MS.457         	10.682         	5.384
MS.458         	10.662         	5.229
MS.459         	10.64          	4.334
MS.460         	10.62          	4.971
MS.461         	10.597         	4.693
MS.462         	10.577         	5.714
MS.463         	10.555         	5.275
MS.464         	10.535         	4.397
MS.465         	10.512         	5.428
MS.466         	10.492         	5.108
MS.467         	10.472         	5.662
MS.468         	10.45          	5.045
MS.469         	10.43          	4.242
MS.470         	10.41          	5.158
MS.471         	10.387         	4.818
MS.472         	10.367         	4.949
MS.473         	10.347         	4.701
MS.474         	10.325         	3.901
MS.475         	10.305         	4.959
MS.476         	10.285         	4.743
MS.477         	10.265         	3.853
MS.478         	10.245         	4.421
MS.479         	10.222         	4.02
MS.480         	10.202         	4.82
MS.481         	10.182         	4.471
MS.482         	10.162         	3.573
MS.483         	10.142         	4.681
MS.484         	10.122         	4.33
MS.485         	10.102         	3.869
MS.486         	10.08          	4.226
MS.487         	10.06          	3.938
MS.488         	10.04          	4.252
MS.489         	10.02          	4.367
MS.490         	10             	3.76
MS.491         	9.98           	4.389
MS.492         	9.96           	3.746
MS.493         	9.94           	4.278
MS.494         	9.92           	4.135
MS.495         	9.903          	3.45
MS.496         	9.882          	4.008
MS.497         	9.863          	3.487
MS.498         	9.842          	3.889
MS.499         	9.823          	3.944
MS.500         	9.802          	3.078
MS.501         	9.782          	4.101
