File:              	C:\Qtrac\Data\Daniel M Sørensen\MScan multicentre study\Data from centres\Antalya\Processed data\TR.NC.ANT.6.2- NCC00930B.QZD
Name:              	TR.NC.ANT.6.2
Protocol:          	MSCAN-R2
Date:              	30/9/20
Start time:        	20:19:42
Age:               	27
Sex:               	m
Temperature:       	34.4
S/R sites:         	ADM
NC/disease:        	NC
Operator:          	ab
Comments:
M-SCAN DATA (5.5-0.7m)
Scanpts: 88, 93, 502, 523
Stim. (mA)     	Amp. (mV)
MS.1           	33             	6.731
MS.2           	33             	6.762
MS.3           	33             	6.711
MS.4           	33             	6.719
MS.5           	33             	6.697
MS.6           	33             	6.715
MS.7           	33             	6.721
MS.8           	33             	6.711
MS.9           	33             	6.727
MS.10          	33             	6.768
MS.11          	33             	6.735
MS.12          	33             	6.733
MS.13          	33             	6.727
MS.14          	33             	6.766
MS.15          	33             	6.701
MS.16          	33             	6.661
MS.17          	33             	6.715
MS.18          	33             	6.745
MS.19          	33             	6.755
MS.20          	33             	6.697
MS.21          	33             	6.731
MS.22          	33             	6.711
MS.23          	33             	6.729
MS.24          	32.868         	6.701
MS.25          	32.802         	6.715
MS.26          	32.737         	6.729
MS.27          	32.673         	6.705
MS.28          	32.605         	6.657
MS.29          	32.54          	6.715
MS.30          	32.475         	6.749
MS.31          	32.41          	6.685
MS.32          	32.347         	6.727
MS.33          	32.282         	6.693
MS.34          	32.217         	6.741
MS.35          	32.153         	6.711
MS.36          	32.087         	6.727
MS.37          	32.025         	6.709
MS.38          	31.96          	6.629
MS.39          	31.897         	6.619
MS.40          	31.832         	6.631
MS.41          	31.77          	6.645
MS.42          	31.705         	6.598
MS.43          	31.642         	6.586
MS.44          	31.58          	6.657
MS.45          	31.517         	6.649
MS.46          	31.452         	6.596
MS.47          	31.39          	6.534
MS.48          	31.327         	6.621
MS.49          	31.265         	6.669
MS.50          	31.202         	6.673
MS.51          	31.14          	6.602
MS.52          	31.077         	6.6
MS.53          	31.015         	6.556
MS.54          	30.955         	6.578
MS.55          	30.892         	6.598
MS.56          	30.83          	6.568
MS.57          	30.77          	6.582
MS.58          	30.707         	6.641
MS.59          	30.645         	6.645
MS.60          	30.585         	6.615
MS.61          	30.522         	6.643
MS.62          	30.462         	6.667
MS.63          	30.403         	6.683
MS.64          	30.34          	6.635
MS.65          	30.28          	6.661
MS.66          	30.22          	6.661
MS.67          	30.16          	6.621
MS.68          	30.1           	6.653
MS.69          	30.04          	6.655
MS.70          	29.98          	6.623
MS.71          	29.92          	6.6
MS.72          	29.86          	6.578
MS.73          	29.8           	6.635
MS.74          	29.74          	6.643
MS.75          	29.68          	6.596
MS.76          	29.622         	6.629
MS.77          	29.562         	6.649
MS.78          	29.502         	6.627
MS.79          	29.445         	6.635
MS.80          	29.385         	6.683
MS.81          	29.327         	6.661
MS.82          	29.267         	6.59
MS.83          	29.21          	6.617
MS.84          	29.153         	6.645
MS.85          	29.092         	6.665
MS.86          	29.035         	6.709
MS.87          	28.977         	6.751
MS.88          	28.92          	6.667
MS.89          	28.862         	6.729
MS.90          	28.802         	6.725
MS.91          	28.745         	6.778
MS.92          	28.688         	6.683
MS.93          	28.632         	6.758
MS.94          	28.575         	6.697
MS.95          	28.517         	6.667
MS.96          	28.46          	6.695
MS.97          	28.403         	6.727
MS.98          	28.347         	6.741
MS.99          	28.29          	6.707
MS.100         	28.233         	6.725
MS.101         	28.177         	6.743
MS.102         	28.12          	6.677
MS.103         	28.065         	6.778
MS.104         	28.007         	6.755
MS.105         	27.952         	6.79
MS.106         	27.897         	6.671
MS.107         	27.84          	6.697
MS.108         	27.785         	6.739
MS.109         	27.73          	6.653
MS.110         	27.675         	6.705
MS.111         	27.62          	6.691
MS.112         	27.565         	6.739
MS.113         	27.507         	6.83
MS.114         	27.455         	6.804
MS.115         	27.4           	6.824
MS.116         	27.345         	6.898
MS.117         	27.29          	6.798
MS.118         	27.235         	6.818
MS.119         	27.18          	6.939
MS.120         	27.127         	6.83
MS.121         	27.073         	6.766
MS.122         	27.017         	6.691
MS.123         	26.965         	6.727
MS.124         	26.91          	6.727
MS.125         	26.858         	6.76
MS.126         	26.802         	6.721
MS.127         	26.75          	6.635
MS.128         	26.695         	6.617
MS.129         	26.642         	6.762
MS.130         	26.59          	6.733
MS.131         	26.535         	6.635
MS.132         	26.483         	6.737
MS.133         	26.43          	6.703
MS.134         	26.377         	6.492
MS.135         	26.325         	6.612
MS.136         	26.272         	6.612
MS.137         	26.22          	6.58
MS.138         	26.167         	6.641
MS.139         	26.115         	6.552
MS.140         	26.062         	6.524
MS.141         	26.01          	6.554
MS.142         	25.957         	6.822
MS.143         	25.907         	6.661
MS.144         	25.855         	6.612
MS.145         	25.802         	6.84
MS.146         	25.752         	6.621
MS.147         	25.7           	6.556
MS.148         	25.65          	6.61
MS.149         	25.597         	6.721
MS.150         	25.547         	6.584
MS.151         	25.495         	6.661
MS.152         	25.445         	6.824
MS.153         	25.395         	6.647
MS.154         	25.342         	6.637
MS.155         	25.292         	6.643
MS.156         	25.243         	6.548
MS.157         	25.192         	6.703
MS.158         	25.14          	6.447
MS.159         	25.09          	6.544
MS.160         	25.04          	6.502
MS.161         	24.99          	6.423
MS.162         	24.94          	6.425
MS.163         	24.89          	6.29
MS.164         	24.84          	6.244
MS.165         	24.792         	6.457
MS.166         	24.743         	6.278
MS.167         	24.692         	6.212
MS.168         	24.642         	6.254
MS.169         	24.595         	6.367
MS.170         	24.545         	6.181
MS.171         	24.495         	6.296
MS.172         	24.448         	6.21
MS.173         	24.397         	6.085
MS.174         	24.35          	6.369
MS.175         	24.3           	6.179
MS.176         	24.252         	6.192
MS.177         	24.202         	5.863
MS.178         	24.155         	5.976
MS.179         	24.108         	6.057
MS.180         	24.06          	6.004
MS.181         	24.01          	5.851
MS.182         	23.962         	6.053
MS.183         	23.915         	5.795
MS.184         	23.868         	5.853
MS.185         	23.82          	5.97
MS.186         	23.772         	5.883
MS.187         	23.725         	5.837
MS.188         	23.677         	5.714
MS.189         	23.63          	5.746
MS.190         	23.582         	5.833
MS.191         	23.535         	5.744
MS.192         	23.487         	5.877
MS.193         	23.442         	5.628
MS.194         	23.395         	5.732
MS.195         	23.347         	5.559
MS.196         	23.3           	5.521
MS.197         	23.255         	5.605
MS.198         	23.207         	5.549
MS.199         	23.163         	5.511
MS.200         	23.115         	5.591
MS.201         	23.07          	5.575
MS.202         	23.022         	5.47
MS.203         	22.977         	5.525
MS.204         	22.932         	5.565
MS.205         	22.885         	5.422
MS.206         	22.84          	5.483
MS.207         	22.795         	5.438
MS.208         	22.747         	5.333
MS.209         	22.702         	5.458
MS.210         	22.657         	5.392
MS.211         	22.612         	5.327
MS.212         	22.567         	5.098
MS.213         	22.522         	5.41
MS.214         	22.477         	5.331
MS.215         	22.432         	5.438
MS.216         	22.387         	5.338
MS.217         	22.342         	5.118
MS.218         	22.297         	4.995
MS.219         	22.252         	5.039
MS.220         	22.21          	4.967
MS.221         	22.165         	4.909
MS.222         	22.12          	5.247
MS.223         	22.077         	4.983
MS.224         	22.032         	5.201
MS.225         	21.987         	4.987
MS.226         	21.945         	5.265
MS.227         	21.9           	5.064
MS.228         	21.858         	5.066
MS.229         	21.812         	4.83
MS.230         	21.77          	4.794
MS.231         	21.725         	4.737
MS.232         	21.682         	4.832
MS.233         	21.64          	5.193
MS.234         	21.595         	4.975
MS.235         	21.552         	4.669
MS.236         	21.51          	4.892
MS.237         	21.467         	4.87
MS.238         	21.425         	4.904
MS.239         	21.38          	4.733
MS.240         	21.337         	4.651
MS.241         	21.295         	4.917
MS.242         	21.252         	4.681
MS.243         	21.21          	4.83
MS.244         	21.167         	4.826
MS.245         	21.125         	4.625
MS.246         	21.085         	4.898
MS.247         	21.042         	4.705
MS.248         	21             	4.449
MS.249         	20.958         	4.405
MS.250         	20.915         	4.586
MS.251         	20.875         	4.512
MS.252         	20.833         	4.477
MS.253         	20.79          	4.318
MS.254         	20.75          	4.31
MS.255         	20.708         	4.214
MS.256         	20.667         	4.324
MS.257         	20.625         	4.322
MS.258         	20.585         	4.369
MS.259         	20.542         	4.461
MS.260         	20.502         	4.469
MS.261         	20.46          	4.063
MS.262         	20.42          	4.139
MS.263         	20.38          	3.996
MS.264         	20.337         	4.115
MS.265         	20.297         	4.059
MS.266         	20.257         	4.055
MS.267         	20.217         	4.129
MS.268         	20.175         	4.135
MS.269         	20.135         	4.133
MS.270         	20.095         	3.976
MS.271         	20.055         	3.835
MS.272         	20.015         	3.807
MS.273         	19.975         	3.851
MS.274         	19.935         	3.714
MS.275         	19.895         	3.823
MS.276         	19.855         	3.905
MS.277         	19.817         	3.712
MS.278         	19.778         	3.775
MS.279         	19.737         	3.817
MS.280         	19.698         	3.829
MS.281         	19.657         	3.726
MS.282         	19.62          	3.883
MS.283         	19.58          	3.708
MS.284         	19.54          	3.632
MS.285         	19.502         	3.495
MS.286         	19.462         	3.587
MS.287         	19.425         	3.484
MS.288         	19.385         	3.487
MS.289         	19.347         	3.517
MS.290         	19.307         	3.414
MS.291         	19.27          	3.4
MS.292         	19.23          	3.436
MS.293         	19.192         	2.876
MS.294         	19.155         	3.146
MS.295         	19.115         	2.989
MS.296         	19.077         	3.132
MS.297         	19.04          	3.148
MS.298         	19             	3.104
MS.299         	18.962         	2.794
MS.300         	18.925         	3.144
MS.301         	18.887         	2.856
MS.302         	18.85          	2.866
MS.303         	18.812         	2.753
MS.304         	18.775         	2.401
MS.305         	18.737         	2.786
MS.306         	18.7           	2.679
MS.307         	18.663         	2.655
MS.308         	18.625         	2.387
MS.309         	18.587         	2.598
MS.310         	18.55          	2.355
MS.311         	18.512         	2.181
MS.312         	18.477         	2.083
MS.313         	18.44          	2.143
MS.314         	18.403         	2.443
MS.315         	18.365         	2.27
MS.316         	18.33          	2.262
MS.317         	18.292         	2.06
MS.318         	18.255         	2.165
MS.319         	18.22          	2.181
MS.320         	18.182         	1.984
MS.321         	18.147         	2.143
MS.322         	18.11          	1.97
MS.323         	18.075         	1.849
MS.324         	18.038         	2.036
MS.325         	18.003         	1.795
MS.326         	17.967         	1.877
MS.327         	17.93          	1.666
MS.328         	17.895         	1.758
MS.329         	17.86          	1.847
MS.330         	17.823         	1.714
MS.331         	17.788         	1.535
MS.332         	17.753         	1.601
MS.333         	17.717         	1.589
MS.334         	17.68          	1.72
MS.335         	17.645         	1.523
MS.336         	17.61          	1.646
MS.337         	17.575         	1.424
MS.338         	17.54          	1.517
MS.339         	17.505         	1.531
MS.340         	17.47          	1.619
MS.341         	17.435         	1.352
MS.342         	17.4           	1.486
MS.343         	17.365         	1.472
MS.344         	17.33          	1.237
MS.345         	17.297         	1.349
MS.346         	17.262         	1.454
MS.347         	17.227         	1.43
MS.348         	17.192         	1.206
MS.349         	17.157         	1.307
MS.350         	17.125         	1.291
MS.351         	17.09          	1.136
MS.352         	17.055         	1.188
MS.353         	17.022         	1.001
MS.354         	16.987         	1.033
MS.355         	16.955         	1.076
MS.356         	16.92          	0.922
MS.357         	16.887         	1.013
MS.358         	16.852         	0.814
MS.359         	16.82          	1.092
MS.360         	16.785         	0.89
MS.361         	16.753         	0.963
MS.362         	16.717         	0.87
MS.363         	16.685         	0.924
MS.364         	16.653         	0.806
MS.365         	16.618         	0.812
MS.366         	16.585         	0.792
MS.367         	16.552         	0.898
MS.368         	16.52          	0.693
MS.369         	16.485         	0.711
MS.370         	16.452         	0.731
MS.371         	16.42          	0.798
MS.372         	16.387         	0.83
MS.373         	16.355         	0.788
MS.374         	16.323         	0.775
MS.375         	16.29          	0.723
MS.376         	16.257         	0.665
MS.377         	16.225         	0.747
MS.378         	16.192         	0.592
MS.379         	16.16          	0.634
MS.380         	16.128         	0.381
MS.381         	16.095         	0.534
MS.382         	16.062         	0.5
MS.383         	16.03          	0.647
MS.384         	15.997         	0.497
MS.385         	15.967         	0.493
MS.386         	15.935         	0.489
MS.387         	15.902         	0.431
MS.388         	15.87          	0.429
MS.389         	15.84          	0.409
MS.390         	15.807         	0.399
MS.391         	15.775         	0.524
MS.392         	15.745         	0.441
MS.393         	15.712         	0.383
MS.394         	15.682         	0.443
MS.395         	15.65          	0.415
MS.396         	15.62          	0.419
MS.397         	15.587         	0.385
MS.398         	15.557         	0.421
MS.399         	15.525         	0.411
MS.400         	15.495         	0.312
MS.401         	15.465         	0.3
MS.402         	15.432         	0.26
MS.403         	15.402         	0.32
MS.404         	15.372         	0.324
MS.405         	15.34          	0.348
MS.406         	15.31          	0.298
MS.407         	15.28          	0.197
MS.408         	15.25          	0.276
MS.409         	15.217         	0.274
MS.410         	15.188         	0.292
MS.411         	15.157         	0.203
MS.412         	15.127         	0.218
MS.413         	15.097         	0.197
MS.414         	15.068         	0.23
MS.415         	15.037         	0.183
MS.416         	15.007         	0.169
MS.417         	14.977         	0.185
MS.418         	14.947         	0.169
MS.419         	14.917         	0.137
MS.420         	14.887         	0.161
MS.421         	14.858         	0.145
MS.422         	14.827         	0.135
MS.423         	14.797         	0.151
MS.424         	14.767         	0.139
MS.425         	14.74          	0.216
MS.426         	14.71          	0.197
MS.427         	14.68          	0.115
MS.428         	14.65          	0.177
MS.429         	14.622         	0.149
MS.430         	14.592         	0.143
MS.431         	14.562         	0.139
MS.432         	14.535         	0.125
MS.433         	14.505         	0.143
MS.434         	14.475         	0.135
MS.435         	14.447         	0.121
MS.436         	14.417         	0.155
MS.437         	14.39          	0.129
MS.438         	14.36          	0.117
MS.439         	14.332         	0.113
MS.440         	14.302         	0.147
MS.441         	14.275         	0.141
MS.442         	14.247         	0.133
MS.443         	14.217         	0.107
MS.444         	14.19          	0.129
MS.445         	14.16          	0.127
MS.446         	14.132         	0.125
MS.447         	14.105         	0.109
MS.448         	14.077         	0.105
MS.449         	14.047         	0.075
MS.450         	14.02          	0.093
MS.451         	13.992         	0.125
MS.452         	13.965         	0.123
MS.453         	13.938         	0.127
MS.454         	13.907         	0.109
MS.455         	13.88          	0.093
MS.456         	13.852         	0.117
MS.457         	13.825         	0.032
MS.458         	13.797         	0.111
MS.459         	13.77          	0.087
MS.460         	13.742         	0.097
MS.461         	13.715         	0.087
MS.462         	13.688         	0.028
MS.463         	13.66          	0.091
MS.464         	13.632         	0.085
MS.465         	13.605         	0.073
MS.466         	13.577         	0.026
MS.467         	13.552         	0.028
MS.468         	13.525         	0.095
MS.469         	13.497         	0.032
MS.470         	13.47          	0.077
MS.471         	13.443         	0.018
MS.472         	13.417         	0.034
MS.473         	13.39          	0.028
MS.474         	13.362         	0.034
MS.475         	13.337         	0.034
MS.476         	13.31          	0.028
MS.477         	13.282         	0.032
MS.478         	13.257         	0.028
MS.479         	13.23          	0.032
MS.480         	13.205         	0.03
MS.481         	13.177         	0.038
MS.482         	13.15          	0.032
MS.483         	13.125         	0.028
MS.484         	13.097         	0.032
MS.485         	13.072         	0.03
MS.486         	13.047         	0.034
MS.487         	13.02          	0.024
MS.488         	12.995         	0.03
MS.489         	12.967         	0.024
MS.490         	12.943         	0.026
MS.491         	12.917         	0.032
MS.492         	12.89          	0.032
MS.493         	12.865         	0.024
MS.494         	12.84          	0.032
MS.495         	12.812         	0.028
MS.496         	12.787         	0.022
MS.497         	12.762         	0.034
MS.498         	12.738         	0.022
MS.499         	12.712         	0.026
MS.500         	12.685         	0.022
