File:              	C:\Qtrac\Data\Daniel M Sørensen\MScan multicentre study\Data from centres\Oxford\Processed data\ATC01214I.QZD
Name:              	UK.OXF.NC.3.2
Protocol:          	MSCAN-R2
Date:              	14/12/20
Start time:        	14:31:05
Age:               	45
Sex:               	F
Temperature:       	33.1
S/R sites:         	TA
NC/disease:        	NC
Operator:          	AT
Comments:          	Peroneal N TA 2nd
M-SCAN DATA (7.2-1.5m)
Scanpts: 109, 116, 596, 617
Stim. (mA)     	Amp. (mV)
MS.1           	25             	4.274
MS.2           	25             	4.274
MS.3           	25             	4.268
MS.4           	25             	4.248
MS.5           	25             	4.236
MS.6           	25             	4.248
MS.7           	25             	4.252
MS.8           	25             	4.236
MS.9           	25             	4.258
MS.10          	25             	4.26
MS.11          	25             	4.252
MS.12          	25             	4.254
MS.13          	25             	4.254
MS.14          	25             	4.252
MS.15          	25             	4.254
MS.16          	25             	4.258
MS.17          	25             	4.256
MS.18          	25             	4.254
MS.19          	25             	4.254
MS.20          	25             	4.248
MS.21          	25             	4.25
MS.22          	25             	4.262
MS.23          	25             	4.252
MS.24          	24.9           	4.254
MS.25          	24.85          	4.266
MS.26          	24.8           	4.266
MS.27          	24.75          	4.272
MS.28          	24.702         	4.268
MS.29          	24.653         	4.28
MS.30          	24.602         	4.282
MS.31          	24.555         	4.28
MS.32          	24.505         	4.28
MS.33          	24.455         	4.274
MS.34          	24.407         	4.278
MS.35          	24.358         	4.274
MS.36          	24.31          	4.292
MS.37          	24.26          	4.294
MS.38          	24.212         	4.278
MS.39          	24.165         	4.294
MS.40          	24.115         	4.304
MS.41          	24.067         	4.266
MS.42          	24.02          	4.28
MS.43          	23.972         	4.284
MS.44          	23.925         	4.292
MS.45          	23.875         	4.284
MS.46          	23.827         	4.304
MS.47          	23.78          	4.29
MS.48          	23.733         	4.282
MS.49          	23.685         	4.286
MS.50          	23.637         	4.276
MS.51          	23.59          	4.278
MS.52          	23.545         	4.286
MS.53          	23.497         	4.282
MS.54          	23.45          	4.296
MS.55          	23.403         	4.282
MS.56          	23.358         	4.282
MS.57          	23.31          	4.296
MS.58          	23.262         	4.284
MS.59          	23.217         	4.294
MS.60          	23.17          	4.298
MS.61          	23.125         	4.29
MS.62          	23.077         	4.282
MS.63          	23.032         	4.278
MS.64          	22.985         	4.288
MS.65          	22.94          	4.288
MS.66          	22.895         	4.29
MS.67          	22.847         	4.298
MS.68          	22.802         	4.286
MS.69          	22.757         	4.294
MS.70          	22.712         	4.298
MS.71          	22.665         	4.306
MS.72          	22.62          	4.298
MS.73          	22.575         	4.302
MS.74          	22.53          	4.292
MS.75          	22.485         	4.306
MS.76          	22.44          	4.334
MS.77          	22.395         	4.288
MS.78          	22.35          	4.292
MS.79          	22.307         	4.284
MS.80          	22.262         	4.304
MS.81          	22.217         	4.282
MS.82          	22.172         	4.258
MS.83          	22.127         	4.304
MS.84          	22.085         	4.286
MS.85          	22.04          	4.298
MS.86          	21.995         	4.316
MS.87          	21.952         	4.312
MS.88          	21.907         	4.351
MS.89          	21.865         	4.294
MS.90          	21.82          	4.32
MS.91          	21.778         	4.31
MS.92          	21.735         	4.276
MS.93          	21.69          	4.284
MS.94          	21.647         	4.278
MS.95          	21.605         	4.314
MS.96          	21.56          	4.314
MS.97          	21.517         	4.32
MS.98          	21.475         	4.32
MS.99          	21.432         	4.318
MS.100         	21.39          	4.302
MS.101         	21.345         	4.32
MS.102         	21.302         	4.308
MS.103         	21.26          	4.286
MS.104         	21.217         	4.339
MS.105         	21.175         	4.316
MS.106         	21.135         	4.316
MS.107         	21.092         	4.318
MS.108         	21.05          	4.31
MS.109         	21.007         	4.341
MS.110         	20.965         	4.32
MS.111         	20.922         	4.286
MS.112         	20.882         	4.312
MS.113         	20.84          	4.326
MS.114         	20.797         	4.284
MS.115         	20.757         	4.304
MS.116         	20.715         	4.316
MS.117         	20.675         	4.278
MS.118         	20.632         	4.322
MS.119         	20.592         	4.324
MS.120         	20.55          	4.312
MS.121         	20.51          	4.282
MS.122         	20.467         	4.284
MS.123         	20.427         	4.314
MS.124         	20.387         	4.322
MS.125         	20.345         	4.31
MS.126         	20.305         	4.312
MS.127         	20.265         	4.312
MS.128         	20.225         	4.302
MS.129         	20.182         	4.292
MS.130         	20.142         	4.276
MS.131         	20.102         	4.27
MS.132         	20.062         	4.29
MS.133         	20.022         	4.282
MS.134         	19.983         	4.314
MS.135         	19.942         	4.268
MS.136         	19.903         	4.306
MS.137         	19.862         	4.284
MS.138         	19.823         	4.278
MS.139         	19.785         	4.272
MS.140         	19.745         	4.318
MS.141         	19.705         	4.244
MS.142         	19.665         	4.28
MS.143         	19.627         	4.258
MS.144         	19.587         	4.296
MS.145         	19.547         	4.308
MS.146         	19.51          	4.256
MS.147         	19.47          	4.27
MS.148         	19.43          	4.268
MS.149         	19.392         	4.278
MS.150         	19.352         	4.29
MS.151         	19.315         	4.31
MS.152         	19.275         	4.31
MS.153         	19.237         	4.264
MS.154         	19.2           	4.308
MS.155         	19.16          	4.298
MS.156         	19.122         	4.262
MS.157         	19.085         	4.258
MS.158         	19.047         	4.27
MS.159         	19.007         	4.29
MS.160         	18.97          	4.222
MS.161         	18.932         	4.238
MS.162         	18.895         	4.266
MS.163         	18.858         	4.274
MS.164         	18.82          	4.202
MS.165         	18.782         	4.193
MS.166         	18.745         	4.208
MS.167         	18.708         	4.218
MS.168         	18.67          	4.224
MS.169         	18.632         	4.034
MS.170         	18.595         	4.083
MS.171         	18.557         	4.167
MS.172         	18.52          	4.069
MS.173         	18.483         	4.123
MS.174         	18.448         	4.079
MS.175         	18.41          	4.048
MS.176         	18.372         	4.028
MS.177         	18.335         	4.036
MS.178         	18.3           	3.918
MS.179         	18.262         	3.928
MS.180         	18.227         	3.93
MS.181         	18.19          	3.968
MS.182         	18.153         	3.964
MS.183         	18.118         	3.899
MS.184         	18.08          	3.785
MS.185         	18.045         	3.863
MS.186         	18.01          	3.883
MS.187         	17.972         	3.853
MS.188         	17.938         	3.803
MS.189         	17.903         	3.865
MS.190         	17.865         	3.893
MS.191         	17.83          	3.861
MS.192         	17.795         	3.841
MS.193         	17.757         	3.795
MS.194         	17.722         	3.843
MS.195         	17.688         	3.873
MS.196         	17.653         	3.893
MS.197         	17.618         	3.813
MS.198         	17.583         	3.887
MS.199         	17.547         	3.835
MS.200         	17.512         	3.823
MS.201         	17.477         	3.764
MS.202         	17.442         	3.833
MS.203         	17.407         	3.74
MS.204         	17.372         	3.754
MS.205         	17.337         	3.771
MS.206         	17.302         	3.712
MS.207         	17.267         	3.696
MS.208         	17.235         	3.654
MS.209         	17.2           	3.7
MS.210         	17.165         	3.613
MS.211         	17.13          	3.648
MS.212         	17.097         	3.607
MS.213         	17.062         	3.644
MS.214         	17.028         	3.573
MS.215         	16.995         	3.646
MS.216         	16.96          	3.533
MS.217         	16.927         	3.575
MS.218         	16.892         	3.422
MS.219         	16.86          	3.48
MS.220         	16.825         	3.434
MS.221         	16.792         	3.442
MS.222         	16.757         	3.341
MS.223         	16.725         	3.416
MS.224         	16.69          	3.416
MS.225         	16.657         	3.418
MS.226         	16.625         	3.279
MS.227         	16.59          	3.285
MS.228         	16.557         	3.297
MS.229         	16.525         	3.346
MS.230         	16.493         	3.299
MS.231         	16.46          	3.227
MS.232         	16.425         	3.209
MS.233         	16.392         	3.114
MS.234         	16.36          	3.18
MS.235         	16.327         	3.227
MS.236         	16.295         	3.207
MS.237         	16.262         	3.176
MS.238         	16.23          	3.213
MS.239         	16.198         	3.186
MS.240         	16.165         	3.166
MS.241         	16.132         	3.114
MS.242         	16.1           	3.084
MS.243         	16.067         	3.15
MS.244         	16.038         	3.094
MS.245         	16.005         	2.931
MS.246         	15.972         	2.945
MS.247         	15.94          	2.91
MS.248         	15.91          	2.892
MS.249         	15.877         	2.836
MS.250         	15.845         	2.763
MS.251         	15.812         	2.786
MS.252         	15.782         	2.798
MS.253         	15.75          	2.733
MS.254         	15.72          	2.776
MS.255         	15.688         	2.794
MS.256         	15.657         	2.745
MS.257         	15.625         	2.649
MS.258         	15.595         	2.707
MS.259         	15.562         	2.578
MS.260         	15.532         	2.56
MS.261         	15.5           	2.502
MS.262         	15.47          	2.514
MS.263         	15.438         	2.473
MS.264         	15.407         	2.512
MS.265         	15.377         	2.389
MS.266         	15.347         	2.379
MS.267         	15.315         	2.373
MS.268         	15.285         	2.294
MS.269         	15.255         	2.377
MS.270         	15.225         	2.312
MS.271         	15.193         	2.338
MS.272         	15.162         	2.377
MS.273         	15.132         	2.357
MS.274         	15.102         	2.147
MS.275         	15.072         	2.095
MS.276         	15.042         	1.968
MS.277         	15.012         	2.01
MS.278         	14.983         	1.984
MS.279         	14.952         	1.911
MS.280         	14.922         	1.95
MS.281         	14.892         	1.954
MS.282         	14.862         	1.907
MS.283         	14.832         	1.847
MS.284         	14.802         	1.791
MS.285         	14.775         	1.855
MS.286         	14.745         	1.756
MS.287         	14.715         	1.662
MS.288         	14.685         	1.668
MS.289         	14.657         	1.732
MS.290         	14.627         	1.716
MS.291         	14.597         	1.73
MS.292         	14.568         	1.617
MS.293         	14.54          	1.565
MS.294         	14.51          	1.587
MS.295         	14.483         	1.603
MS.296         	14.452         	1.462
MS.297         	14.422         	1.392
MS.298         	14.395         	1.404
MS.299         	14.365         	1.392
MS.300         	14.337         	1.311
MS.301         	14.31          	1.341
MS.302         	14.28          	1.259
MS.303         	14.252         	1.345
MS.304         	14.222         	1.279
MS.305         	14.195         	1.196
MS.306         	14.167         	1.18
MS.307         	14.137         	1.204
MS.308         	14.11          	1.184
MS.309         	14.082         	1.152
MS.310         	14.052         	1.065
MS.311         	14.025         	1.033
MS.312         	13.997         	1.015
MS.313         	13.97          	0.955
MS.314         	13.943         	1.027
MS.315         	13.912         	1.086
MS.316         	13.885         	0.943
MS.317         	13.858         	0.977
MS.318         	13.83          	1.063
MS.319         	13.802         	1.009
MS.320         	13.775         	1.027
MS.321         	13.747         	1.124
MS.322         	13.72          	0.979
MS.323         	13.693         	0.971
MS.324         	13.665         	0.838
MS.325         	13.637         	0.989
MS.326         	13.61          	0.979
MS.327         	13.582         	0.935
MS.328         	13.557         	0.904
MS.329         	13.53          	0.866
MS.330         	13.502         	0.864
MS.331         	13.475         	0.798
MS.332         	13.447         	0.83
MS.333         	13.422         	0.777
MS.334         	13.395         	0.681
MS.335         	13.367         	0.711
MS.336         	13.342         	0.717
MS.337         	13.315         	0.727
MS.338         	13.287         	0.687
MS.339         	13.262         	0.58
MS.340         	13.235         	0.695
MS.341         	13.207         	0.588
MS.342         	13.182         	0.546
MS.343         	13.155         	0.596
MS.344         	13.13          	0.596
MS.345         	13.102         	0.514
MS.346         	13.077         	0.566
MS.347         	13.05          	0.495
MS.348         	13.025         	0.471
MS.349         	13             	0.411
MS.350         	12.972         	0.453
MS.351         	12.947         	0.359
MS.352         	12.92          	0.413
MS.353         	12.895         	0.33
MS.354         	12.87          	0.363
MS.355         	12.845         	0.371
MS.356         	12.818         	0.314
MS.357         	12.792         	0.385
MS.358         	12.767         	0.34
MS.359         	12.742         	0.328
MS.360         	12.715         	0.31
MS.361         	12.69          	0.316
MS.362         	12.665         	0.286
MS.363         	12.64          	0.33
MS.364         	12.615         	0.354
MS.365         	12.59          	0.284
MS.366         	12.565         	0.264
MS.367         	12.54          	0.262
MS.368         	12.515         	0.326
MS.369         	12.49          	0.258
MS.370         	12.465         	0.262
MS.371         	12.44          	0.3
MS.372         	12.415         	0.185
MS.373         	12.39          	0.23
MS.374         	12.365         	0.284
MS.375         	12.34          	0.242
MS.376         	12.315         	0.308
MS.377         	12.29          	0.224
MS.378         	12.267         	0.195
MS.379         	12.242         	0.236
MS.380         	12.217         	0.222
MS.381         	12.193         	0.22
MS.382         	12.17          	0.242
MS.383         	12.145         	0.246
MS.384         	12.12          	0.238
MS.385         	12.095         	0.203
MS.386         	12.072         	0.234
MS.387         	12.047         	0.203
MS.388         	12.023         	0.193
MS.389         	12             	0.177
MS.390         	11.975         	0.232
MS.391         	11.952         	0.22
MS.392         	11.927         	0.175
MS.393         	11.905         	0.205
MS.394         	11.88          	0.183
MS.395         	11.858         	0.22
MS.396         	11.832         	0.189
MS.397         	11.81          	0.173
MS.398         	11.785         	0.185
MS.399         	11.762         	0.201
MS.400         	11.738         	0.205
MS.401         	11.715         	0.185
MS.402         	11.693         	0.232
MS.403         	11.667         	0.193
MS.404         	11.645         	0.191
MS.405         	11.622         	0.163
MS.406         	11.597         	0.179
MS.407         	11.575         	0.165
MS.408         	11.552         	0.161
MS.409         	11.53          	0.173
MS.410         	11.505         	0.137
MS.411         	11.483         	0.153
MS.412         	11.46          	0.133
MS.413         	11.438         	0.183
MS.414         	11.415         	0.163
MS.415         	11.392         	0.163
MS.416         	11.37          	0.157
MS.417         	11.345         	0.117
MS.418         	11.322         	0.145
MS.419         	11.3           	0.153
MS.420         	11.278         	0.129
MS.421         	11.255         	0.085
MS.422         	11.233         	0.123
MS.423         	11.21          	0.093
MS.424         	11.188         	0.121
MS.425         	11.165         	0.117
MS.426         	11.142         	0.117
MS.427         	11.122         	0.105
MS.428         	11.1           	0.113
MS.429         	11.077         	0.153
MS.430         	11.055         	0.117
MS.431         	11.032         	0.099
MS.432         	11.01          	0.095
MS.433         	10.988         	0.095
MS.434         	10.967         	0.095
MS.435         	10.945         	0.107
MS.436         	10.922         	0.109
MS.437         	10.9           	0.093
MS.438         	10.88          	0.089
MS.439         	10.858         	0.095
MS.440         	10.835         	0.095
MS.441         	10.815         	0.079
MS.442         	10.792         	0.129
MS.443         	10.77          	0.095
MS.444         	10.75          	0.111
MS.445         	10.727         	0.054
MS.446         	10.707         	0.093
MS.447         	10.685         	0.103
MS.448         	10.665         	0.073
MS.449         	10.642         	0.101
MS.450         	10.622         	0.091
MS.451         	10.6           	0.123
MS.452         	10.58          	0.07
MS.453         	10.557         	0.119
MS.454         	10.537         	0.101
MS.455         	10.515         	0.073
MS.456         	10.495         	0.103
MS.457         	10.472         	0.089
MS.458         	10.452         	0.081
MS.459         	10.432         	0.105
MS.460         	10.41          	0.054
MS.461         	10.39          	0.048
MS.462         	10.37          	0.062
MS.463         	10.35          	0.068
MS.464         	10.327         	0.064
MS.465         	10.307         	0.066
MS.466         	10.287         	0.056
MS.467         	10.267         	0.024
MS.468         	10.245         	0.036
MS.469         	10.225         	0.036
MS.470         	10.205         	0.046
MS.471         	10.185         	0.058
MS.472         	10.165         	0.06
MS.473         	10.145         	0.048
MS.474         	10.122         	0.046
MS.475         	10.102         	0.04
MS.476         	10.082         	0.03
MS.477         	10.062         	0.056
MS.478         	10.042         	0.044
MS.479         	10.023         	0.038
MS.480         	10.002         	0.038
MS.481         	9.983          	0.024
MS.482         	9.962          	0.036
MS.483         	9.943          	0.048
MS.484         	9.922          	0.04
MS.485         	9.903          	0.054
MS.486         	9.882          	0.064
MS.487         	9.865          	0.034
MS.488         	9.845          	0.034
MS.489         	9.825          	0.032
MS.490         	9.805          	0.034
MS.491         	9.785          	0.03
MS.492         	9.765          	0.032
MS.493         	9.745          	0.042
MS.494         	9.727          	0.036
MS.495         	9.707          	0.032
MS.496         	9.688          	0.034
MS.497         	9.667          	0.05
MS.498         	9.65           	0.028
MS.499         	9.63           	0.058
MS.500         	9.61           	0.032
