File:              	C:\Qtrac\Data\Daniel M Sørensen\MScan multicentre study\Data from centres\Oxford\Raw data (sorted for use)\ATC01207C.QZD
Name:              	UK.OXF.NC.7.1
Protocol:          	MSCAN-R2
Date:              	7/12/20
Start time:        	11:46:22
Age:               	33
Sex:               	M
Temperature:       	33.9
S/R sites:         	TA
NC/disease:        	NC
Operator:          	AT
Comments:          	HC Peroneal N TA 1st
M-SCAN DATA (11.2-2.8m)
Scanpts: 8, 21, 860, 882
Stim. (mA)     	Amp. (mV)
MS.1           	29             	4.502
MS.2           	29             	4.498
MS.3           	29             	4.51
MS.4           	29             	4.502
MS.5           	29             	4.508
MS.6           	29             	4.52
MS.7           	29             	4.488
MS.8           	29             	4.498
MS.9           	29             	4.479
MS.10          	29             	4.492
MS.11          	29             	4.492
MS.12          	29             	4.494
MS.13          	29             	4.5
MS.14          	29             	4.492
MS.15          	29             	4.479
MS.16          	29             	4.502
MS.17          	29             	4.5
MS.18          	29             	4.506
MS.19          	29             	4.484
MS.20          	29             	4.477
MS.21          	29             	4.492
MS.22          	29             	4.498
MS.23          	29             	4.502
MS.24          	28.885         	4.479
MS.25          	28.827         	4.506
MS.26          	28.77          	4.482
MS.27          	28.712         	4.494
MS.28          	28.655         	4.498
MS.29          	28.597         	4.506
MS.30          	28.54          	4.486
MS.31          	28.483         	4.486
MS.32          	28.425         	4.471
MS.33          	28.37          	4.492
MS.34          	28.312         	4.492
MS.35          	28.255         	4.477
MS.36          	28.2           	4.459
MS.37          	28.142         	4.449
MS.38          	28.087         	4.486
MS.39          	28.03          	4.465
MS.40          	27.975         	4.486
MS.41          	27.917         	4.407
MS.42          	27.862         	4.461
MS.43          	27.807         	4.437
MS.44          	27.752         	4.383
MS.45          	27.695         	4.389
MS.46          	27.64          	4.419
MS.47          	27.585         	4.409
MS.48          	27.53          	4.447
MS.49          	27.475         	4.345
MS.50          	27.42          	4.339
MS.51          	27.365         	4.326
MS.52          	27.31          	4.355
MS.53          	27.257         	4.32
MS.54          	27.202         	4.339
MS.55          	27.147         	4.385
MS.56          	27.092         	4.28
MS.57          	27.04          	4.324
MS.58          	26.985         	4.308
MS.59          	26.932         	4.308
MS.60          	26.877         	4.272
MS.61          	26.825         	4.272
MS.62          	26.77          	4.24
MS.63          	26.717         	4.292
MS.64          	26.662         	4.26
MS.65          	26.61          	4.238
MS.66          	26.557         	4.266
MS.67          	26.505         	4.228
MS.68          	26.45          	4.24
MS.69          	26.397         	4.175
MS.70          	26.345         	4.179
MS.71          	26.292         	4.256
MS.72          	26.24          	4.179
MS.73          	26.188         	4.202
MS.74          	26.135         	4.22
MS.75          	26.082         	4.135
MS.76          	26.03          	4.228
MS.77          	25.98          	4.165
MS.78          	25.927         	4.129
MS.79          	25.875         	4.2
MS.80          	25.823         	4.127
MS.81          	25.772         	4.127
MS.82          	25.72          	4.135
MS.83          	25.67          	4.189
MS.84          	25.618         	4.103
MS.85          	25.567         	4.121
MS.86          	25.515         	4.195
MS.87          	25.465         	4.117
MS.88          	25.415         	4.195
MS.89          	25.362         	4.131
MS.90          	25.312         	4.119
MS.91          	25.262         	4.077
MS.92          	25.212         	4.075
MS.93          	25.16          	4.111
MS.94          	25.11          	4.065
MS.95          	25.06          	4.046
MS.96          	25.01          	4.061
MS.97          	24.96          	4.057
MS.98          	24.91          	4.061
MS.99          	24.86          	4.034
MS.100         	24.81          	4.046
MS.101         	24.762         	4.036
MS.102         	24.712         	4.042
MS.103         	24.663         	4.024
MS.104         	24.612         	3.994
MS.105         	24.565         	3.976
MS.106         	24.515         	4.038
MS.107         	24.465         	3.968
MS.108         	24.417         	3.934
MS.109         	24.368         	4.026
MS.110         	24.32          	3.992
MS.111         	24.27          	3.938
MS.112         	24.222         	3.978
MS.113         	24.175         	3.916
MS.114         	24.125         	3.95
MS.115         	24.077         	4.022
MS.116         	24.03          	3.946
MS.117         	23.983         	4.012
MS.118         	23.935         	3.956
MS.119         	23.885         	3.96
MS.120         	23.837         	3.994
MS.121         	23.79          	3.918
MS.122         	23.743         	3.936
MS.123         	23.695         	3.946
MS.124         	23.647         	3.92
MS.125         	23.6           	3.907
MS.126         	23.555         	3.871
MS.127         	23.507         	3.926
MS.128         	23.46          	3.92
MS.129         	23.413         	3.916
MS.130         	23.365         	3.897
MS.131         	23.32          	3.869
MS.132         	23.272         	3.928
MS.133         	23.227         	3.922
MS.134         	23.18          	3.899
MS.135         	23.132         	3.859
MS.136         	23.087         	3.855
MS.137         	23.042         	3.873
MS.138         	22.995         	3.859
MS.139         	22.95          	3.833
MS.140         	22.903         	3.845
MS.141         	22.858         	3.857
MS.142         	22.812         	3.871
MS.143         	22.767         	3.835
MS.144         	22.72          	3.795
MS.145         	22.675         	3.883
MS.146         	22.63          	3.809
MS.147         	22.585         	3.849
MS.148         	22.54          	3.827
MS.149         	22.495         	3.839
MS.150         	22.45          	3.811
MS.151         	22.405         	3.787
MS.152         	22.36          	3.881
MS.153         	22.315         	3.76
MS.154         	22.27          	3.833
MS.155         	22.227         	3.797
MS.156         	22.182         	3.823
MS.157         	22.137         	3.775
MS.158         	22.092         	3.771
MS.159         	22.05          	3.734
MS.160         	22.005         	3.775
MS.161         	21.962         	3.676
MS.162         	21.917         	3.728
MS.163         	21.875         	3.746
MS.164         	21.83          	3.712
MS.165         	21.788         	3.623
MS.166         	21.743         	3.63
MS.167         	21.7           	3.621
MS.168         	21.655         	3.625
MS.169         	21.612         	3.619
MS.170         	21.57          	3.605
MS.171         	21.528         	3.613
MS.172         	21.483         	3.573
MS.173         	21.44          	3.583
MS.174         	21.397         	3.593
MS.175         	21.355         	3.567
MS.176         	21.312         	3.583
MS.177         	21.27          	3.573
MS.178         	21.227         	3.591
MS.179         	21.185         	3.557
MS.180         	21.142         	3.581
MS.181         	21.1           	3.579
MS.182         	21.057         	3.593
MS.183         	21.015         	3.553
MS.184         	20.975         	3.593
MS.185         	20.932         	3.573
MS.186         	20.89          	3.593
MS.187         	20.847         	3.523
MS.188         	20.807         	3.573
MS.189         	20.765         	3.519
MS.190         	20.725         	3.549
MS.191         	20.682         	3.543
MS.192         	20.642         	3.517
MS.193         	20.6           	3.521
MS.194         	20.56          	3.521
MS.195         	20.517         	3.537
MS.196         	20.477         	3.499
MS.197         	20.435         	3.482
MS.198         	20.395         	3.513
MS.199         	20.355         	3.521
MS.200         	20.312         	3.529
MS.201         	20.272         	3.491
MS.202         	20.233         	3.519
MS.203         	20.192         	3.452
MS.204         	20.153         	3.456
MS.205         	20.112         	3.44
MS.206         	20.073         	3.434
MS.207         	20.03          	3.468
MS.208         	19.99          	3.424
MS.209         	19.952         	3.46
MS.210         	19.913         	3.434
MS.211         	19.872         	3.404
MS.212         	19.833         	3.408
MS.213         	19.792         	3.44
MS.214         	19.752         	3.47
MS.215         	19.712         	3.442
MS.216         	19.675         	3.42
MS.217         	19.635         	3.442
MS.218         	19.595         	3.4
MS.219         	19.555         	3.42
MS.220         	19.517         	3.392
MS.221         	19.477         	3.412
MS.222         	19.44          	3.404
MS.223         	19.4           	3.452
MS.224         	19.362         	3.41
MS.225         	19.323         	3.41
MS.226         	19.285         	3.398
MS.227         	19.245         	3.412
MS.228         	19.208         	3.402
MS.229         	19.17          	3.386
MS.230         	19.13          	3.388
MS.231         	19.092         	3.402
MS.232         	19.055         	3.392
MS.233         	19.015         	3.396
MS.234         	18.977         	3.386
MS.235         	18.94          	3.398
MS.236         	18.903         	3.38
MS.237         	18.865         	3.382
MS.238         	18.827         	3.39
MS.239         	18.79          	3.319
MS.240         	18.753         	3.39
MS.241         	18.715         	3.38
MS.242         	18.677         	3.37
MS.243         	18.64          	3.309
MS.244         	18.602         	3.333
MS.245         	18.565         	3.344
MS.246         	18.528         	3.35
MS.247         	18.49          	3.333
MS.248         	18.455         	3.271
MS.249         	18.417         	3.337
MS.250         	18.38          	3.281
MS.251         	18.345         	3.247
MS.252         	18.307         	3.247
MS.253         	18.27          	3.241
MS.254         	18.235         	3.337
MS.255         	18.198         	3.299
MS.256         	18.163         	3.263
MS.257         	18.125         	3.205
MS.258         	18.09          	3.178
MS.259         	18.052         	3.17
MS.260         	18.017         	3.17
MS.261         	17.98          	3.128
MS.262         	17.945         	3.223
MS.263         	17.91          	3.156
MS.264         	17.872         	3.142
MS.265         	17.837         	3.154
MS.266         	17.802         	3.15
MS.267         	17.765         	3.223
MS.268         	17.73          	3.194
MS.269         	17.695         	3.205
MS.270         	17.66          	3.144
MS.271         	17.625         	3.162
MS.272         	17.59          	3.172
MS.273         	17.555         	3.142
MS.274         	17.52          	3.176
MS.275         	17.485         	3.12
MS.276         	17.45          	3.144
MS.277         	17.415         	3.116
MS.278         	17.38          	3.112
MS.279         	17.345         	3.124
MS.280         	17.31          	3.126
MS.281         	17.275         	3.118
MS.282         	17.24          	3.156
MS.283         	17.208         	3.168
MS.284         	17.172         	3.156
MS.285         	17.137         	3.13
MS.286         	17.102         	3.112
MS.287         	17.07          	3.13
MS.288         	17.035         	3.116
MS.289         	17.003         	3.112
MS.290         	16.967         	3.082
MS.291         	16.932         	3.104
MS.292         	16.9           	3.068
MS.293         	16.865         	3.118
MS.294         	16.833         	3.106
MS.295         	16.797         	3.124
MS.296         	16.765         	3.066
MS.297         	16.733         	3.108
MS.298         	16.698         	3.08
MS.299         	16.665         	3.102
MS.300         	16.632         	3.047
MS.301         	16.597         	3.017
MS.302         	16.565         	3.078
MS.303         	16.532         	3.057
MS.304         	16.5           	3.021
MS.305         	16.465         	3.005
MS.306         	16.432         	3.07
MS.307         	16.4           	3.027
MS.308         	16.368         	3.029
MS.309         	16.335         	3.025
MS.310         	16.302         	3.019
MS.311         	16.27          	3.009
MS.312         	16.237         	3.027
MS.313         	16.205         	3.019
MS.314         	16.172         	2.973
MS.315         	16.14          	3.023
MS.316         	16.108         	3.011
MS.317         	16.075         	2.973
MS.318         	16.042         	2.949
MS.319         	16.012         	2.979
MS.320         	15.98          	3.045
MS.321         	15.947         	3.007
MS.322         	15.915         	2.943
MS.323         	15.882         	2.961
MS.324         	15.852         	2.969
MS.325         	15.82          	2.987
MS.326         	15.787         	2.989
MS.327         	15.757         	2.969
MS.328         	15.725         	2.983
MS.329         	15.695         	2.981
MS.330         	15.662         	2.941
MS.331         	15.632         	2.959
MS.332         	15.6           	2.9
MS.333         	15.57          	2.943
MS.334         	15.537         	2.943
MS.335         	15.507         	2.925
MS.336         	15.475         	2.927
MS.337         	15.445         	2.91
MS.338         	15.415         	2.908
MS.339         	15.382         	2.882
MS.340         	15.352         	2.866
MS.341         	15.322         	2.874
MS.342         	15.292         	2.864
MS.343         	15.26          	2.874
MS.344         	15.23          	2.888
MS.345         	15.2           	2.9
MS.346         	15.17          	2.904
MS.347         	15.14          	2.89
MS.348         	15.11          	2.892
MS.349         	15.08          	2.842
MS.350         	15.047         	2.848
MS.351         	15.017         	2.854
MS.352         	14.987         	2.876
MS.353         	14.957         	2.864
MS.354         	14.93          	2.868
MS.355         	14.9           	2.862
MS.356         	14.87          	2.876
MS.357         	14.84          	2.862
MS.358         	14.81          	2.856
MS.359         	14.78          	2.848
MS.360         	14.75          	2.888
MS.361         	14.722         	2.88
MS.362         	14.693         	2.908
MS.363         	14.662         	2.894
MS.364         	14.632         	2.876
MS.365         	14.605         	2.878
MS.366         	14.575         	2.874
MS.367         	14.545         	2.862
MS.368         	14.517         	2.83
MS.369         	14.487         	2.87
MS.370         	14.457         	2.818
MS.371         	14.43          	2.874
MS.372         	14.4           	2.844
MS.373         	14.372         	2.782
MS.374         	14.342         	2.86
MS.375         	14.315         	2.872
MS.376         	14.285         	2.864
MS.377         	14.257         	2.852
MS.378         	14.23          	2.844
MS.379         	14.2           	2.874
MS.380         	14.172         	2.854
MS.381         	14.145         	2.852
MS.382         	14.115         	2.921
MS.383         	14.087         	2.836
MS.384         	14.06          	2.87
MS.385         	14.032         	2.822
MS.386         	14.002         	2.842
MS.387         	13.975         	2.872
MS.388         	13.947         	2.848
MS.389         	13.92          	2.894
MS.390         	13.892         	2.892
MS.391         	13.865         	2.79
MS.392         	13.837         	2.82
MS.393         	13.807         	2.862
MS.394         	13.78          	2.78
MS.395         	13.752         	2.812
MS.396         	13.725         	2.759
MS.397         	13.697         	2.828
MS.398         	13.67          	2.89
MS.399         	13.645         	2.84
MS.400         	13.617         	2.816
MS.401         	13.59          	2.85
MS.402         	13.562         	2.792
MS.403         	13.535         	2.854
MS.404         	13.507         	2.866
MS.405         	13.48          	2.836
MS.406         	13.455         	2.832
MS.407         	13.427         	2.82
MS.408         	13.4           	2.852
MS.409         	13.372         	2.84
MS.410         	13.347         	2.832
MS.411         	13.32          	2.798
MS.412         	13.292         	2.826
MS.413         	13.267         	2.846
MS.414         	13.24          	2.846
MS.415         	13.215         	2.846
MS.416         	13.188         	2.812
MS.417         	13.162         	2.806
MS.418         	13.135         	2.776
MS.419         	13.11          	2.832
MS.420         	13.082         	2.81
MS.421         	13.057         	2.842
MS.422         	13.03          	2.842
MS.423         	13.005         	2.848
MS.424         	12.977         	2.84
MS.425         	12.952         	2.826
MS.426         	12.927         	2.816
MS.427         	12.9           	2.852
MS.428         	12.875         	2.804
MS.429         	12.85          	2.814
MS.430         	12.822         	2.824
MS.431         	12.797         	2.844
MS.432         	12.773         	2.816
MS.433         	12.747         	2.765
MS.434         	12.722         	2.8
MS.435         	12.695         	2.757
MS.436         	12.67          	2.743
MS.437         	12.645         	2.705
MS.438         	12.62          	2.725
MS.439         	12.595         	2.759
MS.440         	12.57          	2.735
MS.441         	12.545         	2.759
MS.442         	12.52          	2.723
MS.443         	12.495         	2.705
MS.444         	12.47          	2.715
MS.445         	12.445         	2.683
MS.446         	12.42          	2.675
MS.447         	12.395         	2.697
MS.448         	12.37          	2.713
MS.449         	12.345         	2.737
MS.450         	12.32          	2.697
MS.451         	12.295         	2.703
MS.452         	12.273         	2.701
MS.453         	12.247         	2.719
MS.454         	12.222         	2.719
MS.455         	12.197         	2.709
MS.456         	12.175         	2.705
MS.457         	12.15          	2.745
MS.458         	12.125         	2.687
MS.459         	12.1           	2.703
MS.460         	12.077         	2.739
MS.461         	12.052         	2.721
MS.462         	12.028         	2.687
MS.463         	12.005         	2.713
MS.464         	11.98          	2.695
MS.465         	11.957         	2.707
MS.466         	11.932         	2.697
MS.467         	11.91          	2.719
MS.468         	11.885         	2.628
MS.469         	11.863         	2.711
MS.470         	11.837         	2.63
MS.471         	11.815         	2.693
MS.472         	11.79          	2.711
MS.473         	11.767         	2.667
MS.474         	11.742         	2.661
MS.475         	11.72          	2.705
MS.476         	11.697         	2.663
MS.477         	11.672         	2.665
MS.478         	11.65          	2.675
MS.479         	11.627         	2.691
MS.480         	11.602         	2.697
MS.481         	11.58          	2.691
MS.482         	11.557         	2.653
MS.483         	11.535         	2.649
MS.484         	11.51          	2.657
MS.485         	11.488         	2.588
MS.486         	11.465         	2.679
MS.487         	11.443         	2.659
MS.488         	11.42          	2.675
MS.489         	11.398         	2.628
MS.490         	11.372         	2.6
MS.491         	11.35          	2.641
MS.492         	11.327         	2.669
MS.493         	11.305         	2.614
MS.494         	11.282         	2.651
MS.495         	11.26          	2.61
MS.496         	11.238         	2.556
MS.497         	11.215         	2.55
MS.498         	11.193         	2.6
MS.499         	11.17          	2.516
MS.500         	11.148         	2.596
MS.501         	11.125         	2.532
