File:              	C:\Qtrac\Data\Daniel M Sørensen\MScan multicentre study\Data from centres\Ankara\Processed data\BAC10112D.QZD
Name:              	TR.ANK.NC.1.2
Protocol:          	MSCAN-R2
Date:              	12/1/21
Start time:        	18:38:44
Age:               	29
Sex:               	F
Temperature:
S/R sites:         	TA
NC/disease:        	NC
Operator:          	HA
Comments:
M-SCAN DATA (7-2.2m)
Scanpts: 14, 18, 504, 510
Stim. (mA)     	Amp. (mV)
MS.1           	29             	7.311
MS.2           	29             	7.328
MS.3           	29             	7.346
MS.4           	29             	7.344
MS.5           	29             	7.342
MS.6           	29             	7.37
MS.7           	29             	7.313
MS.8           	29             	7.233
MS.9           	29             	7.346
MS.10          	29             	7.307
MS.11          	29             	7.293
MS.12          	29             	7.309
MS.13          	29             	7.271
MS.14          	29             	7.35
MS.15          	29             	7.323
MS.16          	29             	7.356
MS.17          	29             	7.332
MS.18          	29             	7.305
MS.19          	29             	7.36
MS.20          	29             	7.358
MS.21          	29             	7.323
MS.22          	29             	7.295
MS.23          	29             	7.368
MS.24          	28.942         	7.39
MS.25          	28.885         	7.338
MS.26          	28.827         	7.315
MS.27          	28.77          	7.291
MS.28          	28.712         	7.326
MS.29          	28.655         	7.321
MS.30          	28.597         	7.323
MS.31          	28.54          	7.321
MS.32          	28.483         	7.334
MS.33          	28.425         	7.295
MS.34          	28.37          	7.309
MS.35          	28.312         	7.289
MS.36          	28.255         	7.233
MS.37          	28.2           	7.235
MS.38          	28.142         	7.257
MS.39          	28.087         	7.243
MS.40          	28.03          	7.267
MS.41          	27.975         	7.245
MS.42          	27.917         	7.223
MS.43          	27.862         	7.249
MS.44          	27.807         	7.289
MS.45          	27.752         	7.164
MS.46          	27.695         	7.237
MS.47          	27.64          	7.223
MS.48          	27.585         	7.209
MS.49          	27.53          	7.176
MS.50          	27.475         	7.174
MS.51          	27.42          	7.227
MS.52          	27.365         	7.076
MS.53          	27.31          	7.227
MS.54          	27.257         	6.973
MS.55          	27.202         	7.176
MS.56          	27.147         	7.098
MS.57          	27.092         	6.907
MS.58          	27.04          	7.066
MS.59          	26.985         	7.114
MS.60          	26.932         	6.949
MS.61          	26.877         	7.021
MS.62          	26.825         	6.989
MS.63          	26.77          	6.995
MS.64          	26.717         	6.838
MS.65          	26.662         	6.88
MS.66          	26.61          	6.832
MS.67          	26.557         	6.808
MS.68          	26.505         	6.806
MS.69          	26.45          	6.76
MS.70          	26.397         	6.796
MS.71          	26.345         	6.798
MS.72          	26.292         	6.764
MS.73          	26.24          	6.774
MS.74          	26.188         	6.733
MS.75          	26.135         	6.749
MS.76          	26.082         	6.729
MS.77          	26.03          	6.705
MS.78          	25.98          	6.737
MS.79          	25.927         	6.703
MS.80          	25.875         	6.711
MS.81          	25.825         	6.653
MS.82          	25.772         	6.691
MS.83          	25.72          	6.677
MS.84          	25.67          	6.665
MS.85          	25.618         	6.619
MS.86          	25.567         	6.608
MS.87          	25.515         	6.612
MS.88          	25.465         	6.572
MS.89          	25.415         	6.568
MS.90          	25.362         	6.578
MS.91          	25.312         	6.532
MS.92          	25.262         	6.566
MS.93          	25.212         	6.411
MS.94          	25.16          	6.486
MS.95          	25.11          	6.518
MS.96          	25.06          	6.403
MS.97          	25.01          	6.488
MS.98          	24.96          	6.337
MS.99          	24.91          	6.29
MS.100         	24.86          	6.361
MS.101         	24.81          	6.379
MS.102         	24.762         	6.32
MS.103         	24.712         	6.445
MS.104         	24.663         	6.24
MS.105         	24.612         	6.185
MS.106         	24.565         	6.298
MS.107         	24.515         	6.224
MS.108         	24.467         	6.333
MS.109         	24.417         	6.131
MS.110         	24.368         	6.216
MS.111         	24.32          	6.25
MS.112         	24.272         	6.125
MS.113         	24.222         	6.204
MS.114         	24.175         	6.091
MS.115         	24.125         	6.119
MS.116         	24.077         	6.034
MS.117         	24.03          	5.885
MS.118         	23.983         	6
MS.119         	23.935         	5.91
MS.120         	23.885         	5.952
MS.121         	23.837         	5.851
MS.122         	23.79          	5.851
MS.123         	23.743         	5.843
MS.124         	23.695         	5.787
MS.125         	23.647         	5.906
MS.126         	23.6           	5.75
MS.127         	23.555         	5.708
MS.128         	23.507         	5.704
MS.129         	23.46          	5.769
MS.130         	23.413         	5.676
MS.131         	23.368         	5.62
MS.132         	23.32          	5.525
MS.133         	23.272         	5.624
MS.134         	23.227         	5.561
MS.135         	23.18          	5.551
MS.136         	23.135         	5.656
MS.137         	23.087         	5.555
MS.138         	23.042         	5.605
MS.139         	22.995         	5.493
MS.140         	22.95          	5.563
MS.141         	22.903         	5.503
MS.142         	22.858         	5.432
MS.143         	22.812         	5.386
MS.144         	22.767         	5.43
MS.145         	22.72          	5.366
MS.146         	22.675         	5.374
MS.147         	22.63          	5.289
MS.148         	22.585         	5.295
MS.149         	22.54          	5.249
MS.150         	22.495         	5.271
MS.151         	22.45          	5.035
MS.152         	22.405         	5.007
MS.153         	22.36          	5.049
MS.154         	22.315         	5.076
MS.155         	22.27          	5.118
MS.156         	22.227         	5.049
MS.157         	22.182         	4.979
MS.158         	22.137         	5.009
MS.159         	22.095         	4.842
MS.160         	22.05          	4.804
MS.161         	22.005         	4.812
MS.162         	21.962         	4.963
MS.163         	21.917         	4.828
MS.164         	21.875         	4.717
MS.165         	21.83          	4.685
MS.166         	21.788         	4.768
MS.167         	21.743         	4.645
MS.168         	21.7           	4.677
MS.169         	21.657         	4.58
MS.170         	21.612         	4.584
MS.171         	21.57          	4.542
MS.172         	21.528         	4.667
MS.173         	21.483         	4.49
MS.174         	21.44          	4.355
MS.175         	21.397         	4.375
MS.176         	21.355         	4.457
MS.177         	21.312         	4.28
MS.178         	21.27          	4.224
MS.179         	21.227         	4.26
MS.180         	21.185         	4.131
MS.181         	21.142         	4.286
MS.182         	21.1           	4
MS.183         	21.057         	4.226
MS.184         	21.017         	4.123
MS.185         	20.975         	4.288
MS.186         	20.932         	4.234
MS.187         	20.89          	4.2
MS.188         	20.85          	4.282
MS.189         	20.807         	4.063
MS.190         	20.765         	4.057
MS.191         	20.725         	3.714
MS.192         	20.682         	3.962
MS.193         	20.642         	3.879
MS.194         	20.6           	3.551
MS.195         	20.56          	3.861
MS.196         	20.517         	4.008
MS.197         	20.477         	3.724
MS.198         	20.435         	3.815
MS.199         	20.395         	3.968
MS.200         	20.355         	3.948
MS.201         	20.312         	3.926
MS.202         	20.272         	3.678
MS.203         	20.233         	3.956
MS.204         	20.192         	3.879
MS.205         	20.153         	3.821
MS.206         	20.112         	3.662
MS.207         	20.073         	3.722
MS.208         	20.032         	3.617
MS.209         	19.993         	3.378
MS.210         	19.952         	3.372
MS.211         	19.913         	3.513
MS.212         	19.872         	3.346
MS.213         	19.833         	3.658
MS.214         	19.792         	3.362
MS.215         	19.752         	3.402
MS.216         	19.712         	3.35
MS.217         	19.675         	3.41
MS.218         	19.635         	3.255
MS.219         	19.595         	3.289
MS.220         	19.557         	3.253
MS.221         	19.517         	3.239
MS.222         	19.477         	3.213
MS.223         	19.44          	3.253
MS.224         	19.4           	3.225
MS.225         	19.362         	3.13
MS.226         	19.323         	3.164
MS.227         	19.285         	3.13
MS.228         	19.245         	3.064
MS.229         	19.208         	3.146
MS.230         	19.17          	3.152
MS.231         	19.13          	3.196
MS.232         	19.092         	3.039
MS.233         	19.055         	3.049
MS.234         	19.017         	2.985
MS.235         	18.977         	2.997
MS.236         	18.94          	2.963
MS.237         	18.903         	3.009
MS.238         	18.865         	2.906
MS.239         	18.827         	2.834
MS.240         	18.79          	2.814
MS.241         	18.753         	2.755
MS.242         	18.715         	2.743
MS.243         	18.677         	2.792
MS.244         	18.64          	2.655
MS.245         	18.602         	2.717
MS.246         	18.565         	2.731
MS.247         	18.528         	2.745
MS.248         	18.49          	2.733
MS.249         	18.455         	2.534
MS.250         	18.417         	2.522
MS.251         	18.38          	2.522
MS.252         	18.345         	2.481
MS.253         	18.307         	2.417
MS.254         	18.27          	2.25
MS.255         	18.235         	2.397
MS.256         	18.198         	2.417
MS.257         	18.163         	2.326
MS.258         	18.125         	2.276
MS.259         	18.09          	2.109
MS.260         	18.052         	2.262
MS.261         	18.017         	2.272
MS.262         	17.98          	2.071
MS.263         	17.945         	2.159
MS.264         	17.91          	1.994
MS.265         	17.872         	2.056
MS.266         	17.837         	2.06
MS.267         	17.802         	1.946
MS.268         	17.765         	2.04
MS.269         	17.73          	1.936
MS.270         	17.695         	1.674
MS.271         	17.66          	1.762
MS.272         	17.625         	1.809
MS.273         	17.59          	1.797
MS.274         	17.555         	1.601
MS.275         	17.52          	1.696
MS.276         	17.485         	1.684
MS.277         	17.45          	1.772
MS.278         	17.415         	1.605
MS.279         	17.38          	1.65
MS.280         	17.345         	1.67
MS.281         	17.31          	1.823
MS.282         	17.275         	1.591
MS.283         	17.24          	1.557
MS.284         	17.208         	1.507
MS.285         	17.172         	1.497
MS.286         	17.137         	1.523
MS.287         	17.102         	1.454
MS.288         	17.07          	1.499
MS.289         	17.035         	1.492
MS.290         	17.003         	1.438
MS.291         	16.967         	1.432
MS.292         	16.932         	1.416
MS.293         	16.9           	1.356
MS.294         	16.865         	1.319
MS.295         	16.833         	1.305
MS.296         	16.797         	1.253
MS.297         	16.765         	1.269
MS.298         	16.733         	1.341
MS.299         	16.698         	1.227
MS.300         	16.665         	1.211
MS.301         	16.632         	1.154
MS.302         	16.597         	1.293
MS.303         	16.565         	1.174
MS.304         	16.532         	1.154
MS.305         	16.5           	1.162
MS.306         	16.465         	1.017
MS.307         	16.432         	1.182
MS.308         	16.4           	1.136
MS.309         	16.368         	1.078
MS.310         	16.335         	1.092
MS.311         	16.302         	1.059
MS.312         	16.27          	1.045
MS.313         	16.237         	1.017
MS.314         	16.205         	1.003
MS.315         	16.172         	1.003
MS.316         	16.14          	1.001
MS.317         	16.108         	0.922
MS.318         	16.075         	1.003
MS.319         	16.042         	0.924
MS.320         	16.012         	0.963
MS.321         	15.98          	0.884
MS.322         	15.947         	0.924
MS.323         	15.915         	0.872
MS.324         	15.882         	0.85
MS.325         	15.852         	0.786
MS.326         	15.82          	0.848
MS.327         	15.787         	0.798
MS.328         	15.757         	0.812
MS.329         	15.725         	0.816
MS.330         	15.695         	0.769
MS.331         	15.662         	0.713
MS.332         	15.632         	0.717
MS.333         	15.6           	0.733
MS.334         	15.57          	0.667
MS.335         	15.537         	0.697
MS.336         	15.507         	0.687
MS.337         	15.475         	0.691
MS.338         	15.445         	0.634
MS.339         	15.415         	0.693
MS.340         	15.382         	0.641
MS.341         	15.352         	0.586
MS.342         	15.322         	0.584
MS.343         	15.292         	0.598
MS.344         	15.26          	0.544
MS.345         	15.23          	0.548
MS.346         	15.2           	0.612
MS.347         	15.17          	0.578
MS.348         	15.14          	0.538
MS.349         	15.11          	0.518
MS.350         	15.08          	0.538
MS.351         	15.05          	0.522
MS.352         	15.017         	0.514
MS.353         	14.987         	0.518
MS.354         	14.957         	0.54
MS.355         	14.93          	0.477
MS.356         	14.9           	0.479
MS.357         	14.87          	0.495
MS.358         	14.84          	0.439
MS.359         	14.81          	0.449
MS.360         	14.78          	0.443
MS.361         	14.75          	0.451
MS.362         	14.722         	0.483
MS.363         	14.693         	0.471
MS.364         	14.662         	0.389
MS.365         	14.632         	0.411
MS.366         	14.605         	0.447
MS.367         	14.575         	0.415
MS.368         	14.545         	0.409
MS.369         	14.517         	0.373
MS.370         	14.487         	0.401
MS.371         	14.457         	0.385
MS.372         	14.43          	0.326
MS.373         	14.4           	0.387
MS.374         	14.372         	0.403
MS.375         	14.342         	0.361
MS.376         	14.315         	0.344
MS.377         	14.285         	0.302
MS.378         	14.257         	0.322
MS.379         	14.23          	0.304
MS.380         	14.2           	0.338
MS.381         	14.172         	0.304
MS.382         	14.145         	0.314
MS.383         	14.115         	0.306
MS.384         	14.087         	0.278
MS.385         	14.06          	0.274
MS.386         	14.032         	0.286
MS.387         	14.002         	0.306
MS.388         	13.975         	0.244
MS.389         	13.947         	0.26
MS.390         	13.92          	0.24
MS.391         	13.892         	0.232
MS.392         	13.865         	0.242
MS.393         	13.837         	0.23
MS.394         	13.807         	0.238
MS.395         	13.78          	0.238
MS.396         	13.752         	0.238
MS.397         	13.725         	0.224
MS.398         	13.697         	0.201
MS.399         	13.672         	0.211
MS.400         	13.645         	0.197
MS.401         	13.617         	0.195
MS.402         	13.59          	0.199
MS.403         	13.562         	0.201
MS.404         	13.535         	0.203
MS.405         	13.507         	0.195
MS.406         	13.48          	0.185
MS.407         	13.455         	0.191
MS.408         	13.427         	0.177
MS.409         	13.4           	0.195
MS.410         	13.375         	0.169
MS.411         	13.347         	0.175
MS.412         	13.32          	0.195
MS.413         	13.295         	0.173
MS.414         	13.267         	0.169
MS.415         	13.24          	0.153
MS.416         	13.215         	0.149
MS.417         	13.188         	0.139
MS.418         	13.162         	0.143
MS.419         	13.135         	0.159
MS.420         	13.11          	0.135
MS.421         	13.082         	0.137
MS.422         	13.057         	0.151
MS.423         	13.03          	0.145
MS.424         	13.005         	0.125
MS.425         	12.977         	0.133
MS.426         	12.952         	0.153
MS.427         	12.927         	0.129
MS.428         	12.9           	0.127
MS.429         	12.875         	0.117
MS.430         	12.85          	0.111
MS.431         	12.822         	0.105
MS.432         	12.797         	0.109
MS.433         	12.773         	0.125
MS.434         	12.747         	0.117
MS.435         	12.722         	0.109
MS.436         	12.695         	0.099
MS.437         	12.67          	0.119
MS.438         	12.645         	0.113
MS.439         	12.62          	0.111
MS.440         	12.595         	0.119
MS.441         	12.57          	0.105
MS.442         	12.545         	0.123
MS.443         	12.52          	0.093
MS.444         	12.495         	0.099
MS.445         	12.47          	0.093
MS.446         	12.445         	0.103
MS.447         	12.42          	0.089
MS.448         	12.395         	0.101
MS.449         	12.37          	0.111
MS.450         	12.345         	0.103
MS.451         	12.32          	0.089
MS.452         	12.297         	0.089
MS.453         	12.273         	0.099
MS.454         	12.247         	0.101
MS.455         	12.222         	0.089
MS.456         	12.197         	0.089
MS.457         	12.175         	0.105
MS.458         	12.15          	0.077
MS.459         	12.125         	0.083
MS.460         	12.1           	0.083
MS.461         	12.077         	0.097
MS.462         	12.052         	0.075
MS.463         	12.028         	0.06
MS.464         	12.005         	0.073
MS.465         	11.98          	0.07
MS.466         	11.957         	0.089
MS.467         	11.932         	0.048
MS.468         	11.91          	0.068
MS.469         	11.885         	0.062
MS.470         	11.863         	0.062
MS.471         	11.837         	0.06
MS.472         	11.815         	0.042
MS.473         	11.79          	0.052
MS.474         	11.767         	0.046
MS.475         	11.742         	0.056
MS.476         	11.72          	0.044
MS.477         	11.697         	0.066
MS.478         	11.672         	0.052
MS.479         	11.65          	0.052
MS.480         	11.627         	0.04
MS.481         	11.602         	0.042
MS.482         	11.58          	0.048
MS.483         	11.557         	0.044
MS.484         	11.535         	0.05
MS.485         	11.51          	0.054
MS.486         	11.488         	0.05
MS.487         	11.465         	0.04
MS.488         	11.443         	0.058
MS.489         	11.42          	0.048
MS.490         	11.398         	0.048
MS.491         	11.372         	0.046
MS.492         	11.35          	0.044
MS.493         	11.327         	0.05
MS.494         	11.305         	0.044
MS.495         	11.282         	0.04
MS.496         	11.26          	0.04
MS.497         	11.238         	0.04
MS.498         	11.215         	0.04
MS.499         	11.193         	0.032
MS.500         	11.17          	0.04
MS.501         	11.148         	0.04
MS.502         	11.125         	0.04
