File:              	C:\Qtrac\Data\Daniel M Sørensen\MScan multicentre study\Data from centres\Ankara\Processed data\BCC00821C.QZD
Name:              	TR.ANK.NC.2.2
Protocol:          	MSCAN-R2
Date:              	21/8/20
Start time:        	17:09:34
Age:               	54
Sex:               	m
Temperature:
S/R sites:         	TA
NC/disease:        	NC
Operator:          	eb
Comments:
M-SCAN DATA (4.6-0.9m)
Scanpts: 24, 31, 391, 398
Stim. (mA)     	Amp. (mV)
MS.1           	25.5           	5.922
MS.2           	25.5           	5.885
MS.3           	25.5           	5.873
MS.4           	25.5           	5.822
MS.5           	25.5           	5.806
MS.6           	25.5           	5.862
MS.7           	25.5           	5.798
MS.8           	25.5           	5.769
MS.9           	25.5           	5.745
MS.10          	25.5           	5.791
MS.11          	25.5           	5.793
MS.12          	25.5           	5.758
MS.13          	25.5           	5.763
MS.14          	25.5           	5.769
MS.15          	25.5           	5.725
MS.16          	25.5           	5.792
MS.17          	25.5           	5.789
MS.18          	25.5           	5.792
MS.19          	25.5           	5.845
MS.20          	25.5           	5.8
MS.21          	25.5           	5.798
MS.22          	25.5           	5.789
MS.23          	25.5           	5.769
MS.24          	25.397         	5.759
MS.25          	25.347         	5.751
MS.26          	25.297         	5.758
MS.27          	25.245         	5.747
MS.28          	25.195         	5.742
MS.29          	25.145         	5.762
MS.30          	25.095         	5.76
MS.31          	25.045         	5.769
MS.32          	24.995         	5.747
MS.33          	24.945         	5.787
MS.34          	24.895         	5.758
MS.35          	24.845         	5.797
MS.36          	24.795         	5.759
MS.37          	24.747         	5.752
MS.38          	24.698         	5.731
MS.39          	24.647         	5.742
MS.40          	24.597         	5.767
MS.41          	24.55          	5.769
MS.42          	24.5           	5.732
MS.43          	24.45          	5.767
MS.44          	24.403         	5.769
MS.45          	24.352         	5.775
MS.46          	24.305         	5.807
MS.47          	24.257         	5.782
MS.48          	24.207         	5.76
MS.49          	24.16          	5.741
MS.50          	24.11          	5.782
MS.51          	24.062         	5.771
MS.52          	24.015         	5.737
MS.53          	23.967         	5.765
MS.54          	23.92          	5.758
MS.55          	23.87          	5.75
MS.56          	23.823         	5.729
MS.57          	23.775         	5.769
MS.58          	23.727         	5.751
MS.59          	23.68          	5.713
MS.60          	23.632         	5.73
MS.61          	23.587         	5.709
MS.62          	23.54          	5.729
MS.63          	23.493         	5.734
MS.64          	23.445         	5.707
MS.65          	23.397         	5.706
MS.66          	23.352         	5.684
MS.67          	23.305         	5.679
MS.68          	23.257         	5.67
MS.69          	23.212         	5.691
MS.70          	23.165         	5.688
MS.71          	23.12          	5.675
MS.72          	23.073         	5.669
MS.73          	23.028         	5.656
MS.74          	22.98          	5.568
MS.75          	22.935         	5.601
MS.76          	22.89          	5.562
MS.77          	22.842         	5.518
MS.78          	22.797         	5.569
MS.79          	22.752         	5.552
MS.80          	22.707         	5.562
MS.81          	22.663         	5.531
MS.82          	22.618         	5.48
MS.83          	22.57          	5.53
MS.84          	22.525         	5.521
MS.85          	22.48          	5.474
MS.86          	22.435         	5.476
MS.87          	22.392         	5.469
MS.88          	22.347         	5.437
MS.89          	22.302         	5.439
MS.90          	22.257         	5.448
MS.91          	22.212         	5.457
MS.92          	22.167         	5.426
MS.93          	22.125         	5.392
MS.94          	22.08          	5.389
MS.95          	22.035         	5.405
MS.96          	21.993         	5.437
MS.97          	21.948         	5.377
MS.98          	21.905         	5.364
MS.99          	21.86          	5.319
MS.100         	21.817         	5.332
MS.101         	21.772         	5.333
MS.102         	21.73          	5.33
MS.103         	21.685         	5.354
MS.104         	21.642         	5.288
MS.105         	21.6           	5.305
MS.106         	21.557         	5.28
MS.107         	21.512         	5.258
MS.108         	21.47          	5.255
MS.109         	21.427         	5.212
MS.110         	21.385         	5.225
MS.111         	21.342         	5.12
MS.112         	21.3           	5.181
MS.113         	21.257         	5.253
MS.114         	21.215         	5.262
MS.115         	21.172         	5.046
MS.116         	21.13          	4.941
MS.117         	21.087         	4.907
MS.118         	21.045         	5.072
MS.119         	21.002         	5.051
MS.120         	20.96          	5.04
MS.121         	20.92          	4.987
MS.122         	20.877         	5.056
MS.123         	20.835         	4.885
MS.124         	20.795         	4.811
MS.125         	20.752         	4.951
MS.126         	20.71          	4.836
MS.127         	20.67          	4.844
MS.128         	20.627         	4.843
MS.129         	20.587         	4.828
MS.130         	20.545         	4.819
MS.131         	20.505         	4.734
MS.132         	20.465         	4.762
MS.133         	20.422         	4.714
MS.134         	20.382         	4.711
MS.135         	20.342         	4.802
MS.136         	20.3           	4.706
MS.137         	20.26          	4.741
MS.138         	20.22          	4.734
MS.139         	20.18          	4.469
MS.140         	20.14          	4.495
MS.141         	20.1           	4.492
MS.142         	20.06          	4.531
MS.143         	20.02          	4.469
MS.144         	19.98          	4.445
MS.145         	19.94          	4.546
MS.146         	19.9           	4.453
MS.147         	19.86          	4.459
MS.148         	19.82          	4.46
MS.149         	19.78          	4.42
MS.150         	19.74          	4.464
MS.151         	19.7           	4.41
MS.152         	19.663         	4.231
MS.153         	19.622         	4.261
MS.154         	19.583         	4.211
MS.155         	19.545         	4.299
MS.156         	19.505         	4.282
MS.157         	19.465         	4.12
MS.158         	19.427         	4.205
MS.159         	19.387         	4.081
MS.160         	19.35          	4.113
MS.161         	19.31          	4.01
MS.162         	19.272         	4.061
MS.163         	19.235         	4.071
MS.164         	19.195         	3.881
MS.165         	19.157         	3.989
MS.166         	19.12          	3.89
MS.167         	19.08          	3.9
MS.168         	19.042         	3.834
MS.169         	19.005         	3.811
MS.170         	18.967         	3.711
MS.171         	18.927         	3.584
MS.172         	18.89          	3.584
MS.173         	18.852         	3.643
MS.174         	18.815         	3.505
MS.175         	18.778         	3.691
MS.176         	18.74          	3.429
MS.177         	18.702         	3.458
MS.178         	18.665         	3.521
MS.179         	18.628         	3.236
MS.180         	18.59          	3.093
MS.181         	18.555         	3.295
MS.182         	18.517         	3.271
MS.183         	18.48          	3.28
MS.184         	18.442         	3.298
MS.185         	18.405         	3.12
MS.186         	18.37          	3.24
MS.187         	18.333         	3.005
MS.188         	18.295         	2.999
MS.189         	18.26          	3.154
MS.190         	18.222         	3.215
MS.191         	18.188         	2.865
MS.192         	18.15          	2.946
MS.193         	18.115         	2.946
MS.194         	18.077         	2.88
MS.195         	18.042         	2.875
MS.196         	18.005         	2.919
MS.197         	17.97          	2.86
MS.198         	17.932         	2.917
MS.199         	17.897         	2.941
MS.200         	17.862         	2.698
MS.201         	17.827         	2.579
MS.202         	17.79          	2.762
MS.203         	17.755         	2.765
MS.204         	17.72          	2.695
MS.205         	17.685         	2.599
MS.206         	17.65          	2.661
MS.207         	17.612         	2.611
MS.208         	17.577         	2.515
MS.209         	17.542         	2.549
MS.210         	17.507         	2.577
MS.211         	17.472         	2.434
MS.212         	17.438         	2.334
MS.213         	17.403         	2.451
MS.214         	17.37          	2.334
MS.215         	17.335         	2.336
MS.216         	17.3           	2.358
MS.217         	17.265         	2.24
MS.218         	17.23          	2.202
MS.219         	17.195         	2.198
MS.220         	17.163         	2.086
MS.221         	17.128         	2.108
MS.222         	17.092         	1.986
MS.223         	17.06          	2.085
MS.224         	17.025         	2.037
MS.225         	16.99          	1.985
MS.226         	16.958         	1.951
MS.227         	16.922         	1.812
MS.228         	16.89          	1.915
MS.229         	16.855         	1.79
MS.230         	16.823         	1.836
MS.231         	16.788         	1.842
MS.232         	16.755         	1.809
MS.233         	16.72          	1.758
MS.234         	16.688         	1.694
MS.235         	16.655         	1.621
MS.236         	16.62          	1.55
MS.237         	16.587         	1.571
MS.238         	16.555         	1.499
MS.239         	16.522         	1.603
MS.240         	16.487         	1.403
MS.241         	16.455         	1.486
MS.242         	16.422         	1.506
MS.243         	16.39          	1.437
MS.244         	16.358         	1.331
MS.245         	16.325         	1.266
MS.246         	16.292         	1.318
MS.247         	16.26          	1.332
MS.248         	16.227         	1.189
MS.249         	16.195         	1.117
MS.250         	16.163         	1.183
MS.251         	16.13          	1.066
MS.252         	16.097         	1.09
MS.253         	16.065         	1.05
MS.254         	16.032         	0.99
MS.255         	16.003         	0.996
MS.256         	15.97          	0.968
MS.257         	15.938         	0.914
MS.258         	15.905         	0.85
MS.259         	15.875         	0.85
MS.260         	15.842         	0.929
MS.261         	15.81          	0.817
MS.262         	15.78          	0.78
MS.263         	15.747         	0.759
MS.264         	15.715         	0.724
MS.265         	15.685         	0.702
MS.266         	15.652         	0.654
MS.267         	15.622         	0.774
MS.268         	15.59          	0.648
MS.269         	15.56          	0.593
MS.270         	15.527         	0.569
MS.271         	15.497         	0.63
MS.272         	15.467         	0.581
MS.273         	15.435         	0.568
MS.274         	15.405         	0.612
MS.275         	15.375         	0.535
MS.276         	15.342         	0.52
MS.277         	15.312         	0.529
MS.278         	15.282         	0.562
MS.279         	15.252         	0.576
MS.280         	15.22          	0.508
MS.281         	15.19          	0.43
MS.282         	15.16          	0.51
MS.283         	15.13          	0.496
MS.284         	15.1           	0.565
MS.285         	15.07          	0.47
MS.286         	15.04          	0.483
MS.287         	15.01          	0.487
MS.288         	14.98          	0.419
MS.289         	14.95          	0.42
MS.290         	14.92          	0.435
MS.291         	14.89          	0.405
MS.292         	14.86          	0.419
MS.293         	14.83          	0.4
MS.294         	14.8           	0.415
MS.295         	14.77          	0.381
MS.296         	14.742         	0.387
MS.297         	14.712         	0.396
MS.298         	14.682         	0.358
MS.299         	14.652         	0.365
MS.300         	14.625         	0.372
MS.301         	14.595         	0.365
MS.302         	14.565         	0.266
MS.303         	14.537         	0.28
MS.304         	14.507         	0.338
MS.305         	14.477         	0.294
MS.306         	14.45          	0.281
MS.307         	14.42          	0.231
MS.308         	14.392         	0.27
MS.309         	14.362         	0.206
MS.310         	14.335         	0.299
MS.311         	14.305         	0.194
MS.312         	14.278         	0.225
MS.313         	14.25          	0.247
MS.314         	14.22          	0.226
MS.315         	14.193         	0.204
MS.316         	14.162         	0.237
MS.317         	14.135         	0.182
MS.318         	14.108         	0.182
MS.319         	14.08          	0.188
MS.320         	14.05          	0.168
MS.321         	14.023         	0.151
MS.322         	13.995         	0.151
MS.323         	13.967         	0.146
MS.324         	13.94          	0.206
MS.325         	13.91          	0.183
MS.326         	13.882         	0.145
MS.327         	13.855         	0.156
MS.328         	13.827         	0.137
MS.329         	13.8           	0.128
MS.330         	13.773         	0.135
MS.331         	13.745         	0.109
MS.332         	13.717         	0.112
MS.333         	13.69          	0.115
MS.334         	13.662         	0.1
MS.335         	13.635         	0.111
MS.336         	13.608         	0.115
MS.337         	13.58          	0.132
MS.338         	13.555         	0.112
MS.339         	13.528         	0.106
MS.340         	13.5           	0.109
MS.341         	13.472         	0.11
MS.342         	13.445         	0.093
MS.343         	13.42          	0.095
MS.344         	13.392         	0.101
MS.345         	13.365         	0.09
MS.346         	13.34          	0.103
MS.347         	13.312         	0.096
MS.348         	13.285         	0.082
MS.349         	13.26          	0.092
MS.350         	13.233         	0.079
MS.351         	13.205         	0.089
MS.352         	13.18          	0.09
MS.353         	13.153         	0.083
MS.354         	13.127         	0.071
MS.355         	13.1           	0.082
MS.356         	13.075         	0.077
MS.357         	13.047         	0.077
MS.358         	13.023         	0.073
MS.359         	12.997         	0.072
MS.360         	12.97          	0.076
MS.361         	12.945         	0.063
MS.362         	12.917         	0.068
MS.363         	12.892         	0.071
MS.364         	12.867         	0.07
MS.365         	12.842         	0.068
MS.366         	12.815         	0.065
MS.367         	12.79          	0.063
MS.368         	12.765         	0.068
MS.369         	12.74          	0.066
MS.370         	12.712         	0.071
MS.371         	12.688         	0.068
MS.372         	12.662         	0.063
MS.373         	12.637         	0.071
MS.374         	12.613         	0.067
MS.375         	12.587         	0.076
MS.376         	12.562         	0.065
MS.377         	12.537         	0.066
MS.378         	12.512         	0.065
MS.379         	12.488         	0.067
MS.380         	12.462         	0.062
MS.381         	12.438         	0.067
MS.382         	12.412         	0.062
MS.383         	12.387         	0.07
MS.384         	12.363         	0.061
MS.385         	12.337         	0.067
MS.386         	12.312         	0.065
MS.387         	12.287         	0.059
MS.388         	12.265         	0.062
MS.389         	12.24          	0.062
MS.390         	12.215         	0.068
MS.391         	12.19          	0.065
MS.392         	12.167         	0.062
MS.393         	12.142         	0.066
MS.394         	12.117         	0.068
MS.395         	12.092         	0.063
MS.396         	12.07          	0.068
MS.397         	12.045         	0.072
MS.398         	12.02          	0.061
MS.399         	11.997         	0.063
MS.400         	11.972         	0.068
MS.401         	11.95          	0.06
MS.402         	11.925         	0.067
MS.403         	11.903         	0.063
MS.404         	11.877         	0.065
MS.405         	11.855         	0.068
MS.406         	11.83          	0.063
MS.407         	11.807         	0.062
MS.408         	11.782         	0.06
MS.409         	11.76          	0.074
MS.410         	11.735         	0.063
MS.411         	11.712         	0.062
MS.412         	11.69          	0.057
MS.413         	11.665         	0.06
MS.414         	11.642         	0.059
MS.415         	11.62          	0.066
MS.416         	11.595         	0.057
MS.417         	11.572         	0.052
MS.418         	11.55          	0.057
MS.419         	11.528         	0.06
MS.420         	11.505         	0.066
MS.421         	11.48          	0.062
DERIVED EXCITABILITY VARIABLES
Program = QTracP 3/4/2020
Threshold method = 6 (optimised for CAP, using data for present condition only)
SR method = 1 (using actual data values)
6.                 	0.000               	Peak response\(mV)
17.                	54                  	Age (years)
18.                	1                   	Sex (M=1, F=2)

EXTRA VARIABLES

MScPeak(mV) = 5.74
MScS5(mA) = 14.45
MScS50(mA) = 18.04
MScS95(mA) = 22.27
MScNSteps = 2
MScSteps(%) = 5.1
MScStepMax(%) = 2.8
MScD50 = 44
MScSlope = 5.59
MSFPeakAmp(mV) = 5.69
MSFNUnits = 183
MSFMeanUnitAmp(uV) = 31.1
MSFHuntTime(m) = 2.8
MSFError(%) = 2.06
MSFNLarge = 48.98
MSFMedianAmp(%) = 0.407
MSFMedianAmp(mV) = 0.0232
MSFHalfAmpAmp(%) = 0.638
MSFHalfAmpAmp(mV) = 0.0363
MSFLargestAmp(%) = 2.27
MSFLargestAmp(mV) = 0.129
MSFMeanRS(%) = 2
MSFOpts = 10106121
MScDuration(min) = 3.7
MSFTraces = 375
MSFSizeLimit(uV) = 14.2
MSFLimitType = 1
MSFSmallestAmp(uV) = 14.5

EXTRA WAVEFORMS


!MScan Model
!183
	1	13.27	0.54	2
	2	13.64	0.41	2
	3	13.81	0.33	2
	4	13.91	0.28	2
	5	14.03	0.44	2
	6	14.16	0.45	2
	7	14.26	0.4	2
	8	14.36	0.55	2
	9	14.44	0.41	2
	10	14.51	0.39	2
	11	14.58	0.41	2
	12	14.65	0.3	2
	13	14.71	0.37	2
	14	14.78	0.45	2
	15	14.86	0.47	2
	16	14.96	0.48	2
	17	15.07	0.56	2
	18	15.19	0.55	2
	19	15.23	0.84	2
	20	15.43	0.65	2
	21	15.48	0.34	2
	22	15.52	0.39	2
	23	15.57	0.52	2
	24	15.6	0.34	2
	25	15.65	0.46	2
	26	15.68	0.27	2
	27	15.7	0.31	2
	28	15.72	0.33	2
	29	15.75	0.32	2
	30	15.77	0.26	2
	31	15.79	0.27	2
	32	15.81	0.27	2
	33	15.83	0.28	2
	34	15.85	0.29	2
	35	15.87	0.31	2
	36	15.89	0.29	2
	37	15.91	0.27	2
	38	15.94	0.44	2
	39	15.96	0.56	2
	40	15.99	0.38	2
	41	16.01	0.27	2
	42	16.02	0.27	2
	43	16.04	0.27	2
	44	16.05	0.26	2
	45	16.07	0.27	2
	46	16.09	0.33	2
	47	16.11	0.32	2
	48	16.12	0.31	2
	49	16.14	0.31	2
	50	16.16	0.31	2
	51	16.18	0.34	2
	52	16.2	0.34	2
	53	16.22	0.36	2
	54	16.24	0.39	2
	55	16.26	0.42	2
	56	16.28	0.39	2
	57	16.3	0.38	2
	58	16.33	0.38	2
	59	16.35	0.38	2
	60	16.37	0.39	2
	61	16.39	0.4	2
	62	16.42	0.43	2
	63	16.44	0.45	2
	64	16.46	0.47	2
	65	16.49	0.48	2
	66	16.51	0.47	2
	67	16.53	0.43	2
	68	16.56	0.4	2
	69	16.58	0.42	2
	70	16.61	0.44	2
	71	16.63	0.44	2
	72	16.66	0.43	2
	73	16.68	0.42	2
	74	16.71	0.42	2
	75	16.73	0.37	2
	76	16.75	0.32	2
	77	16.77	0.3	2
	78	16.79	0.29	2
	79	16.8	0.27	2
	80	16.82	0.26	2
	81	16.84	0.26	2
	82	16.86	0.3	2
	83	16.88	0.36	2
	84	16.9	0.32	2
	85	16.92	0.29	2
	86	16.94	0.37	2
	87	16.96	0.39	2
	88	16.98	0.4	2
	89	16.99	0.39	2
	90	17.01	0.36	2
	91	17.03	0.35	2
	92	17.05	0.32	2
	93	17.07	0.33	2
	94	17.09	0.34	2
	95	17.11	0.32	2
	96	17.13	0.31	2
	97	17.15	0.3	2
	98	17.17	0.3	2
	99	17.19	0.31	2
	100	17.21	0.36	2
	101	17.23	0.38	2
	102	17.25	0.36	2
	103	17.27	0.36	2
	104	17.29	0.34	2
	105	17.31	0.34	2
	106	17.33	0.33	2
	107	17.35	0.34	2
	108	17.37	0.34	2
	109	17.39	1.67	2
	110	17.39	0.34	2
	111	17.41	0.46	2
	112	17.46	0.91	2
	113	17.51	0.78	2
	114	17.57	0.84	2
	115	17.63	0.93	2
	116	17.69	0.85	2
	117	17.77	1.09	2
	118	17.86	1.34	2
	119	17.97	1.48	2
