File:              	C:\Qtrac\Data\Daniel M Sørensen\MScan multicentre study\Data from centres\Ankara\Processed data\ÇCC10114C.QZD
Name:              	TR.ANK.NC.3.1
Protocol:          	MSCAN-R2
Date:              	14/1/21
Start time:        	20:02:30
Age:               	28
Sex:               	M
Temperature:
S/R sites:         	TA
NC/disease:        	NC
Operator:          	HA
Comments:
M-SCAN DATA (7.3-0.8m)
Scanpts: 5, 8, 670, 678
Stim. (mA)     	Amp. (mV)
MS.1           	25.5           	7.152
MS.2           	25.5           	7.116
MS.3           	25.5           	7.132
MS.4           	25.5           	7.09
MS.5           	25.5           	7.06
MS.6           	25.5           	7.1
MS.7           	25.5           	7.084
MS.8           	25.5           	7.086
MS.9           	25.5           	7.098
MS.10          	25.5           	7.092
MS.11          	25.5           	7.08
MS.12          	25.5           	7.09
MS.13          	25.5           	7.1
MS.14          	25.5           	7.005
MS.15          	25.5           	7.11
MS.16          	25.5           	7.1
MS.17          	25.5           	7.084
MS.18          	25.5           	7.126
MS.19          	25.5           	7.062
MS.20          	25.5           	7.082
MS.21          	25.5           	7.09
MS.22          	25.5           	7.046
MS.23          	25.45          	7.102
MS.24          	25.397         	7.118
MS.25          	25.347         	7.046
MS.26          	25.297         	7.116
MS.27          	25.247         	7.098
MS.28          	25.195         	7.074
MS.29          	25.145         	7.06
MS.30          	25.095         	7.084
MS.31          	25.045         	7.052
MS.32          	24.995         	7.011
MS.33          	24.945         	7.044
MS.34          	24.895         	7.021
MS.35          	24.845         	7.021
MS.36          	24.795         	6.979
MS.37          	24.747         	6.951
MS.38          	24.698         	7.046
MS.39          	24.647         	7.019
MS.40          	24.597         	7.005
MS.41          	24.55          	6.957
MS.42          	24.5           	6.937
MS.43          	24.45          	6.85
MS.44          	24.403         	6.905
MS.45          	24.352         	6.911
MS.46          	24.305         	6.951
MS.47          	24.257         	6.967
MS.48          	24.207         	6.882
MS.49          	24.16          	6.874
MS.50          	24.11          	6.836
MS.51          	24.062         	6.856
MS.52          	24.015         	6.878
MS.53          	23.967         	6.892
MS.54          	23.92          	6.824
MS.55          	23.872         	6.86
MS.56          	23.823         	6.915
MS.57          	23.775         	6.858
MS.58          	23.727         	6.866
MS.59          	23.68          	6.834
MS.60          	23.635         	6.882
MS.61          	23.587         	6.818
MS.62          	23.54          	6.753
MS.63          	23.493         	6.882
MS.64          	23.445         	6.822
MS.65          	23.397         	6.848
MS.66          	23.352         	6.788
MS.67          	23.305         	6.78
MS.68          	23.257         	6.766
MS.69          	23.212         	6.758
MS.70          	23.165         	6.731
MS.71          	23.12          	6.768
MS.72          	23.073         	6.715
MS.73          	23.028         	6.727
MS.74          	22.98          	6.868
MS.75          	22.935         	6.651
MS.76          	22.89          	6.228
MS.77          	22.845         	6.683
MS.78          	22.797         	6.719
MS.79          	22.752         	6.681
MS.80          	22.707         	6.812
MS.81          	22.663         	6.798
MS.82          	22.618         	6.751
MS.83          	22.573         	6.6
MS.84          	22.525         	6.699
MS.85          	22.48          	6.655
MS.86          	22.438         	6.669
MS.87          	22.392         	6.57
MS.88          	22.347         	6.61
MS.89          	22.302         	6.629
MS.90          	22.257         	6.534
MS.91          	22.212         	6.465
MS.92          	22.167         	6.689
MS.93          	22.125         	6.617
MS.94          	22.08          	6.512
MS.95          	22.035         	6.747
MS.96          	21.993         	6.556
MS.97          	21.948         	6.584
MS.98          	21.905         	6.602
MS.99          	21.86          	6.498
MS.100         	21.817         	6.572
MS.101         	21.772         	6.51
MS.102         	21.73          	6.51
MS.103         	21.688         	6.548
MS.104         	21.642         	6.498
MS.105         	21.6           	6.395
MS.106         	21.557         	6.353
MS.107         	21.512         	6.246
MS.108         	21.47          	6.314
MS.109         	21.427         	6.25
MS.110         	21.385         	6.288
MS.111         	21.342         	6.302
MS.112         	21.3           	6.349
MS.113         	21.257         	6.399
MS.114         	21.215         	6.272
MS.115         	21.172         	6.308
MS.116         	21.13          	6.196
MS.117         	21.087         	6.165
MS.118         	21.045         	6.161
MS.119         	21.002         	6.25
MS.120         	20.962         	5.926
MS.121         	20.92          	6.133
MS.122         	20.877         	6.19
MS.123         	20.835         	6.026
MS.124         	20.795         	6.149
MS.125         	20.752         	5.998
MS.126         	20.712         	5.976
MS.127         	20.67          	6.137
MS.128         	20.627         	6.073
MS.129         	20.587         	5.96
MS.130         	20.545         	6.016
MS.131         	20.505         	6.085
MS.132         	20.465         	6.091
MS.133         	20.422         	6.047
MS.134         	20.382         	5.996
MS.135         	20.342         	5.93
MS.136         	20.3           	6.061
MS.137         	20.26          	5.817
MS.138         	20.22          	5.829
MS.139         	20.18          	5.807
MS.140         	20.14          	5.75
MS.141         	20.1           	5.93
MS.142         	20.06          	5.891
MS.143         	20.02          	5.95
MS.144         	19.98          	5.966
MS.145         	19.94          	5.934
MS.146         	19.9           	5.877
MS.147         	19.86          	5.732
MS.148         	19.82          	5.823
MS.149         	19.78          	5.809
MS.150         	19.74          	5.839
MS.151         	19.7           	5.666
MS.152         	19.663         	5.672
MS.153         	19.622         	5.845
MS.154         	19.583         	5.811
MS.155         	19.545         	5.688
MS.156         	19.505         	5.869
MS.157         	19.465         	5.767
MS.158         	19.427         	5.833
MS.159         	19.387         	5.752
MS.160         	19.35          	5.628
MS.161         	19.31          	5.74
MS.162         	19.272         	5.591
MS.163         	19.235         	5.454
MS.164         	19.195         	5.466
MS.165         	19.157         	5.577
MS.166         	19.12          	5.613
MS.167         	19.08          	5.271
MS.168         	19.042         	5.398
MS.169         	19.005         	5.474
MS.170         	18.967         	5.313
MS.171         	18.927         	5.273
MS.172         	18.89          	5.311
MS.173         	18.852         	5.215
MS.174         	18.815         	5.291
MS.175         	18.778         	5.358
MS.176         	18.74          	5.277
MS.177         	18.702         	5.17
MS.178         	18.665         	5.132
MS.179         	18.628         	4.872
MS.180         	18.59          	5.066
MS.181         	18.555         	5.005
MS.182         	18.517         	5.015
MS.183         	18.48          	4.858
MS.184         	18.442         	4.812
MS.185         	18.405         	4.57
MS.186         	18.37          	4.602
MS.187         	18.333         	4.667
MS.188         	18.295         	4.598
MS.189         	18.26          	4.5
MS.190         	18.222         	4.592
MS.191         	18.188         	4.647
MS.192         	18.15          	4.532
MS.193         	18.115         	4.536
MS.194         	18.077         	4.608
MS.195         	18.042         	4.546
MS.196         	18.005         	4.663
MS.197         	17.97          	4.639
MS.198         	17.932         	4.486
MS.199         	17.897         	4.385
MS.200         	17.862         	4.588
MS.201         	17.827         	4.518
MS.202         	17.79          	4.341
MS.203         	17.755         	4.306
MS.204         	17.72          	4.425
MS.205         	17.685         	4.351
MS.206         	17.65          	4.226
MS.207         	17.612         	4.343
MS.208         	17.577         	4.244
MS.209         	17.542         	4.32
MS.210         	17.507         	4.266
MS.211         	17.472         	4.193
MS.212         	17.438         	4.266
MS.213         	17.403         	4.135
MS.214         	17.37          	4.113
MS.215         	17.335         	4.206
MS.216         	17.3           	4.175
MS.217         	17.265         	4.206
MS.218         	17.23          	4.061
MS.219         	17.195         	4.32
MS.220         	17.163         	3.968
MS.221         	17.128         	4.177
MS.222         	17.092         	4.085
MS.223         	17.06          	3.946
MS.224         	17.025         	3.785
MS.225         	16.99          	4.018
MS.226         	16.958         	4.038
MS.227         	16.922         	4.034
MS.228         	16.89          	3.771
MS.229         	16.855         	3.611
MS.230         	16.823         	3.855
MS.231         	16.788         	3.853
MS.232         	16.755         	3.613
MS.233         	16.72          	3.73
MS.234         	16.688         	3.758
MS.235         	16.655         	3.72
MS.236         	16.62          	3.758
MS.237         	16.587         	3.756
MS.238         	16.555         	3.672
MS.239         	16.522         	3.539
MS.240         	16.49          	3.517
MS.241         	16.455         	3.523
MS.242         	16.422         	3.323
MS.243         	16.39          	3.428
MS.244         	16.358         	3.339
MS.245         	16.325         	3.482
MS.246         	16.292         	3.392
MS.247         	16.26          	3.43
MS.248         	16.227         	3.209
MS.249         	16.195         	3.372
MS.250         	16.163         	3.277
MS.251         	16.13          	3.281
MS.252         	16.097         	3.337
MS.253         	16.065         	2.949
MS.254         	16.032         	3.184
MS.255         	16.003         	3.203
MS.256         	15.97          	3.17
MS.257         	15.938         	3.152
MS.258         	15.905         	2.957
MS.259         	15.875         	3.09
MS.260         	15.842         	2.969
MS.261         	15.81          	2.941
MS.262         	15.78          	2.85
MS.263         	15.747         	2.985
MS.264         	15.715         	2.792
MS.265         	15.685         	2.84
MS.266         	15.652         	2.739
MS.267         	15.622         	2.745
MS.268         	15.59          	2.808
MS.269         	15.56          	2.729
MS.270         	15.527         	2.786
MS.271         	15.497         	2.759
MS.272         	15.467         	2.628
MS.273         	15.435         	2.681
MS.274         	15.405         	2.633
MS.275         	15.375         	2.58
MS.276         	15.342         	2.566
MS.277         	15.312         	2.498
MS.278         	15.282         	2.618
MS.279         	15.252         	2.469
MS.280         	15.22          	2.395
MS.281         	15.19          	2.554
MS.282         	15.16          	2.536
MS.283         	15.13          	2.532
MS.284         	15.1           	2.526
MS.285         	15.07          	2.397
MS.286         	15.04          	2.461
MS.287         	15.01          	2.342
MS.288         	14.98          	2.222
MS.289         	14.95          	2.338
MS.290         	14.92          	2.467
MS.291         	14.89          	2.371
MS.292         	14.86          	2.264
MS.293         	14.83          	2.33
MS.294         	14.8           	2.373
MS.295         	14.77          	2.336
MS.296         	14.742         	2.296
MS.297         	14.712         	2.278
MS.298         	14.682         	2.272
MS.299         	14.652         	2.226
MS.300         	14.625         	2.314
MS.301         	14.595         	2.304
MS.302         	14.565         	2.222
MS.303         	14.537         	2.262
MS.304         	14.507         	2.292
MS.305         	14.477         	2.234
MS.306         	14.45          	2.163
MS.307         	14.42          	2.256
MS.308         	14.392         	2.222
MS.309         	14.362         	2.169
MS.310         	14.335         	2.185
MS.311         	14.305         	2.129
MS.312         	14.278         	2.109
MS.313         	14.25          	2.141
MS.314         	14.22          	2.048
MS.315         	14.193         	2.129
MS.316         	14.162         	2.054
MS.317         	14.135         	2.095
MS.318         	14.108         	2.014
MS.319         	14.08          	1.988
MS.320         	14.05          	2.065
MS.321         	14.023         	2.042
MS.322         	13.995         	1.948
MS.323         	13.967         	2.014
MS.324         	13.94          	1.865
MS.325         	13.91          	2.024
MS.326         	13.882         	1.98
MS.327         	13.855         	2.016
MS.328         	13.827         	1.855
MS.329         	13.8           	1.861
MS.330         	13.773         	1.928
MS.331         	13.745         	1.855
MS.332         	13.717         	1.875
MS.333         	13.69          	1.783
MS.334         	13.662         	1.811
MS.335         	13.635         	1.823
MS.336         	13.608         	1.805
MS.337         	13.58          	1.815
MS.338         	13.555         	1.776
MS.339         	13.528         	1.758
MS.340         	13.5           	1.817
MS.341         	13.472         	1.758
MS.342         	13.445         	1.702
MS.343         	13.42          	1.738
MS.344         	13.392         	1.716
MS.345         	13.365         	1.744
MS.346         	13.34          	1.662
MS.347         	13.312         	1.754
MS.348         	13.285         	1.619
MS.349         	13.26          	1.69
MS.350         	13.233         	1.672
MS.351         	13.205         	1.692
MS.352         	13.18          	1.601
MS.353         	13.153         	1.615
MS.354         	13.127         	1.599
MS.355         	13.1           	1.551
MS.356         	13.075         	1.561
MS.357         	13.047         	1.561
MS.358         	13.023         	1.515
MS.359         	12.997         	1.511
MS.360         	12.97          	1.472
MS.361         	12.945         	1.507
MS.362         	12.917         	1.521
MS.363         	12.892         	1.555
MS.364         	12.867         	1.507
MS.365         	12.842         	1.462
MS.366         	12.815         	1.454
MS.367         	12.79          	1.341
MS.368         	12.765         	1.416
MS.369         	12.74          	1.388
MS.370         	12.712         	1.396
MS.371         	12.688         	1.404
MS.372         	12.662         	1.366
MS.373         	12.637         	1.372
MS.374         	12.613         	1.331
MS.375         	12.587         	1.345
MS.376         	12.562         	1.4
MS.377         	12.537         	1.329
MS.378         	12.512         	1.337
MS.379         	12.488         	1.345
MS.380         	12.462         	1.321
MS.381         	12.438         	1.287
MS.382         	12.412         	1.345
MS.383         	12.387         	1.38
MS.384         	12.363         	1.299
MS.385         	12.337         	1.299
MS.386         	12.312         	1.295
MS.387         	12.287         	1.352
MS.388         	12.265         	1.271
MS.389         	12.24          	1.289
MS.390         	12.215         	1.323
MS.391         	12.19          	1.259
MS.392         	12.167         	1.317
MS.393         	12.142         	1.295
MS.394         	12.117         	1.283
MS.395         	12.092         	1.249
MS.396         	12.07          	1.283
MS.397         	12.045         	1.247
MS.398         	12.023         	1.281
MS.399         	11.997         	1.279
MS.400         	11.972         	1.229
MS.401         	11.95          	1.213
MS.402         	11.925         	1.198
MS.403         	11.903         	1.247
MS.404         	11.877         	1.273
MS.405         	11.855         	1.156
MS.406         	11.83          	1.249
MS.407         	11.807         	1.211
MS.408         	11.782         	1.196
MS.409         	11.76          	1.182
MS.410         	11.735         	1.184
MS.411         	11.712         	1.146
MS.412         	11.69          	1.15
MS.413         	11.665         	1.112
MS.414         	11.642         	1.104
MS.415         	11.62          	1.166
MS.416         	11.595         	1.112
MS.417         	11.572         	1.14
MS.418         	11.55          	1.106
MS.419         	11.528         	1.122
MS.420         	11.505         	1.088
MS.421         	11.48          	1.057
MS.422         	11.457         	1.013
MS.423         	11.435         	1.029
MS.424         	11.412         	0.961
MS.425         	11.39          	1.027
MS.426         	11.367         	0.999
MS.427         	11.345         	1.007
MS.428         	11.32          	0.969
MS.429         	11.297         	0.955
MS.430         	11.275         	0.924
MS.431         	11.252         	0.969
MS.432         	11.23          	0.973
MS.433         	11.207         	0.975
MS.434         	11.185         	0.983
MS.435         	11.165         	0.975
MS.436         	11.142         	0.951
MS.437         	11.12          	0.945
MS.438         	11.097         	0.959
MS.439         	11.075         	0.906
MS.440         	11.052         	0.939
MS.441         	11.03          	0.916
MS.442         	11.007         	0.908
MS.443         	10.988         	0.864
MS.444         	10.965         	0.888
MS.445         	10.943         	0.884
MS.446         	10.92          	0.9
MS.447         	10.9           	0.84
MS.448         	10.877         	0.858
MS.449         	10.855         	0.902
MS.450         	10.835         	0.846
MS.451         	10.812         	0.878
MS.452         	10.79          	0.884
MS.453         	10.77          	0.818
MS.454         	10.747         	0.779
MS.455         	10.725         	0.812
MS.456         	10.705         	0.84
MS.457         	10.682         	0.83
MS.458         	10.662         	0.804
MS.459         	10.64          	0.767
MS.460         	10.62          	0.788
MS.461         	10.597         	0.753
MS.462         	10.577         	0.759
MS.463         	10.555         	0.767
MS.464         	10.535         	0.767
MS.465         	10.512         	0.779
MS.466         	10.492         	0.773
MS.467         	10.472         	0.729
MS.468         	10.45          	0.781
MS.469         	10.43          	0.717
MS.470         	10.41          	0.727
MS.471         	10.387         	0.729
MS.472         	10.367         	0.769
MS.473         	10.347         	0.761
MS.474         	10.325         	0.715
MS.475         	10.305         	0.761
MS.476         	10.285         	0.781
MS.477         	10.265         	0.757
MS.478         	10.245         	0.689
MS.479         	10.222         	0.733
MS.480         	10.202         	0.709
MS.481         	10.182         	0.671
MS.482         	10.162         	0.707
MS.483         	10.142         	0.727
MS.484         	10.122         	0.687
MS.485         	10.102         	0.711
MS.486         	10.082         	0.705
MS.487         	10.06          	0.671
MS.488         	10.04          	0.647
MS.489         	10.02          	0.641
MS.490         	10             	0.614
MS.491         	9.98           	0.653
MS.492         	9.96           	0.612
MS.493         	9.94           	0.628
MS.494         	9.92           	0.661
MS.495         	9.903          	0.596
MS.496         	9.882          	0.558
MS.497         	9.863          	0.56
MS.498         	9.842          	0.552
MS.499         	9.823          	0.542
MS.500         	9.802          	0.489
MS.501         	9.782          	0.512
MS.502         	9.765          	0.52
