File:              	C:\Qtrac\Data\Daniel M Sørensen\MScan multicentre study\Data from centres\Aarhus\Processed data\DMSB91205C (2).QZD
Name:              	DK.AAR.NC.8.1
Protocol:          	MSCAN-R2
Date:              	5/12/19
Start time:        	16:08:16
Age:               	75
Sex:               	m
Temperature:       	34,6
S/R sites:         	TA
NC/disease:        	Control
Operator:          	DS
Comments:
M-SCAN DATA (12-1.7m)
Scanpts: 10, 19, 856, 871
Stim. (mA)     	Amp. (mV)
MS.1           	49             	5.563
MS.2           	49             	5.505
MS.3           	49             	5.579
MS.4           	49             	5.517
MS.5           	49             	5.458
MS.6           	49             	5.472
MS.7           	49             	5.468
MS.8           	49             	5.4
MS.9           	49             	5.42
MS.10          	49             	5.472
MS.11          	49             	5.44
MS.12          	49             	5.412
MS.13          	49             	5.432
MS.14          	49             	5.424
MS.15          	49             	5.43
MS.16          	49             	5.446
MS.17          	49             	5.438
MS.18          	49             	5.356
MS.19          	49             	5.416
MS.20          	49             	5.434
MS.21          	49             	5.47
MS.22          	49             	5.382
MS.23          	49             	5.402
MS.24          	48.805         	5.39
MS.25          	48.708         	5.362
MS.26          	48.61          	5.329
MS.27          	48.513         	5.352
MS.28          	48.415         	5.38
MS.29          	48.317         	5.331
MS.30          	48.222         	5.408
MS.31          	48.125         	5.321
MS.32          	48.03          	5.368
MS.33          	47.932         	5.34
MS.34          	47.837         	5.35
MS.35          	47.743         	5.301
MS.36          	47.647         	5.293
MS.37          	47.552         	5.281
MS.38          	47.458         	5.297
MS.39          	47.362         	5.313
MS.40          	47.267         	5.311
MS.41          	47.173         	5.309
MS.42          	47.077         	5.243
MS.43          	46.985         	5.295
MS.44          	46.89          	5.293
MS.45          	46.798         	5.263
MS.46          	46.702         	5.265
MS.47          	46.61          	5.251
MS.48          	46.517         	5.207
MS.49          	46.425         	5.213
MS.50          	46.33          	5.193
MS.51          	46.237         	5.235
MS.52          	46.147         	5.259
MS.53          	46.055         	5.213
MS.54          	45.962         	5.195
MS.55          	45.87          	5.164
MS.56          	45.778         	5.17
MS.57          	45.688         	5.213
MS.58          	45.595         	5.08
MS.59          	45.505         	5.14
MS.60          	45.415         	5.132
MS.61          	45.322         	5.096
MS.62          	45.232         	5.217
MS.63          	45.142         	5.156
MS.64          	45.052         	5.132
MS.65          	44.962         	5.06
MS.66          	44.872         	5.126
MS.67          	44.782         	5.106
MS.68          	44.692         	5.126
MS.69          	44.602         	5.122
MS.70          	44.515         	5.092
MS.71          	44.425         	5.084
MS.72          	44.337         	5.098
MS.73          	44.247         	5.08
MS.74          	44.16          	5.082
MS.75          	44.072         	4.995
MS.76          	43.982         	5.09
MS.77          	43.895         	5.037
MS.78          	43.807         	5.009
MS.79          	43.72          	5.047
MS.80          	43.632         	5.047
MS.81          	43.545         	4.971
MS.82          	43.46          	4.999
MS.83          	43.372         	4.925
MS.84          	43.285         	5.015
MS.85          	43.2           	5.12
MS.86          	43.112         	5.017
MS.87          	43.028         	5.037
MS.88          	42.94          	5.019
MS.89          	42.855         	5.049
MS.90          	42.77          	4.977
MS.91          	42.682         	5.088
MS.92          	42.597         	4.943
MS.93          	42.513         	5.098
MS.94          	42.427         	5.07
MS.95          	42.342         	5.031
MS.96          	42.26          	5.013
MS.97          	42.175         	5.102
MS.98          	42.09          	5.09
MS.99          	42.005         	5.062
MS.100         	41.923         	5.047
MS.101         	41.837         	5.076
MS.102         	41.755         	5.007
MS.103         	41.673         	5.011
MS.104         	41.587         	5.025
MS.105         	41.505         	5.106
MS.106         	41.423         	5.114
MS.107         	41.34          	5.09
MS.108         	41.257         	5.033
MS.109         	41.175         	5.096
MS.110         	41.092         	5.106
MS.111         	41.01          	5.015
MS.112         	40.927         	5.086
MS.113         	40.847         	5.043
MS.114         	40.765         	5.134
MS.115         	40.682         	5.086
MS.116         	40.603         	5.035
MS.117         	40.52          	5.064
MS.118         	40.44          	5.074
MS.119         	40.36          	5.043
MS.120         	40.278         	4.975
MS.121         	40.197         	4.913
MS.122         	40.118         	4.991
MS.123         	40.037         	4.951
MS.124         	39.958         	4.888
MS.125         	39.877         	4.951
MS.126         	39.798         	4.959
MS.127         	39.717         	5.009
MS.128         	39.64          	4.913
MS.129         	39.56          	4.939
MS.130         	39.48          	4.963
MS.131         	39.403         	4.915
MS.132         	39.322         	4.921
MS.133         	39.245         	4.898
MS.134         	39.167         	4.693
MS.135         	39.087         	4.898
MS.136         	39.01          	4.776
MS.137         	38.932         	4.729
MS.138         	38.855         	4.711
MS.139         	38.778         	4.866
MS.140         	38.7           	4.776
MS.141         	38.622         	4.689
MS.142         	38.545         	4.751
MS.143         	38.467         	4.633
MS.144         	38.39          	4.766
MS.145         	38.315         	4.548
MS.146         	38.237         	4.55
MS.147         	38.16          	4.667
MS.148         	38.085         	4.486
MS.149         	38.01          	4.574
MS.150         	37.932         	4.538
MS.151         	37.857         	4.52
MS.152         	37.782         	4.441
MS.153         	37.705         	4.479
MS.154         	37.63          	4.538
MS.155         	37.555         	4.461
MS.156         	37.48          	4.498
MS.157         	37.405         	4.403
MS.158         	37.33          	4.268
MS.159         	37.255         	4.427
MS.160         	37.182         	4.419
MS.161         	37.107         	4.411
MS.162         	37.032         	4.459
MS.163         	36.96          	4.548
MS.164         	36.885         	4.389
MS.165         	36.812         	4.302
MS.166         	36.737         	4.397
MS.167         	36.665         	4.423
MS.168         	36.592         	4.27
MS.169         	36.517         	4.242
MS.170         	36.445         	4.218
MS.171         	36.372         	4.306
MS.172         	36.3           	4.181
MS.173         	36.228         	4.304
MS.174         	36.155         	4.198
MS.175         	36.083         	4.294
MS.176         	36.01          	4.171
MS.177         	35.94          	4.29
MS.178         	35.868         	4.328
MS.179         	35.795         	4.28
MS.180         	35.725         	4.236
MS.181         	35.653         	4.193
MS.182         	35.58          	4.087
MS.183         	35.51          	4.155
MS.184         	35.44          	4.238
MS.185         	35.368         	4.177
MS.186         	35.298         	4.137
MS.187         	35.228         	4.167
MS.188         	35.157         	4.04
MS.189         	35.087         	4.208
MS.190         	35.017         	4.036
MS.191         	34.947         	4.069
MS.192         	34.877         	4
MS.193         	34.807         	4.105
MS.194         	34.737         	4.079
MS.195         	34.667         	3.968
MS.196         	34.597         	4.089
MS.197         	34.53          	4.026
MS.198         	34.46          	4.028
MS.199         	34.392         	4.02
MS.200         	34.322         	4.022
MS.201         	34.255         	3.964
MS.202         	34.185         	3.972
MS.203         	34.118         	3.853
MS.204         	34.05          	3.903
MS.205         	33.982         	3.845
MS.206         	33.912         	3.903
MS.207         	33.845         	3.936
MS.208         	33.778         	3.877
MS.209         	33.71          	3.869
MS.210         	33.642         	3.859
MS.211         	33.575         	3.831
MS.212         	33.51          	3.781
MS.213         	33.443         	3.829
MS.214         	33.375         	3.654
MS.215         	33.307         	3.803
MS.216         	33.243         	3.795
MS.217         	33.175         	3.702
MS.218         	33.11          	3.684
MS.219         	33.042         	3.619
MS.220         	32.978         	3.658
MS.221         	32.912         	3.718
MS.222         	32.845         	3.579
MS.223         	32.78          	3.628
MS.224         	32.715         	3.644
MS.225         	32.65          	3.676
MS.226         	32.585         	3.537
MS.227         	32.517         	3.523
MS.228         	32.455         	3.573
MS.229         	32.39          	3.539
MS.230         	32.325         	3.656
MS.231         	32.26          	3.581
MS.232         	32.195         	3.495
MS.233         	32.13          	3.537
MS.234         	32.068         	3.418
MS.235         	32.002         	3.428
MS.236         	31.938         	3.323
MS.237         	31.875         	3.37
MS.238         	31.81          	3.362
MS.239         	31.747         	3.301
MS.240         	31.685         	3.356
MS.241         	31.62          	3.346
MS.242         	31.557         	3.325
MS.243         	31.495         	3.297
MS.244         	31.432         	3.259
MS.245         	31.37          	3.257
MS.246         	31.305         	3.325
MS.247         	31.242         	3.172
MS.248         	31.18          	3.188
MS.249         	31.12          	3.245
MS.250         	31.057         	3.152
MS.251         	30.995         	3.265
MS.252         	30.932         	3.285
MS.253         	30.87          	3.271
MS.254         	30.81          	3.273
MS.255         	30.747         	3.235
MS.256         	30.688         	3.243
MS.257         	30.625         	3.114
MS.258         	30.565         	3.154
MS.259         	30.502         	3.057
MS.260         	30.442         	2.975
MS.261         	30.38          	3.064
MS.262         	30.32          	3.013
MS.263         	30.26          	2.947
MS.264         	30.2           	2.745
MS.265         	30.14          	2.921
MS.266         	30.077         	2.923
MS.267         	30.017         	2.844
MS.268         	29.957         	2.919
MS.269         	29.897         	2.808
MS.270         	29.84          	2.91
MS.271         	29.78          	2.82
MS.272         	29.72          	2.872
MS.273         	29.66          	2.626
MS.274         	29.6           	2.697
MS.275         	29.542         	2.739
MS.276         	29.483         	2.733
MS.277         	29.425         	2.612
MS.278         	29.365         	2.681
MS.279         	29.307         	2.713
MS.280         	29.247         	2.671
MS.281         	29.19          	2.643
MS.282         	29.132         	2.56
MS.283         	29.073         	2.487
MS.284         	29.015         	2.596
MS.285         	28.957         	2.534
MS.286         	28.9           	2.534
MS.287         	28.842         	2.56
MS.288         	28.785         	2.63
MS.289         	28.727         	2.5
MS.290         	28.67          	2.449
MS.291         	28.612         	2.522
MS.292         	28.555         	2.447
MS.293         	28.497         	2.481
MS.294         	28.44          	2.496
MS.295         	28.382         	2.395
MS.296         	28.327         	2.449
MS.297         	28.27          	2.403
MS.298         	28.215         	2.395
MS.299         	28.157         	2.367
MS.300         	28.102         	2.381
MS.301         	28.045         	2.316
MS.302         	27.99          	2.346
MS.303         	27.932         	2.29
MS.304         	27.877         	2.349
MS.305         	27.823         	2.256
MS.306         	27.765         	2.304
MS.307         	27.71          	2.3
MS.308         	27.655         	2.26
MS.309         	27.6           	2.266
MS.310         	27.545         	2.278
MS.311         	27.49          	2.232
MS.312         	27.435         	2.298
MS.313         	27.38          	2.232
MS.314         	27.325         	2.206
MS.315         	27.27          	2.23
MS.316         	27.217         	2.137
MS.317         	27.162         	2.191
MS.318         	27.108         	2.147
MS.319         	27.052         	2.206
MS.320         	27             	2.149
MS.321         	26.945         	2.179
MS.322         	26.892         	2.137
MS.323         	26.837         	2.119
MS.324         	26.785         	2.147
MS.325         	26.73          	2.151
MS.326         	26.677         	2.109
MS.327         	26.625         	2.127
MS.328         	26.57          	2.125
MS.329         	26.517         	2.093
MS.330         	26.465         	2.022
MS.331         	26.412         	2.077
MS.332         	26.36          	2.058
MS.333         	26.307         	2.026
MS.334         	26.255         	2.036
MS.335         	26.202         	2.008
MS.336         	26.15          	1.99
MS.337         	26.097         	2.038
MS.338         	26.045         	2.062
MS.339         	25.993         	1.972
MS.340         	25.94          	1.998
MS.341         	25.89          	1.998
MS.342         	25.837         	2.006
MS.343         	25.785         	2.002
MS.344         	25.735         	1.956
MS.345         	25.682         	2.022
MS.346         	25.632         	1.958
MS.347         	25.58          	1.952
MS.348         	25.53          	1.905
MS.349         	25.477         	1.984
MS.350         	25.427         	1.899
MS.351         	25.377         	1.879
MS.352         	25.325         	1.887
MS.353         	25.275         	1.873
MS.354         	25.225         	1.903
MS.355         	25.175         	1.893
MS.356         	25.125         	1.98
MS.357         	25.073         	1.926
MS.358         	25.022         	1.938
MS.359         	24.972         	1.869
MS.360         	24.922         	1.861
MS.361         	24.875         	1.859
MS.362         	24.825         	1.823
MS.363         	24.775         	1.857
MS.364         	24.725         	1.837
MS.365         	24.675         	1.875
MS.366         	24.627         	1.791
MS.367         	24.577         	1.901
MS.368         	24.528         	1.895
MS.369         	24.48          	1.825
MS.370         	24.43          	1.845
MS.371         	24.382         	1.73
MS.372         	24.332         	1.819
MS.373         	24.285         	1.742
MS.374         	24.235         	1.781
MS.375         	24.188         	1.738
MS.376         	24.137         	1.791
MS.377         	24.09          	1.793
MS.378         	24.042         	1.706
MS.379         	23.995         	1.766
MS.380         	23.948         	1.722
MS.381         	23.897         	1.714
MS.382         	23.85          	1.698
MS.383         	23.802         	1.698
MS.384         	23.755         	1.704
MS.385         	23.707         	1.694
MS.386         	23.66          	1.652
MS.387         	23.612         	1.682
MS.388         	23.567         	1.642
MS.389         	23.52          	1.662
MS.390         	23.472         	1.642
MS.391         	23.425         	1.652
MS.392         	23.377         	1.642
MS.393         	23.332         	1.615
MS.394         	23.285         	1.587
MS.395         	23.237         	1.644
MS.396         	23.192         	1.559
MS.397         	23.145         	1.64
MS.398         	23.1           	1.559
MS.399         	23.052         	1.565
MS.400         	23.007         	1.64
MS.401         	22.962         	1.519
MS.402         	22.915         	1.543
MS.403         	22.87          	1.605
MS.404         	22.825         	1.559
MS.405         	22.778         	1.595
MS.406         	22.733         	1.547
MS.407         	22.688         	1.511
MS.408         	22.642         	1.519
MS.409         	22.597         	1.515
MS.410         	22.552         	1.529
MS.411         	22.507         	1.505
MS.412         	22.462         	1.48
MS.413         	22.417         	1.495
MS.414         	22.372         	1.48
MS.415         	22.327         	1.462
MS.416         	22.282         	1.452
MS.417         	22.237         	1.448
MS.418         	22.195         	1.452
MS.419         	22.15          	1.47
MS.420         	22.105         	1.42
MS.421         	22.06          	1.422
MS.422         	22.017         	1.438
MS.423         	21.972         	1.396
MS.424         	21.93          	1.434
MS.425         	21.885         	1.394
MS.426         	21.842         	1.368
MS.427         	21.797         	1.38
MS.428         	21.755         	1.337
MS.429         	21.71          	1.396
MS.430         	21.667         	1.422
MS.431         	21.625         	1.386
MS.432         	21.58          	1.374
MS.433         	21.538         	1.378
MS.434         	21.495         	1.352
MS.435         	21.452         	1.275
MS.436         	21.41          	1.263
MS.437         	21.368         	1.295
MS.438         	21.323         	1.317
MS.439         	21.28          	1.349
MS.440         	21.237         	1.271
MS.441         	21.195         	1.233
MS.442         	21.153         	1.259
MS.443         	21.112         	1.255
MS.444         	21.07          	1.249
MS.445         	21.028         	1.2
MS.446         	20.985         	1.208
MS.447         	20.942         	1.211
MS.448         	20.903         	1.211
MS.449         	20.86          	1.235
MS.450         	20.817         	1.204
MS.451         	20.778         	1.217
MS.452         	20.735         	1.168
MS.453         	20.692         	1.142
MS.454         	20.653         	1.182
MS.455         	20.61          	1.14
MS.456         	20.57          	1.176
MS.457         	20.528         	1.128
MS.458         	20.487         	1.098
MS.459         	20.448         	1.136
MS.460         	20.405         	1.098
MS.461         	20.365         	1.106
MS.462         	20.325         	1.104
MS.463         	20.282         	1.134
MS.464         	20.243         	1.057
MS.465         	20.202         	1.11
MS.466         	20.163         	1.096
MS.467         	20.122         	1.122
MS.468         	20.083         	1.088
MS.469         	20.042         	1.104
MS.470         	20.002         	1.059
MS.471         	19.962         	1.065
MS.472         	19.922         	1.084
MS.473         	19.882         	1.047
MS.474         	19.842         	1.041
MS.475         	19.802         	1.043
MS.476         	19.762         	0.993
MS.477         	19.722         	1.041
MS.478         	19.685         	1.025
MS.479         	19.645         	0.973
MS.480         	19.605         	0.983
MS.481         	19.567         	1.019
MS.482         	19.528         	0.969
MS.483         	19.487         	0.963
MS.484         	19.45          	0.965
MS.485         	19.41          	0.955
MS.486         	19.372         	0.935
MS.487         	19.333         	0.937
MS.488         	19.295         	0.943
MS.489         	19.255         	0.991
MS.490         	19.217         	0.912
MS.491         	19.18          	0.945
MS.492         	19.14          	0.922
MS.493         	19.102         	0.914
MS.494         	19.065         	0.906
MS.495         	19.025         	0.924
MS.496         	18.987         	0.941
MS.497         	18.95          	0.9
MS.498         	18.913         	0.9
MS.499         	18.875         	0.884
MS.500         	18.837         	0.918
MS.501         	18.8           	0.884
