File:              	C:\Qtrac\Data\Daniel M Sørensen\MScan multicentre study\Data from centres\Aarhus\Processed data\DMSB91212C.QZD
Name:              	DK.AAR.NC.5.2
Protocol:          	MSCAN-R2
Date:              	12/12/19
Start time:        	09:46:32
Age:               	57
Sex:               	f
Temperature:       	34,4
S/R sites:         	TA
NC/disease:        	Control
Operator:          	DS
Comments:
M-SCAN DATA (10.5-2.5m)
Scanpts: 10, 20, 780, 797
Stim. (mA)     	Amp. (mV)
MS.1           	26.5           	9.402
MS.2           	26.5           	9.406
MS.3           	26.5           	9.42
MS.4           	26.5           	9.37
MS.5           	26.5           	9.326
MS.6           	26.5           	9.334
MS.7           	26.5           	9.301
MS.8           	26.5           	9.309
MS.9           	26.5           	9.265
MS.10          	26.5           	9.273
MS.11          	26.5           	9.267
MS.12          	26.5           	9.229
MS.13          	26.5           	9.235
MS.14          	26.5           	9.221
MS.15          	26.5           	9.219
MS.16          	26.5           	9.193
MS.17          	26.5           	9.183
MS.18          	26.5           	9.199
MS.19          	26.5           	9.183
MS.20          	26.5           	9.164
MS.21          	26.5           	9.181
MS.22          	26.5           	9.162
MS.23          	26.5           	9.189
MS.24          	26.395         	9.174
MS.25          	26.342         	9.172
MS.26          	26.235         	9.094
MS.27          	26.185         	9.114
MS.28          	26.132         	9.098
MS.29          	26.08          	9.104
MS.30          	26.028         	9.118
MS.31          	25.975         	9.088
MS.32          	25.922         	9.076
MS.33          	25.872         	9.084
MS.34          	25.82          	9.086
MS.35          	25.767         	9.084
MS.36          	25.717         	9.068
MS.37          	25.665         	9.086
MS.38          	25.615         	9.08
MS.39          	25.562         	9.062
MS.40          	25.512         	9.054
MS.41          	25.46          	9.036
MS.42          	25.41          	9.04
MS.43          	25.36          	9.031
MS.44          	25.307         	9.013
MS.45          	25.257         	9.017
MS.46          	25.207         	9.015
MS.47          	25.157         	9.021
MS.48          	25.108         	9.019
MS.49          	25.057         	9.013
MS.50          	25.007         	9.011
MS.51          	24.957         	9.001
MS.52          	24.907         	9.005
MS.53          	24.858         	8.975
MS.54          	24.807         	8.983
MS.55          	24.757         	8.963
MS.56          	24.707         	8.959
MS.57          	24.66          	8.943
MS.58          	24.61          	8.957
MS.59          	24.56          	8.981
MS.60          	24.512         	8.943
MS.61          	24.462         	8.965
MS.62          	24.413         	8.915
MS.63          	24.365         	8.919
MS.64          	24.315         	8.848
MS.65          	24.267         	8.844
MS.66          	24.22          	8.886
MS.67          	24.17          	8.858
MS.68          	24.122         	8.83
MS.69          	24.075         	8.784
MS.70          	24.025         	8.903
MS.71          	23.977         	8.824
MS.72          	23.93          	8.866
MS.73          	23.882         	8.806
MS.74          	23.835         	8.844
MS.75          	23.788         	8.842
MS.76          	23.74          	8.792
MS.77          	23.692         	8.776
MS.78          	23.645         	8.826
MS.79          	23.597         	8.756
MS.80          	23.55          	8.774
MS.81          	23.502         	8.75
MS.82          	23.457         	8.75
MS.83          	23.41          	8.768
MS.84          	23.362         	8.727
MS.85          	23.315         	8.719
MS.86          	23.27          	8.725
MS.87          	23.222         	8.707
MS.88          	23.177         	8.731
MS.89          	23.13          	8.705
MS.90          	23.085         	8.721
MS.91          	23.038         	8.719
MS.92          	22.993         	8.689
MS.93          	22.945         	8.721
MS.94          	22.9           	8.623
MS.95          	22.855         	8.695
MS.96          	22.807         	8.657
MS.97          	22.762         	8.663
MS.98          	22.717         	8.59
MS.99          	22.672         	8.647
MS.100         	22.627         	8.635
MS.101         	22.582         	8.516
MS.102         	22.538         	8.623
MS.103         	22.493         	8.54
MS.104         	22.448         	8.548
MS.105         	22.403         	8.451
MS.106         	22.358         	8.427
MS.107         	22.312         	8.474
MS.108         	22.267         	8.514
MS.109         	22.222         	8.512
MS.110         	22.18          	8.459
MS.111         	22.135         	8.488
MS.112         	22.09          	8.451
MS.113         	22.045         	8.393
MS.114         	22.002         	8.445
MS.115         	21.958         	8.427
MS.116         	21.915         	8.457
MS.117         	21.87          	8.383
MS.118         	21.827         	8.316
MS.119         	21.782         	8.254
MS.120         	21.74          	8.296
MS.121         	21.698         	8.327
MS.122         	21.653         	8.238
MS.123         	21.61          	8.137
MS.124         	21.567         	8.22
MS.125         	21.522         	8.204
MS.126         	21.48          	8.167
MS.127         	21.438         	8.153
MS.128         	21.395         	8.143
MS.129         	21.352         	8.18
MS.130         	21.31          	8.115
MS.131         	21.267         	8.141
MS.132         	21.225         	8.137
MS.133         	21.182         	8.125
MS.134         	21.14          	8.053
MS.135         	21.097         	8.067
MS.136         	21.055         	7.928
MS.137         	21.012         	7.92
MS.138         	20.97          	7.944
MS.139         	20.93          	8.028
MS.140         	20.887         	7.966
MS.141         	20.845         	7.936
MS.142         	20.805         	7.96
MS.143         	20.762         	7.926
MS.144         	20.72          	7.837
MS.145         	20.68          	7.851
MS.146         	20.637         	7.92
MS.147         	20.597         	7.779
MS.148         	20.555         	7.831
MS.149         	20.515         	7.799
MS.150         	20.472         	7.74
MS.151         	20.432         	7.724
MS.152         	20.392         	7.797
MS.153         	20.35          	7.674
MS.154         	20.31          	7.803
MS.155         	20.27          	7.748
MS.156         	20.23          	7.805
MS.157         	20.19          	7.67
MS.158         	20.147         	7.561
MS.159         	20.108         	7.692
MS.160         	20.067         	7.676
MS.161         	20.028         	7.662
MS.162         	19.987         	7.694
MS.163         	19.948         	7.708
MS.164         	19.907         	7.537
MS.165         	19.868         	7.589
MS.166         	19.83          	7.64
MS.167         	19.79          	7.471
MS.168         	19.75          	7.559
MS.169         	19.71          	7.332
MS.170         	19.67          	7.561
MS.171         	19.632         	7.392
MS.172         	19.592         	7.342
MS.173         	19.552         	7.402
MS.174         	19.515         	7.38
MS.175         	19.475         	7.237
MS.176         	19.438         	7.207
MS.177         	19.397         	7.243
MS.178         	19.358         	7.221
MS.179         	19.32          	7.124
MS.180         	19.282         	7.027
MS.181         	19.243         	7.098
MS.182         	19.205         	7.138
MS.183         	19.165         	6.351
MS.184         	19.127         	7.066
MS.185         	19.09          	6.999
MS.186         	19.052         	7.044
MS.187         	19.012         	7.062
MS.188         	18.975         	7.029
MS.189         	18.938         	7.07
MS.190         	18.9           	6.894
MS.191         	18.862         	6.911
MS.192         	18.825         	6.766
MS.193         	18.788         	6.814
MS.194         	18.75          	6.713
MS.195         	18.712         	6.731
MS.196         	18.675         	6.711
MS.197         	18.637         	6.596
MS.198         	18.6           	6.629
MS.199         	18.562         	6.604
MS.200         	18.525         	6.522
MS.201         	18.487         	6.623
MS.202         	18.452         	6.459
MS.203         	18.415         	6.429
MS.204         	18.378         	6.433
MS.205         	18.34          	6.409
MS.206         	18.305         	6.286
MS.207         	18.267         	6.306
MS.208         	18.233         	6.467
MS.209         	18.195         	6.343
MS.210         	18.157         	6.423
MS.211         	18.122         	6.391
MS.212         	18.085         	6.218
MS.213         	18.05          	6.173
MS.214         	18.015         	6.2
MS.215         	17.977         	6.125
MS.216         	17.942         	5.853
MS.217         	17.905         	6.012
MS.218         	17.87          	5.805
MS.219         	17.835         	6.004
MS.220         	17.8           	5.988
MS.221         	17.762         	6.006
MS.222         	17.727         	5.924
MS.223         	17.692         	5.958
MS.224         	17.657         	5.942
MS.225         	17.622         	5.954
MS.226         	17.587         	5.849
MS.227         	17.552         	5.871
MS.228         	17.517         	5.611
MS.229         	17.483         	5.756
MS.230         	17.448         	5.799
MS.231         	17.413         	5.704
MS.232         	17.378         	5.785
MS.233         	17.342         	5.684
MS.234         	17.307         	5.525
MS.235         	17.272         	5.406
MS.236         	17.237         	5.213
MS.237         	17.205         	5.416
MS.238         	17.17          	5.138
MS.239         	17.135         	5.279
MS.240         	17.1           	5.257
MS.241         	17.067         	5.354
MS.242         	17.032         	5.231
MS.243         	17             	5.259
MS.244         	16.965         	5.122
MS.245         	16.93          	5.039
MS.246         	16.897         	5.106
MS.247         	16.862         	4.935
MS.248         	16.83          	4.973
MS.249         	16.795         	4.89
MS.250         	16.762         	4.894
MS.251         	16.73          	4.804
MS.252         	16.695         	4.842
MS.253         	16.663         	4.995
MS.254         	16.63          	4.757
MS.255         	16.595         	4.757
MS.256         	16.562         	4.556
MS.257         	16.53          	4.717
MS.258         	16.497         	4.761
MS.259         	16.462         	4.733
MS.260         	16.43          	4.981
MS.261         	16.397         	4.876
MS.262         	16.365         	4.639
MS.263         	16.333         	4.697
MS.264         	16.3           	4.558
MS.265         	16.267         	4.596
MS.266         	16.235         	4.639
MS.267         	16.202         	4.433
MS.268         	16.17          	4.548
MS.269         	16.137         	4.463
MS.270         	16.105         	4.538
MS.271         	16.073         	4.334
MS.272         	16.04          	4.447
MS.273         	16.01          	4.53
MS.274         	15.977         	4.268
MS.275         	15.945         	4.298
MS.276         	15.912         	4.397
MS.277         	15.882         	4.582
MS.278         	15.85          	4.284
MS.279         	15.818         	4.33
MS.280         	15.787         	4.399
MS.281         	15.755         	4.369
MS.282         	15.722         	4.181
MS.283         	15.693         	4.28
MS.284         	15.66          	4.03
MS.285         	15.63          	4.204
MS.286         	15.597         	4.169
MS.287         	15.568         	4.268
MS.288         	15.535         	4.25
MS.289         	15.505         	4.177
MS.290         	15.472         	4.137
MS.291         	15.443         	4.157
MS.292         	15.412         	4.147
MS.293         	15.38          	4.075
MS.294         	15.35          	3.994
MS.295         	15.32          	4.137
MS.296         	15.29          	4.147
MS.297         	15.257         	4.042
MS.298         	15.227         	3.928
MS.299         	15.197         	3.934
MS.300         	15.167         	3.775
MS.301         	15.137         	3.799
MS.302         	15.108         	3.992
MS.303         	15.077         	3.724
MS.304         	15.047         	3.603
MS.305         	15.017         	3.632
MS.306         	14.987         	3.503
MS.307         	14.957         	3.591
MS.308         	14.927         	3.436
MS.309         	14.898         	3.527
MS.310         	14.867         	3.505
MS.311         	14.837         	3.499
MS.312         	14.807         	3.593
MS.313         	14.777         	3.325
MS.314         	14.747         	3.523
MS.315         	14.72          	3.388
MS.316         	14.69          	3.44
MS.317         	14.66          	3.376
MS.318         	14.63          	3.356
MS.319         	14.602         	3.259
MS.320         	14.572         	3.313
MS.321         	14.542         	3.098
MS.322         	14.515         	3.072
MS.323         	14.485         	3.12
MS.324         	14.457         	2.904
MS.325         	14.427         	3.104
MS.326         	14.398         	3.104
MS.327         	14.37          	2.908
MS.328         	14.342         	2.876
MS.329         	14.312         	2.923
MS.330         	14.285         	2.832
MS.331         	14.255         	2.935
MS.332         	14.227         	2.929
MS.333         	14.197         	2.971
MS.334         	14.17          	2.81
MS.335         	14.142         	2.796
MS.336         	14.112         	2.822
MS.337         	14.085         	2.741
MS.338         	14.057         	2.693
MS.339         	14.03          	2.655
MS.340         	14             	2.709
MS.341         	13.972         	2.647
MS.342         	13.945         	2.645
MS.343         	13.917         	2.536
MS.344         	13.89          	2.52
MS.345         	13.862         	2.584
MS.346         	13.835         	2.477
MS.347         	13.807         	2.455
MS.348         	13.78          	2.544
MS.349         	13.752         	2.63
MS.350         	13.725         	2.526
MS.351         	13.697         	2.564
MS.352         	13.67          	2.451
MS.353         	13.642         	2.461
MS.354         	13.615         	2.429
MS.355         	13.587         	2.395
MS.356         	13.56          	2.395
MS.357         	13.532         	2.367
MS.358         	13.505         	2.274
MS.359         	13.48          	2.369
MS.360         	13.452         	2.292
MS.361         	13.425         	2.183
MS.362         	13.398         	2.171
MS.363         	13.372         	2.163
MS.364         	13.345         	2.163
MS.365         	13.318         	2.151
MS.366         	13.292         	2.155
MS.367         	13.265         	1.966
MS.368         	13.237         	2.006
MS.369         	13.212         	2.079
MS.370         	13.185         	1.976
MS.371         	13.16          	2.004
MS.372         	13.132         	1.994
MS.373         	13.108         	1.819
MS.374         	13.08          	1.728
MS.375         	13.055         	1.924
MS.376         	13.028         	1.839
MS.377         	13.002         	1.684
MS.378         	12.977         	1.776
MS.379         	12.95          	1.708
MS.380         	12.925         	1.76
MS.381         	12.9           	1.629
MS.382         	12.872         	1.589
MS.383         	12.847         	1.569
MS.384         	12.822         	1.547
MS.385         	12.795         	1.543
MS.386         	12.77          	1.472
MS.387         	12.745         	1.551
MS.388         	12.72          	1.422
MS.389         	12.695         	1.539
MS.390         	12.67          	1.529
MS.391         	12.642         	1.543
MS.392         	12.617         	1.583
MS.393         	12.592         	1.382
MS.394         	12.568         	1.484
MS.395         	12.542         	1.466
MS.396         	12.517         	1.297
MS.397         	12.492         	1.347
MS.398         	12.467         	1.48
MS.399         	12.443         	1.345
MS.400         	12.417         	1.424
MS.401         	12.392         	1.311
MS.402         	12.367         	1.253
MS.403         	12.342         	1.329
MS.404         	12.32          	1.14
MS.405         	12.295         	1.299
MS.406         	12.27          	1.315
MS.407         	12.245         	1.289
MS.408         	12.22          	1.182
MS.409         	12.197         	1.1
MS.410         	12.172         	1.12
MS.411         	12.148         	1.078
MS.412         	12.122         	1.239
MS.413         	12.1           	1.164
MS.414         	12.075         	1.001
MS.415         	12.05          	0.975
MS.416         	12.028         	0.993
MS.417         	12.002         	0.971
MS.418         	11.98          	1.08
MS.419         	11.955         	1.009
MS.420         	11.93          	0.822
MS.421         	11.907         	0.927
MS.422         	11.882         	0.898
MS.423         	11.86          	0.929
MS.424         	11.835         	0.929
MS.425         	11.812         	0.967
MS.426         	11.787         	0.779
MS.427         	11.765         	0.836
MS.428         	11.742         	0.806
MS.429         	11.717         	0.84
MS.430         	11.695         	0.872
MS.431         	11.672         	0.812
MS.432         	11.648         	0.735
MS.433         	11.625         	0.761
MS.434         	11.602         	0.707
MS.435         	11.577         	0.854
MS.436         	11.555         	0.725
MS.437         	11.532         	0.705
MS.438         	11.51          	0.697
MS.439         	11.485         	0.649
MS.440         	11.462         	0.636
MS.441         	11.44          	0.669
MS.442         	11.417         	0.618
MS.443         	11.395         	0.614
MS.444         	11.372         	0.542
MS.445         	11.35          	0.691
MS.446         	11.327         	0.564
MS.447         	11.305         	0.562
MS.448         	11.28          	0.538
MS.449         	11.257         	0.592
MS.450         	11.235         	0.578
MS.451         	11.215         	0.53
MS.452         	11.193         	0.467
MS.453         	11.17          	0.459
MS.454         	11.148         	0.447
MS.455         	11.125         	0.481
MS.456         	11.102         	0.538
MS.457         	11.08          	0.465
MS.458         	11.057         	0.465
MS.459         	11.035         	0.514
MS.460         	11.012         	0.463
MS.461         	10.992         	0.397
MS.462         	10.97          	0.425
MS.463         	10.948         	0.393
MS.464         	10.925         	0.365
MS.465         	10.905         	0.467
MS.466         	10.882         	0.354
MS.467         	10.86          	0.318
MS.468         	10.84          	0.348
MS.469         	10.818         	0.242
MS.470         	10.795         	0.302
MS.471         	10.775         	0.373
MS.472         	10.752         	0.292
MS.473         	10.73          	0.28
MS.474         	10.71          	0.27
MS.475         	10.688         	0.26
MS.476         	10.667         	0.232
MS.477         	10.645         	0.254
MS.478         	10.625         	0.218
MS.479         	10.602         	0.171
MS.480         	10.582         	0.254
MS.481         	10.56          	0.179
MS.482         	10.54          	0.155
MS.483         	10.517         	0.199
MS.484         	10.497         	0.201
MS.485         	10.477         	0.179
MS.486         	10.455         	0.175
MS.487         	10.435         	0.199
MS.488         	10.415         	0.197
MS.489         	10.392         	0.224
MS.490         	10.372         	0.195
MS.491         	10.352         	0.145
MS.492         	10.33          	0.127
MS.493         	10.31          	0.141
MS.494         	10.29          	0.149
MS.495         	10.27          	0.145
MS.496         	10.247         	0.145
MS.497         	10.227         	0.163
MS.498         	10.207         	0.125
MS.499         	10.188         	0.147
MS.500         	10.167         	0.133
MS.501         	10.148         	0.145
