File:              	C:\Qtrac\Data\Daniel M Sørensen\MScan multicentre study\Data from centres\Aarhus\Processed data\DMSB91205C.QZD
Name:              	DK.AAR.NC.6.2
Protocol:          	MSCAN-R2
Date:              	5/12/19
Start time:        	11:25:19
Age:               	66
Sex:               	f
Temperature:       	35,1
S/R sites:         	TA
NC/disease:        	Control
Operator:          	DS
Comments:
M-SCAN DATA (7.2-2.4m)
Scanpts: 3, 12, 498, 519
Stim. (mA)     	Amp. (mV)
MS.1           	37.5           	5.714
MS.2           	37.5           	5.726
MS.3           	37.5           	5.722
MS.4           	37.5           	5.706
MS.5           	37.5           	5.688
MS.6           	37.5           	5.69
MS.7           	37.5           	5.696
MS.8           	37.5           	5.702
MS.9           	37.5           	5.7
MS.10          	37.5           	5.694
MS.11          	37.5           	5.684
MS.12          	37.5           	5.688
MS.13          	37.5           	5.712
MS.14          	37.5           	5.686
MS.15          	37.5           	5.684
MS.16          	37.5           	5.692
MS.17          	37.5           	5.702
MS.18          	37.5           	5.69
MS.19          	37.5           	5.7
MS.20          	37.5           	5.694
MS.21          	37.5           	5.688
MS.22          	37.5           	5.68
MS.23          	37.5           	5.684
MS.24          	37.35          	5.682
MS.25          	37.2           	5.692
MS.26          	37.127         	5.682
MS.27          	37.052         	5.686
MS.28          	36.978         	5.672
MS.29          	36.905         	5.684
MS.30          	36.83          	5.678
MS.31          	36.757         	5.68
MS.32          	36.685         	5.674
MS.33          	36.61          	5.674
MS.34          	36.537         	5.662
MS.35          	36.465         	5.674
MS.36          	36.392         	5.652
MS.37          	36.32          	5.67
MS.38          	36.247         	5.678
MS.39          	36.175         	5.672
MS.40          	36.103         	5.672
MS.41          	36.03          	5.654
MS.42          	35.958         	5.656
MS.43          	35.885         	5.686
MS.44          	35.815         	5.662
MS.45          	35.743         	5.628
MS.46          	35.67          	5.664
MS.47          	35.6           	5.626
MS.48          	35.528         	5.67
MS.49          	35.458         	5.664
MS.50          	35.388         	5.668
MS.51          	35.315         	5.66
MS.52          	35.245         	5.678
MS.53          	35.175         	5.656
MS.54          	35.105         	5.615
MS.55          	35.035         	5.66
MS.56          	34.965         	5.654
MS.57          	34.895         	5.638
MS.58          	34.825         	5.615
MS.59          	34.755         	5.583
MS.60          	34.685         	5.597
MS.61          	34.618         	5.603
MS.62          	34.548         	5.599
MS.63          	34.478         	5.601
MS.64          	34.41          	5.581
MS.65          	34.34          	5.593
MS.66          	34.272         	5.591
MS.67          	34.205         	5.595
MS.68          	34.135         	5.579
MS.69          	34.068         	5.581
MS.70          	34             	5.591
MS.71          	33.93          	5.579
MS.72          	33.862         	5.569
MS.73          	33.795         	5.573
MS.74          	33.728         	5.587
MS.75          	33.66          	5.601
MS.76          	33.592         	5.575
MS.77          	33.528         	5.577
MS.78          	33.46          	5.595
MS.79          	33.392         	5.579
MS.80          	33.325         	5.581
MS.81          	33.26          	5.545
MS.82          	33.193         	5.569
MS.83          	33.127         	5.563
MS.84          	33.06          	5.543
MS.85          	32.995         	5.573
MS.86          	32.927         	5.563
MS.87          	32.862         	5.569
MS.88          	32.798         	5.557
MS.89          	32.732         	5.585
MS.90          	32.665         	5.547
MS.91          	32.6           	5.529
MS.92          	32.535         	5.553
MS.93          	32.47          	5.563
MS.94          	32.405         	5.523
MS.95          	32.34          	5.519
MS.96          	32.278         	5.523
MS.97          	32.212         	5.523
MS.98          	32.147         	5.521
MS.99          	32.083         	5.519
MS.100         	32.02          	5.505
MS.101         	31.955         	5.511
MS.102         	31.892         	5.489
MS.103         	31.827         	5.479
MS.104         	31.765         	5.489
MS.105         	31.7           	5.458
MS.106         	31.637         	5.432
MS.107         	31.575         	5.428
MS.108         	31.51          	5.446
MS.109         	31.448         	5.45
MS.110         	31.385         	5.412
MS.111         	31.323         	5.422
MS.112         	31.26          	5.406
MS.113         	31.198         	5.424
MS.114         	31.135         	5.434
MS.115         	31.073         	5.374
MS.116         	31.01          	5.364
MS.117         	30.95          	5.404
MS.118         	30.887         	5.368
MS.119         	30.825         	5.346
MS.120         	30.762         	5.336
MS.121         	30.702         	5.368
MS.122         	30.64          	5.352
MS.123         	30.58          	5.356
MS.124         	30.517         	5.344
MS.125         	30.457         	5.329
MS.126         	30.397         	5.331
MS.127         	30.335         	5.321
MS.128         	30.275         	5.333
MS.129         	30.215         	5.305
MS.130         	30.155         	5.311
MS.131         	30.095         	5.299
MS.132         	30.035         	5.275
MS.133         	29.975         	5.277
MS.134         	29.915         	5.263
MS.135         	29.855         	5.273
MS.136         	29.795         	5.257
MS.137         	29.735         	5.265
MS.138         	29.675         	5.241
MS.139         	29.617         	5.245
MS.140         	29.557         	5.245
MS.141         	29.497         	5.241
MS.142         	29.44          	5.235
MS.143         	29.38          	5.219
MS.144         	29.323         	5.213
MS.145         	29.262         	5.225
MS.146         	29.205         	5.201
MS.147         	29.147         	5.209
MS.148         	29.087         	5.211
MS.149         	29.03          	5.195
MS.150         	28.972         	5.114
MS.151         	28.915         	5.17
MS.152         	28.858         	5.132
MS.153         	28.8           	5.122
MS.154         	28.743         	5.114
MS.155         	28.685         	5.108
MS.156         	28.627         	5.06
MS.157         	28.57          	5.056
MS.158         	28.512         	5.07
MS.159         	28.455         	4.961
MS.160         	28.397         	4.951
MS.161         	28.342         	5.033
MS.162         	28.285         	4.961
MS.163         	28.227         	4.919
MS.164         	28.172         	4.949
MS.165         	28.115         	4.965
MS.166         	28.06          	4.872
MS.167         	28.002         	4.87
MS.168         	27.948         	4.906
MS.169         	27.892         	4.814
MS.170         	27.835         	4.818
MS.171         	27.78          	4.814
MS.172         	27.725         	4.806
MS.173         	27.67          	4.778
MS.174         	27.615         	4.786
MS.175         	27.56          	4.792
MS.176         	27.505         	4.717
MS.177         	27.45          	4.743
MS.178         	27.395         	4.745
MS.179         	27.34          	4.711
MS.180         	27.285         	4.721
MS.181         	27.23          	4.713
MS.182         	27.175         	4.725
MS.183         	27.122         	4.697
MS.184         	27.067         	4.675
MS.185         	27.012         	4.703
MS.186         	26.96          	4.691
MS.187         	26.905         	4.635
MS.188         	26.852         	4.641
MS.189         	26.797         	4.6
MS.190         	26.745         	4.614
MS.191         	26.692         	4.568
MS.192         	26.637         	4.574
MS.193         	26.585         	4.548
MS.194         	26.532         	4.586
MS.195         	26.477         	4.558
MS.196         	26.425         	4.498
MS.197         	26.372         	4.514
MS.198         	26.32          	4.512
MS.199         	26.267         	4.433
MS.200         	26.215         	4.477
MS.201         	26.162         	4.443
MS.202         	26.11          	4.445
MS.203         	26.057         	4.391
MS.204         	26.005         	4.465
MS.205         	25.955         	4.389
MS.206         	25.903         	4.371
MS.207         	25.85          	4.355
MS.208         	25.8           	4.369
MS.209         	25.747         	4.318
MS.210         	25.695         	4.339
MS.211         	25.645         	4.288
MS.212         	25.592         	4.252
MS.213         	25.542         	4.226
MS.214         	25.493         	4.33
MS.215         	25.44          	4.208
MS.216         	25.39          	4.246
MS.217         	25.34          	4.244
MS.218         	25.288         	4.185
MS.219         	25.237         	4.161
MS.220         	25.188         	4.137
MS.221         	25.137         	4.151
MS.222         	25.087         	4.125
MS.223         	25.038         	4.014
MS.224         	24.987         	4.018
MS.225         	24.938         	4.067
MS.226         	24.887         	4.03
MS.227         	24.837         	4.03
MS.228         	24.788         	3.948
MS.229         	24.737         	3.964
MS.230         	24.688         	3.92
MS.231         	24.64          	3.96
MS.232         	24.59          	3.833
MS.233         	24.54          	3.843
MS.234         	24.493         	3.841
MS.235         	24.442         	3.827
MS.236         	24.395         	3.837
MS.237         	24.345         	3.837
MS.238         	24.297         	3.76
MS.239         	24.247         	3.71
MS.240         	24.2           	3.648
MS.241         	24.153         	3.708
MS.242         	24.102         	3.672
MS.243         	24.055         	3.601
MS.244         	24.007         	3.654
MS.245         	23.96          	3.499
MS.246         	23.91          	3.587
MS.247         	23.862         	3.521
MS.248         	23.815         	3.527
MS.249         	23.767         	3.515
MS.250         	23.72          	3.436
MS.251         	23.672         	3.493
MS.252         	23.625         	3.438
MS.253         	23.577         	3.352
MS.254         	23.532         	3.297
MS.255         	23.485         	3.39
MS.256         	23.438         	3.35
MS.257         	23.39          	3.319
MS.258         	23.345         	3.344
MS.259         	23.297         	3.221
MS.260         	23.25          	3.194
MS.261         	23.205         	3.156
MS.262         	23.157         	3.152
MS.263         	23.112         	3.19
MS.264         	23.065         	3.104
MS.265         	23.02          	3.166
MS.266         	22.972         	3.132
MS.267         	22.927         	3.116
MS.268         	22.882         	3.06
MS.269         	22.835         	2.993
MS.270         	22.79          	2.981
MS.271         	22.745         	3.019
MS.272         	22.7           	2.939
MS.273         	22.655         	2.925
MS.274         	22.608         	2.818
MS.275         	22.562         	2.79
MS.276         	22.517         	2.769
MS.277         	22.472         	2.719
MS.278         	22.427         	2.753
MS.279         	22.385         	2.798
MS.280         	22.34          	2.641
MS.281         	22.295         	2.723
MS.282         	22.25          	2.697
MS.283         	22.205         	2.419
MS.284         	22.16          	2.459
MS.285         	22.118         	2.552
MS.286         	22.073         	2.504
MS.287         	22.028         	2.324
MS.288         	21.985         	2.393
MS.289         	21.94          	2.316
MS.290         	21.897         	2.383
MS.291         	21.852         	2.33
MS.292         	21.81          	2.099
MS.293         	21.765         	2.23
MS.294         	21.722         	2.214
MS.295         	21.68          	2.208
MS.296         	21.635         	2.242
MS.297         	21.592         	2.141
MS.298         	21.55          	2.093
MS.299         	21.505         	2.04
MS.300         	21.462         	2.042
MS.301         	21.42          	1.982
MS.302         	21.377         	2.048
MS.303         	21.335         	1.915
MS.304         	21.292         	1.926
MS.305         	21.25          	1.938
MS.306         	21.208         	1.742
MS.307         	21.165         	1.903
MS.308         	21.122         	1.785
MS.309         	21.08          	1.71
MS.310         	21.038         	1.762
MS.311         	20.995         	1.758
MS.312         	20.955         	1.694
MS.313         	20.913         	1.668
MS.314         	20.87          	1.672
MS.315         	20.83          	1.648
MS.316         	20.788         	1.648
MS.317         	20.745         	1.615
MS.318         	20.705         	1.503
MS.319         	20.663         	1.648
MS.320         	20.622         	1.515
MS.321         	20.58          	1.527
MS.322         	20.54          	1.418
MS.323         	20.497         	1.593
MS.324         	20.458         	1.474
MS.325         	20.417         	1.484
MS.326         	20.375         	1.432
MS.327         	20.335         	1.416
MS.328         	20.295         	1.341
MS.329         	20.252         	1.37
MS.330         	20.212         	1.339
MS.331         	20.172         	1.323
MS.332         	20.132         	1.4
MS.333         	20.092         	1.303
MS.334         	20.052         	1.265
MS.335         	20.012         	1.295
MS.336         	19.972         	1.223
MS.337         	19.932         	1.206
MS.338         	19.892         	1.221
MS.339         	19.852         	1.225
MS.340         	19.812         	1.213
MS.341         	19.772         	1.2
MS.342         	19.735         	1.172
MS.343         	19.695         	1.162
MS.344         	19.655         	1.192
MS.345         	19.615         	1.156
MS.346         	19.577         	1.057
MS.347         	19.538         	0.991
MS.348         	19.497         	1.072
MS.349         	19.46          	1.14
MS.350         	19.42          	1.013
MS.351         	19.382         	1.072
MS.352         	19.342         	1.047
MS.353         	19.305         	0.92
MS.354         	19.265         	0.844
MS.355         	19.227         	0.894
MS.356         	19.19          	0.858
MS.357         	19.15          	0.798
MS.358         	19.112         	0.79
MS.359         	19.075         	0.844
MS.360         	19.035         	0.951
MS.361         	18.997         	0.794
MS.362         	18.96          	0.844
MS.363         	18.922         	0.665
MS.364         	18.885         	0.675
MS.365         	18.847         	0.634
MS.366         	18.81          	0.616
MS.367         	18.772         	0.612
MS.368         	18.735         	0.59
MS.369         	18.698         	0.564
MS.370         	18.66          	0.536
MS.371         	18.622         	0.55
MS.372         	18.585         	0.544
MS.373         	18.547         	0.534
MS.374         	18.51          	0.512
MS.375         	18.472         	0.433
MS.376         	18.438         	0.508
MS.377         	18.4           	0.459
MS.378         	18.362         	0.425
MS.379         	18.327         	0.381
MS.380         	18.29          	0.393
MS.381         	18.253         	0.342
MS.382         	18.217         	0.348
MS.383         	18.18          	0.278
MS.384         	18.145         	0.302
MS.385         	18.108         	0.211
MS.386         	18.073         	0.294
MS.387         	18.035         	0.228
MS.388         	18             	0.236
MS.389         	17.962         	0.228
MS.390         	17.927         	0.185
MS.391         	17.892         	0.193
MS.392         	17.855         	0.185
MS.393         	17.82          	0.141
MS.394         	17.785         	0.171
MS.395         	17.75          	0.143
MS.396         	17.712         	0.169
MS.397         	17.677         	0.111
MS.398         	17.642         	0.111
MS.399         	17.608         	0.139
MS.400         	17.573         	0.155
MS.401         	17.538         	0.171
MS.402         	17.503         	0.145
MS.403         	17.467         	0.123
MS.404         	17.432         	0.107
MS.405         	17.397         	0.085
MS.406         	17.362         	0.121
MS.407         	17.327         	0.119
MS.408         	17.292         	0.056
MS.409         	17.26          	0.073
MS.410         	17.225         	0.066
MS.411         	17.19          	0.091
MS.412         	17.155         	0.058
MS.413         	17.122         	0.004
MS.414         	17.087         	0.014
MS.415         	17.052         	0.068
MS.416         	17.02          	0.05
MS.417         	16.985         	0.024
MS.418         	16.95          	0.028
MS.419         	16.917         	0.032
MS.420         	16.882         	0.024
MS.421         	16.85          	0.002
MS.422         	16.815         	0.014
MS.423         	16.782         	-0.018
MS.424         	16.75          	-0.006
MS.425         	16.715         	-0.02
MS.426         	16.682         	-0.016
MS.427         	16.65          	-0.022
MS.428         	16.615         	-0.026
MS.429         	16.583         	-0.02
MS.430         	16.55          	-0.026
MS.431         	16.515         	-0.024
MS.432         	16.483         	-0.028
MS.433         	16.45          	-0.026
MS.434         	16.417         	-0.018
MS.435         	16.385         	-0.028
MS.436         	16.352         	-0.02
MS.437         	16.32          	-0.022
MS.438         	16.288         	-0.018
MS.439         	16.255         	-0.024
MS.440         	16.222         	-0.014
MS.441         	16.19          	-0.03
MS.442         	16.157         	-0.024
MS.443         	16.125         	-0.022
MS.444         	16.092         	-0.018
MS.445         	16.06          	-0.022
MS.446         	16.028         	-0.024
MS.447         	15.995         	-0.022
MS.448         	15.965         	-0.026
MS.449         	15.932         	-0.024
MS.450         	15.9           	-0.018
MS.451         	15.867         	-0.02
MS.452         	15.837         	-0.03
MS.453         	15.805         	-0.026
MS.454         	15.773         	-0.024
MS.455         	15.742         	-0.02
MS.456         	15.71          	-0.03
MS.457         	15.68          	-0.02
MS.458         	15.648         	-0.018
MS.459         	15.617         	-0.028
MS.460         	15.585         	-0.022
MS.461         	15.555         	-0.02
MS.462         	15.523         	-0.026
MS.463         	15.492         	-0.02
MS.464         	15.46          	-0.016
MS.465         	15.43          	-0.03
MS.466         	15.4           	-0.024
MS.467         	15.37          	-0.026
MS.468         	15.337         	-0.02
MS.469         	15.307         	-0.026
MS.470         	15.277         	-0.028
MS.471         	15.247         	-0.02
MS.472         	15.215         	-0.026
MS.473         	15.185         	-0.03
MS.474         	15.155         	-0.024
MS.475         	15.125         	-0.024
MS.476         	15.095         	-0.022
MS.477         	15.065         	-0.022
MS.478         	15.035         	-0.028
MS.479         	15.005         	-0.022
MS.480         	14.975         	-0.018
MS.481         	14.945         	-0.028
MS.482         	14.915         	-0.02
MS.483         	14.885         	-0.026
MS.484         	14.855         	-0.028
MS.485         	14.825         	-0.024
MS.486         	14.795         	-0.016
MS.487         	14.765         	-0.024
MS.488         	14.737         	-0.028
MS.489         	14.707         	-0.02
MS.490         	14.677         	-0.028
MS.491         	14.648         	-0.016
MS.492         	14.62          	-0.028
MS.493         	14.59          	-0.026
MS.494         	14.56          	-0.03
MS.495         	14.532         	-0.028
MS.496         	14.502         	-0.03
MS.497         	14.475         	-0.032
MS.498         	14.445         	-0.022
MS.499         	14.415         	-0.03
