File:              	C:\Qtrac\Data\Daniel M Sørensen\MScan multicentre study\Data from centres\Aarhus\Processed data\DMSC00930C.QZD
Name:              	DK.AAR.NC.10.2
Protocol:          	MSCAN-R2
Date:              	30/9/20
Start time:        	15:24:04
Age:               	70
Sex:               	m
Temperature:       	34,5
S/R sites:         	TA
NC/disease:        	NC
Operator:          	DS
Comments:
M-SCAN DATA (2.3-0.0m)
Scanpts: 7, 18, 721, 749
Stim. (mA)     	Amp. (mV)
MS.1           	35.5           	1.777
MS.2           	35.5           	1.773
MS.3           	35.357         	1.785
MS.4           	35.287         	1.787
MS.5           	35.217         	1.777
MS.6           	35.147         	1.762
MS.7           	35.077         	1.783
MS.8           	35.007         	1.767
MS.9           	34.938         	1.779
MS.10          	34.868         	1.779
MS.11          	34.798         	1.758
MS.12          	34.728         	1.753
MS.13          	34.657         	1.763
MS.14          	34.59          	1.767
MS.15          	34.52          	1.76
MS.16          	34.45          	1.755
MS.17          	34.382         	1.777
MS.18          	34.312         	1.763
MS.19          	34.245         	1.764
MS.20          	34.175         	1.769
MS.21          	34.107         	1.771
MS.22          	34.04          	1.778
MS.23          	33.972         	1.765
MS.24          	33.905         	1.761
MS.25          	33.835         	1.76
MS.26          	33.767         	1.766
MS.27          	33.7           	1.757
MS.28          	33.632         	1.765
MS.29          	33.568         	1.757
MS.30          	33.5           	1.753
MS.31          	33.432         	1.766
MS.32          	33.365         	1.761
MS.33          	33.3           	1.757
MS.34          	33.232         	1.759
MS.35          	33.165         	1.737
MS.36          	33.1           	1.737
MS.37          	33.032         	1.76
MS.38          	32.967         	1.755
MS.39          	32.903         	1.747
MS.40          	32.835         	1.76
MS.41          	32.77          	1.744
MS.42          	32.705         	1.74
MS.43          	32.64          	1.727
MS.44          	32.575         	1.744
MS.45          	32.51          	1.733
MS.46          	32.445         	1.736
MS.47          	32.38          	1.729
MS.48          	32.315         	1.733
MS.49          	32.25          	1.732
MS.50          	32.185         	1.73
MS.51          	32.122         	1.74
MS.52          	32.057         	1.742
MS.53          	31.992         	1.736
MS.54          	31.93          	1.738
MS.55          	31.865         	1.754
MS.56          	31.802         	1.724
MS.57          	31.737         	1.735
MS.58          	31.675         	1.736
MS.59          	31.612         	1.723
MS.60          	31.547         	1.752
MS.61          	31.485         	1.74
MS.62          	31.422         	1.741
MS.63          	31.36          	1.724
MS.64          	31.297         	1.741
MS.65          	31.235         	1.744
MS.66          	31.172         	1.725
MS.67          	31.11          	1.734
MS.68          	31.047         	1.732
MS.69          	30.985         	1.736
MS.70          	30.925         	1.715
MS.71          	30.862         	1.711
MS.72          	30.8           	1.725
MS.73          	30.74          	1.722
MS.74          	30.677         	1.691
MS.75          	30.615         	1.744
MS.76          	30.555         	1.721
MS.77          	30.495         	1.708
MS.78          	30.432         	1.683
MS.79          	30.372         	1.689
MS.80          	30.312         	1.679
MS.81          	30.25          	1.689
MS.82          	30.19          	1.706
MS.83          	30.13          	1.697
MS.84          	30.07          	1.718
MS.85          	30.01          	1.68
MS.86          	29.95          	1.708
MS.87          	29.89          	1.711
MS.88          	29.83          	1.686
MS.89          	29.77          	1.717
MS.90          	29.712         	1.68
MS.91          	29.653         	1.67
MS.92          	29.592         	1.691
MS.93          	29.532         	1.686
MS.94          	29.475         	1.691
MS.95          	29.415         	1.668
MS.96          	29.358         	1.686
MS.97          	29.297         	1.682
MS.98          	29.24          	1.685
MS.99          	29.182         	1.714
MS.100         	29.122         	1.672
MS.101         	29.065         	1.685
MS.102         	29.007         	1.669
MS.103         	28.95          	1.657
MS.104         	28.89          	1.671
MS.105         	28.832         	1.666
MS.106         	28.775         	1.663
MS.107         	28.717         	1.674
MS.108         	28.66          	1.654
MS.109         	28.602         	1.657
MS.110         	28.547         	1.674
MS.111         	28.49          	1.662
MS.112         	28.432         	1.66
MS.113         	28.375         	1.638
MS.114         	28.32          	1.653
MS.115         	28.262         	1.644
MS.116         	28.205         	1.675
MS.117         	28.15          	1.658
MS.118         	28.092         	1.656
MS.119         	28.037         	1.669
MS.120         	27.98          	1.655
MS.121         	27.925         	1.661
MS.122         	27.87          	1.616
MS.123         	27.812         	1.65
MS.124         	27.757         	1.629
MS.125         	27.702         	1.647
MS.126         	27.647         	1.66
MS.127         	27.592         	1.63
MS.128         	27.537         	1.639
MS.129         	27.483         	1.619
MS.130         	27.427         	1.571
MS.131         	27.372         	1.611
MS.132         	27.317         	1.624
MS.133         	27.262         	1.592
MS.134         	27.207         	1.6
MS.135         	27.155         	1.605
MS.136         	27.1           	1.605
MS.137         	27.045         	1.572
MS.138         	26.993         	1.597
MS.139         	26.938         	1.617
MS.140         	26.885         	1.566
MS.141         	26.83          	1.574
MS.142         	26.778         	1.599
MS.143         	26.722         	1.555
MS.144         	26.67          	1.53
MS.145         	26.618         	1.577
MS.146         	26.562         	1.555
MS.147         	26.51          	1.588
MS.148         	26.457         	1.505
MS.149         	26.405         	1.536
MS.150         	26.352         	1.574
MS.151         	26.3           	1.516
MS.152         	26.247         	1.526
MS.153         	26.195         	1.526
MS.154         	26.142         	1.526
MS.155         	26.09          	1.496
MS.156         	26.037         	1.554
MS.157         	25.985         	1.508
MS.158         	25.932         	1.544
MS.159         	25.882         	1.512
MS.160         	25.83          	1.51
MS.161         	25.778         	1.531
MS.162         	25.727         	1.519
MS.163         	25.675         	1.478
MS.164         	25.625         	1.505
MS.165         	25.573         	1.506
MS.166         	25.522         	1.485
MS.167         	25.47          	1.485
MS.168         	25.42          	1.477
MS.169         	25.37          	1.497
MS.170         	25.317         	1.478
MS.171         	25.267         	1.508
MS.172         	25.217         	1.462
MS.173         	25.167         	1.449
MS.174         	25.118         	1.483
MS.175         	25.067         	1.49
MS.176         	25.017         	1.448
MS.177         	24.967         	1.468
MS.178         	24.917         	1.464
MS.179         	24.868         	1.448
MS.180         	24.817         	1.473
MS.181         	24.767         	1.443
MS.182         	24.717         	1.473
MS.183         	24.667         	1.44
MS.184         	24.62          	1.44
MS.185         	24.57          	1.435
MS.186         	24.52          	1.44
MS.187         	24.472         	1.402
MS.188         	24.422         	1.415
MS.189         	24.375         	1.427
MS.190         	24.325         	1.396
MS.191         	24.278         	1.403
MS.192         	24.227         	1.415
MS.193         	24.18          	1.43
MS.194         	24.132         	1.435
MS.195         	24.082         	1.405
MS.196         	24.035         	1.394
MS.197         	23.987         	1.406
MS.198         	23.94          	1.369
MS.199         	23.892         	1.374
MS.200         	23.845         	1.39
MS.201         	23.797         	1.393
MS.202         	23.747         	1.375
MS.203         	23.702         	1.367
MS.204         	23.655         	1.387
MS.205         	23.608         	1.375
MS.206         	23.56          	1.418
MS.207         	23.512         	1.373
MS.208         	23.465         	1.36
MS.209         	23.417         	1.332
MS.210         	23.372         	1.327
MS.211         	23.325         	1.359
MS.212         	23.278         	1.36
MS.213         	23.233         	1.353
MS.214         	23.185         	1.348
MS.215         	23.14          	1.343
MS.216         	23.092         	1.337
MS.217         	23.047         	1.3
MS.218         	23             	1.304
MS.219         	22.955         	1.342
MS.220         	22.91          	1.355
MS.221         	22.862         	1.348
MS.222         	22.817         	1.342
MS.223         	22.772         	1.371
MS.224         	22.727         	1.285
MS.225         	22.68          	1.3
MS.226         	22.635         	1.343
MS.227         	22.59          	1.344
MS.228         	22.545         	1.283
MS.229         	22.5           	1.334
MS.230         	22.455         	1.332
MS.231         	22.41          	1.34
MS.232         	22.365         	1.297
MS.233         	22.32          	1.293
MS.234         	22.278         	1.317
MS.235         	22.233         	1.279
MS.236         	22.188         	1.359
MS.237         	22.142         	1.281
MS.238         	22.1           	1.304
MS.239         	22.055         	1.289
MS.240         	22.01          	1.296
MS.241         	21.967         	1.274
MS.242         	21.922         	1.282
MS.243         	21.88          	1.281
MS.244         	21.835         	1.283
MS.245         	21.792         	1.233
MS.246         	21.747         	1.276
MS.247         	21.705         	1.296
MS.248         	21.663         	1.285
MS.249         	21.618         	1.275
MS.250         	21.575         	1.296
MS.251         	21.532         	1.204
MS.252         	21.487         	1.246
MS.253         	21.445         	1.234
MS.254         	21.403         	1.241
MS.255         	21.36          	1.223
MS.256         	21.317         	1.218
MS.257         	21.275         	1.251
MS.258         	21.233         	1.231
MS.259         	21.19          	1.213
MS.260         	21.147         	1.225
MS.261         	21.105         	1.228
MS.262         	21.062         	1.201
MS.263         	21.02          	1.185
MS.264         	20.98          	1.212
MS.265         	20.938         	1.191
MS.266         	20.895         	1.192
MS.267         	20.852         	1.197
MS.268         	20.812         	1.211
MS.269         	20.77          	1.191
MS.270         	20.73          	1.18
MS.271         	20.688         	1.202
MS.272         	20.645         	1.149
MS.273         	20.605         	1.187
MS.274         	20.562         	1.154
MS.275         	20.522         	1.181
MS.276         	20.483         	1.085
MS.277         	20.44          	1.129
MS.278         	20.4           	1.133
MS.279         	20.36          	1.08
MS.280         	20.317         	1.144
MS.281         	20.278         	1.103
MS.282         	20.237         	1.078
MS.283         	20.198         	1.048
MS.284         	20.157         	1.12
MS.285         	20.118         	1.08
MS.286         	20.075         	1.084
MS.287         	20.035         	1.061
MS.288         	19.995         	1.01
MS.289         	19.955         	1.038
MS.290         	19.915         	1.046
MS.291         	19.877         	0.99
MS.292         	19.837         	1.016
MS.293         	19.797         	1.016
MS.294         	19.757         	1.047
MS.295         	19.717         	0.961
MS.296         	19.677         	1.003
MS.297         	19.64          	1.008
MS.298         	19.6           	1.05
MS.299         	19.56          	0.972
MS.300         	19.522         	1.006
MS.301         	19.483         	0.979
MS.302         	19.445         	1.021
MS.303         	19.405         	0.989
MS.304         	19.365         	0.954
MS.305         	19.327         	0.972
MS.306         	19.29          	0.961
MS.307         	19.25          	0.964
MS.308         	19.212         	0.92
MS.309         	19.172         	0.951
MS.310         	19.135         	0.95
MS.311         	19.097         	0.94
MS.312         	19.06          	0.928
MS.313         	19.02          	0.97
MS.314         	18.983         	0.919
MS.315         	18.945         	0.948
MS.316         	18.907         	0.944
MS.317         	18.87          	0.941
MS.318         	18.833         	0.916
MS.319         	18.795         	0.926
MS.320         	18.757         	0.911
MS.321         	18.72          	0.92
MS.322         	18.682         	0.913
MS.323         	18.645         	0.912
MS.324         	18.608         	0.916
MS.325         	18.57          	0.902
MS.326         	18.532         	0.911
MS.327         	18.495         	0.875
MS.328         	18.458         	0.895
MS.329         	18.422         	0.869
MS.330         	18.385         	0.909
MS.331         	18.347         	0.884
MS.332         	18.312         	0.848
MS.333         	18.275         	0.869
MS.334         	18.237         	0.887
MS.335         	18.202         	0.914
MS.336         	18.165         	0.831
MS.337         	18.13          	0.856
MS.338         	18.092         	0.823
MS.339         	18.057         	0.858
MS.340         	18.02          	0.844
MS.341         	17.985         	0.836
MS.342         	17.95          	0.809
MS.343         	17.913         	0.809
MS.344         	17.878         	0.742
MS.345         	17.842         	0.758
MS.346         	17.805         	0.75
MS.347         	17.77          	0.782
MS.348         	17.735         	0.738
MS.349         	17.7           	0.751
MS.350         	17.665         	0.789
MS.351         	17.628         	0.782
MS.352         	17.592         	0.808
MS.353         	17.557         	0.697
MS.354         	17.522         	0.811
MS.355         	17.487         	0.764
MS.356         	17.452         	0.759
MS.357         	17.417         	0.765
MS.358         	17.382         	0.665
MS.359         	17.35          	0.739
MS.360         	17.315         	0.731
MS.361         	17.28          	0.739
MS.362         	17.245         	0.643
MS.363         	17.21          	0.666
MS.364         	17.177         	0.626
MS.365         	17.142         	0.666
MS.366         	17.108         	0.69
MS.367         	17.073         	0.685
MS.368         	17.04          	0.607
MS.369         	17.005         	0.608
MS.370         	16.972         	0.659
MS.371         	16.938         	0.678
MS.372         	16.903         	0.645
MS.373         	16.87          	0.577
MS.374         	16.835         	0.692
MS.375         	16.802         	0.593
MS.376         	16.77          	0.596
MS.377         	16.735         	0.602
MS.378         	16.702         	0.632
MS.379         	16.667         	0.629
MS.380         	16.635         	0.631
MS.381         	16.602         	0.582
MS.382         	16.57          	0.611
MS.383         	16.535         	0.575
MS.384         	16.503         	0.55
MS.385         	16.47          	0.584
MS.386         	16.438         	0.567
MS.387         	16.405         	0.536
MS.388         	16.372         	0.565
MS.389         	16.337         	0.574
MS.390         	16.305         	0.522
MS.391         	16.272         	0.558
MS.392         	16.24          	0.563
MS.393         	16.208         	0.538
MS.394         	16.175         	0.616
MS.395         	16.142         	0.596
MS.396         	16.112         	0.53
MS.397         	16.08          	0.543
MS.398         	16.047         	0.53
MS.399         	16.015         	0.543
MS.400         	15.983         	0.498
MS.401         	15.95          	0.5
MS.402         	15.92          	0.489
MS.403         	15.887         	0.516
MS.404         	15.855         	0.475
MS.405         	15.825         	0.535
MS.406         	15.792         	0.475
MS.407         	15.76          	0.495
MS.408         	15.73          	0.524
MS.409         	15.697         	0.469
MS.410         	15.667         	0.467
MS.411         	15.635         	0.509
MS.412         	15.605         	0.519
MS.413         	15.572         	0.505
MS.414         	15.542         	0.479
MS.415         	15.51          	0.494
MS.416         	15.48          	0.459
MS.417         	15.45          	0.476
MS.418         	15.417         	0.457
MS.419         	15.387         	0.429
MS.420         	15.358         	0.494
MS.421         	15.325         	0.474
MS.422         	15.295         	0.402
MS.423         	15.265         	0.419
MS.424         	15.235         	0.431
MS.425         	15.202         	0.403
MS.426         	15.172         	0.436
MS.427         	15.142         	0.396
MS.428         	15.112         	0.414
MS.429         	15.082         	0.414
MS.430         	15.052         	0.383
MS.431         	15.023         	0.412
MS.432         	14.992         	0.428
MS.433         	14.962         	0.385
MS.434         	14.932         	0.381
MS.435         	14.902         	0.369
MS.436         	14.872         	0.388
MS.437         	14.842         	0.41
MS.438         	14.812         	0.369
MS.439         	14.785         	0.374
MS.440         	14.755         	0.371
MS.441         	14.725         	0.406
MS.442         	14.695         	0.345
MS.443         	14.665         	0.359
MS.444         	14.637         	0.367
MS.445         	14.608         	0.327
MS.446         	14.577         	0.358
MS.447         	14.55          	0.341
MS.448         	14.52          	0.388
MS.449         	14.49          	0.337
MS.450         	14.462         	0.334
MS.451         	14.432         	0.312
MS.452         	14.405         	0.274
MS.453         	14.375         	0.331
MS.454         	14.347         	0.278
MS.455         	14.318         	0.312
MS.456         	14.29          	0.323
MS.457         	14.26          	0.292
MS.458         	14.233         	0.343
MS.459         	14.205         	0.253
MS.460         	14.175         	0.314
MS.461         	14.148         	0.271
MS.462         	14.12          	0.268
MS.463         	14.09          	0.287
MS.464         	14.062         	0.251
MS.465         	14.035         	0.242
MS.466         	14.007         	0.239
MS.467         	13.977         	0.244
MS.468         	13.95          	0.23
MS.469         	13.922         	0.234
MS.470         	13.895         	0.244
MS.471         	13.867         	0.249
MS.472         	13.84          	0.233
MS.473         	13.812         	0.228
MS.474         	13.785         	0.228
MS.475         	13.757         	0.225
MS.476         	13.73          	0.222
MS.477         	13.702         	0.212
MS.478         	13.675         	0.225
MS.479         	13.648         	0.229
MS.480         	13.62          	0.222
MS.481         	13.592         	0.193
MS.482         	13.565         	0.211
MS.483         	13.537         	0.201
MS.484         	13.512         	0.199
MS.485         	13.485         	0.203
MS.486         	13.457         	0.211
MS.487         	13.43          	0.211
MS.488         	13.403         	0.172
MS.489         	13.377         	0.196
MS.490         	13.35          	0.193
MS.491         	13.322         	0.169
MS.492         	13.297         	0.195
MS.493         	13.27          	0.171
MS.494         	13.245         	0.175
MS.495         	13.217         	0.173
MS.496         	13.19          	0.195
MS.497         	13.165         	0.172
MS.498         	13.137         	0.186
MS.499         	13.112         	0.161
MS.500         	13.085         	0.181
MS.501         	13.06          	0.149
