File:              	C:\Qtrac\Data\Daniel M Sørensen\MScan multicentre study\Data from centres\Aarhus\Processed data\DMSC00618G.QZD
Name:              	DK.AAR.NC.1.2
Protocol:          	MSCAN-R2
Date:              	18/6/20
Start time:        	13:27:11
Age:               	21
Sex:               	f
Temperature:       	34,8
S/R sites:         	TA
NC/disease:        	NC
Operator:          	DS
Comments:
M-SCAN DATA (7.6-1.7m)
Scanpts: 104, 129, 617, 639
Stim. (mA)     	Amp. (mV)
MS.1           	27             	9.62
MS.2           	27             	9.66
MS.3           	27             	9.646
MS.4           	27             	9.549
MS.5           	27             	9.561
MS.6           	27             	9.565
MS.7           	27             	9.549
MS.8           	27             	9.597
MS.9           	27             	9.525
MS.10          	27             	9.569
MS.11          	27             	9.531
MS.12          	27             	9.579
MS.13          	27             	9.563
MS.14          	27             	9.632
MS.15          	27             	9.545
MS.16          	27             	9.557
MS.17          	27             	9.539
MS.18          	27             	9.549
MS.19          	27             	9.535
MS.20          	27             	9.537
MS.21          	27             	9.63
MS.22          	27             	9.545
MS.23          	27             	9.614
MS.24          	26.892         	9.549
MS.25          	26.837         	9.535
MS.26          	26.785         	9.531
MS.27          	26.73          	9.473
MS.28          	26.677         	9.579
MS.29          	26.625         	9.513
MS.30          	26.573         	9.563
MS.31          	26.517         	9.523
MS.32          	26.465         	9.557
MS.33          	26.412         	9.497
MS.34          	26.36          	9.537
MS.35          	26.307         	9.561
MS.36          	26.255         	9.501
MS.37          	26.202         	9.503
MS.38          	26.15          	9.543
MS.39          	26.097         	9.589
MS.40          	26.045         	9.545
MS.41          	25.993         	9.599
MS.42          	25.94          	9.624
MS.43          	25.89          	9.644
MS.44          	25.837         	9.555
MS.45          	25.785         	9.559
MS.46          	25.735         	9.606
MS.47          	25.682         	9.579
MS.48          	25.632         	9.559
MS.49          	25.58          	9.547
MS.50          	25.53          	9.565
MS.51          	25.477         	9.547
MS.52          	25.427         	9.606
MS.53          	25.377         	9.579
MS.54          	25.325         	9.555
MS.55          	25.275         	9.537
MS.56          	25.225         	9.549
MS.57          	25.175         	9.543
MS.58          	25.125         	9.545
MS.59          	25.075         	9.553
MS.60          	25.025         	9.537
MS.61          	24.975         	9.569
MS.62          	24.925         	9.577
MS.63          	24.875         	9.541
MS.64          	24.825         	9.573
MS.65          	24.775         	9.577
MS.66          	24.725         	9.521
MS.67          	24.675         	9.559
MS.68          	24.627         	9.587
MS.69          	24.577         	9.547
MS.70          	24.528         	9.597
MS.71          	24.48          	9.561
MS.72          	24.43          	9.579
MS.73          	24.382         	9.533
MS.74          	24.332         	9.569
MS.75          	24.285         	9.606
MS.76          	24.235         	9.61
MS.77          	24.188         	9.593
MS.78          	24.14          	9.539
MS.79          	24.09          	9.597
MS.80          	24.042         	9.591
MS.81          	23.995         	9.529
MS.82          	23.948         	9.583
MS.83          	23.9           	9.537
MS.84          	23.85          	9.539
MS.85          	23.802         	9.646
MS.86          	23.755         	9.551
MS.87          	23.707         	9.585
MS.88          	23.66          	9.597
MS.89          	23.615         	9.616
MS.90          	23.567         	9.63
MS.91          	23.52          	9.493
MS.92          	23.472         	9.581
MS.93          	23.425         	9.513
MS.94          	23.38          	9.527
MS.95          	23.332         	9.507
MS.96          	23.285         	9.547
MS.97          	23.24          	9.555
MS.98          	23.192         	9.517
MS.99          	23.145         	9.537
MS.100         	23.1           	9.543
MS.101         	23.055         	9.529
MS.102         	23.007         	9.523
MS.103         	22.962         	9.511
MS.104         	22.915         	9.543
MS.105         	22.87          	9.521
MS.106         	22.825         	9.569
MS.107         	22.78          	9.545
MS.108         	22.733         	9.577
MS.109         	22.688         	9.525
MS.110         	22.642         	9.541
MS.111         	22.597         	9.555
MS.112         	22.552         	9.599
MS.113         	22.507         	9.513
MS.114         	22.462         	9.513
MS.115         	22.417         	9.525
MS.116         	22.372         	9.527
MS.117         	22.327         	9.509
MS.118         	22.282         	9.571
MS.119         	22.237         	9.559
MS.120         	22.195         	9.579
MS.121         	22.15          	9.519
MS.122         	22.105         	9.561
MS.123         	22.062         	9.535
MS.124         	22.017         	9.525
MS.125         	21.972         	9.521
MS.126         	21.93          	9.587
MS.127         	21.885         	9.543
MS.128         	21.842         	9.575
MS.129         	21.797         	9.515
MS.130         	21.755         	9.581
MS.131         	21.712         	9.509
MS.132         	21.667         	9.529
MS.133         	21.625         	9.549
MS.134         	21.583         	9.535
MS.135         	21.538         	9.537
MS.136         	21.495         	9.499
MS.137         	21.452         	9.547
MS.138         	21.41          	9.549
MS.139         	21.368         	9.577
MS.140         	21.325         	9.497
MS.141         	21.282         	9.497
MS.142         	21.24          	9.521
MS.143         	21.198         	9.561
MS.144         	21.155         	9.495
MS.145         	21.112         	9.549
MS.146         	21.07          	9.531
MS.147         	21.028         	9.533
MS.148         	20.985         	9.469
MS.149         	20.942         	9.499
MS.150         	20.903         	9.509
MS.151         	20.86          	9.507
MS.152         	20.817         	9.537
MS.153         	20.778         	9.515
MS.154         	20.735         	9.495
MS.155         	20.695         	9.479
MS.156         	20.653         	9.461
MS.157         	20.61          	9.509
MS.158         	20.57          	9.382
MS.159         	20.53          	9.44
MS.160         	20.487         	9.428
MS.161         	20.448         	9.428
MS.162         	20.405         	9.448
MS.163         	20.365         	9.376
MS.164         	20.325         	9.521
MS.165         	20.285         	9.362
MS.166         	20.243         	9.43
MS.167         	20.202         	9.41
MS.168         	20.163         	9.428
MS.169         	20.122         	9.456
MS.170         	20.083         	9.348
MS.171         	20.042         	9.4
MS.172         	20.002         	9.481
MS.173         	19.962         	9.362
MS.174         	19.922         	9.34
MS.175         	19.882         	9.358
MS.176         	19.842         	9.348
MS.177         	19.802         	9.358
MS.178         	19.762         	9.326
MS.179         	19.725         	9.336
MS.180         	19.685         	9.281
MS.181         	19.645         	9.336
MS.182         	19.605         	9.275
MS.183         	19.567         	9.362
MS.184         	19.528         	9.326
MS.185         	19.487         	9.35
MS.186         	19.45          	9.295
MS.187         	19.41          	9.315
MS.188         	19.372         	9.283
MS.189         	19.333         	9.162
MS.190         	19.295         	9.253
MS.191         	19.255         	9.237
MS.192         	19.217         	9.253
MS.193         	19.18          	9.261
MS.194         	19.14          	9.263
MS.195         	19.102         	9.158
MS.196         	19.065         	9.181
MS.197         	19.028         	9.156
MS.198         	18.987         	9.211
MS.199         	18.95          	9.12
MS.200         	18.913         	9.205
MS.201         	18.875         	9.08
MS.202         	18.837         	9.06
MS.203         	18.8           	9.021
MS.204         	18.762         	9.199
MS.205         	18.725         	9.116
MS.206         	18.688         	9.029
MS.207         	18.65          	9.154
MS.208         	18.612         	9.013
MS.209         	18.575         	9.217
MS.210         	18.538         	9.114
MS.211         	18.5           	8.951
MS.212         	18.465         	8.895
MS.213         	18.427         	8.919
MS.214         	18.39          	8.909
MS.215         	18.352         	8.971
MS.216         	18.317         	8.933
MS.217         	18.28          	8.911
MS.218         	18.245         	8.864
MS.219         	18.208         	8.893
MS.220         	18.17          	8.778
MS.221         	18.135         	8.858
MS.222         	18.097         	8.828
MS.223         	18.062         	8.848
MS.224         	18.028         	8.802
MS.225         	17.99          	8.766
MS.226         	17.955         	8.778
MS.227         	17.917         	8.776
MS.228         	17.882         	8.794
MS.229         	17.847         	8.766
MS.230         	17.812         	8.792
MS.231         	17.775         	8.661
MS.232         	17.74          	8.776
MS.233         	17.705         	8.703
MS.234         	17.67          	8.756
MS.235         	17.635         	8.669
MS.236         	17.6           	8.639
MS.237         	17.562         	8.617
MS.238         	17.528         	8.683
MS.239         	17.493         	8.796
MS.240         	17.458         	8.705
MS.241         	17.422         	8.637
MS.242         	17.39          	8.631
MS.243         	17.355         	8.562
MS.244         	17.32          	8.596
MS.245         	17.285         	8.542
MS.246         	17.25          	8.639
MS.247         	17.215         	8.689
MS.248         	17.182         	8.576
MS.249         	17.147         	8.554
MS.250         	17.112         	8.464
MS.251         	17.077         	8.554
MS.252         	17.045         	8.445
MS.253         	17.01          	8.427
MS.254         	16.977         	8.401
MS.255         	16.942         	8.24
MS.256         	16.91          	8.411
MS.257         	16.875         	8.349
MS.258         	16.842         	8.29
MS.259         	16.807         	8.204
MS.260         	16.775         	8.427
MS.261         	16.74          	8.228
MS.262         	16.708         	8.236
MS.263         	16.672         	8.298
MS.264         	16.64          	8.198
MS.265         	16.608         	8.236
MS.266         	16.575         	8.127
MS.267         	16.54          	8.208
MS.268         	16.507         	8.063
MS.269         	16.475         	8.041
MS.270         	16.442         	8.022
MS.271         	16.41          	7.98
MS.272         	16.378         	7.954
MS.273         	16.342         	7.972
MS.274         	16.31          	7.817
MS.275         	16.278         	7.896
MS.276         	16.245         	7.849
MS.277         	16.212         	7.922
MS.278         	16.18          	7.817
MS.279         	16.147         	7.738
MS.280         	16.118         	7.589
MS.281         	16.085         	7.684
MS.282         	16.052         	7.563
MS.283         	16.02          	7.491
MS.284         	15.987         	7.603
MS.285         	15.955         	7.563
MS.286         	15.925         	7.471
MS.287         	15.892         	7.392
MS.288         	15.86          	7.36
MS.289         	15.83          	7.299
MS.290         	15.797         	7.144
MS.291         	15.765         	7.45
MS.292         	15.735         	7.092
MS.293         	15.702         	7.106
MS.294         	15.672         	7.064
MS.295         	15.64          	7.058
MS.296         	15.61          	7.076
MS.297         	15.577         	7.076
MS.298         	15.547         	6.907
MS.299         	15.515         	6.959
MS.300         	15.485         	7.124
MS.301         	15.452         	6.886
MS.302         	15.422         	6.814
MS.303         	15.392         	6.884
MS.304         	15.36          	6.755
MS.305         	15.33          	6.979
MS.306         	15.3           	6.862
MS.307         	15.27          	6.639
MS.308         	15.237         	6.755
MS.309         	15.207         	6.639
MS.310         	15.177         	6.615
MS.311         	15.148         	6.56
MS.312         	15.117         	6.592
MS.313         	15.087         	6.592
MS.314         	15.057         	6.494
MS.315         	15.027         	6.671
MS.316         	14.997         	6.482
MS.317         	14.967         	6.48
MS.318         	14.938         	6.522
MS.319         	14.907         	6.453
MS.320         	14.877         	6.405
MS.321         	14.847         	6.318
MS.322         	14.818         	6.256
MS.323         	14.787         	6.139
MS.324         	14.757         	6.31
MS.325         	14.73          	6.343
MS.326         	14.7           	6.171
MS.327         	14.67          	6.183
MS.328         	14.64          	6.238
MS.329         	14.612         	6.173
MS.330         	14.582         	6.115
MS.331         	14.552         	5.992
MS.332         	14.525         	5.93
MS.333         	14.495         	5.867
MS.334         	14.467         	5.765
MS.335         	14.438         	5.781
MS.336         	14.407         	5.656
MS.337         	14.38          	5.857
MS.338         	14.35          	5.523
MS.339         	14.322         	5.603
MS.340         	14.295         	5.581
MS.341         	14.265         	5.458
MS.342         	14.237         	5.553
MS.343         	14.207         	5.527
MS.344         	14.18          	5.305
MS.345         	14.153         	5.382
MS.346         	14.122         	5.329
MS.347         	14.095         	5.199
MS.348         	14.068         	5.122
MS.349         	14.04          	4.963
MS.350         	14.01          	4.945
MS.351         	13.983         	4.844
MS.352         	13.955         	4.818
MS.353         	13.927         	4.677
MS.354         	13.9           	4.999
MS.355         	13.872         	4.625
MS.356         	13.842         	4.486
MS.357         	13.815         	4.653
MS.358         	13.787         	4.62
MS.359         	13.76          	4.798
MS.360         	13.733         	4.49
MS.361         	13.705         	4.443
MS.362         	13.677         	4.5
MS.363         	13.653         	4.298
MS.364         	13.625         	4.302
MS.365         	13.597         	4.375
MS.366         	13.57          	4.075
MS.367         	13.542         	4.177
MS.368         	13.515         	4.256
MS.369         	13.487         	4.254
MS.370         	13.462         	4.071
MS.371         	13.435         	4.187
MS.372         	13.407         	3.982
MS.373         	13.38          	4.113
MS.374         	13.355         	3.849
MS.375         	13.327         	3.887
MS.376         	13.3           	3.883
MS.377         	13.275         	3.694
MS.378         	13.247         	3.887
MS.379         	13.222         	3.553
MS.380         	13.195         	3.621
MS.381         	13.167         	3.646
MS.382         	13.142         	3.575
MS.383         	13.115         	3.593
MS.384         	13.09          	3.569
MS.385         	13.062         	3.388
MS.386         	13.037         	3.531
MS.387         	13.012         	3.247
MS.388         	12.985         	3.41
MS.389         	12.96          	3.241
MS.390         	12.932         	3.362
MS.391         	12.907         	3.176
MS.392         	12.882         	3.186
MS.393         	12.858         	3.116
MS.394         	12.83          	3.146
MS.395         	12.805         	3.178
MS.396         	12.78          	2.979
MS.397         	12.755         	3.001
MS.398         	12.727         	2.846
MS.399         	12.702         	2.858
MS.400         	12.677         	2.657
MS.401         	12.653         	2.741
MS.402         	12.627         	2.485
MS.403         	12.602         	2.81
MS.404         	12.577         	2.628
MS.405         	12.552         	2.582
MS.406         	12.528         	2.514
MS.407         	12.502         	2.469
MS.408         	12.477         	2.477
MS.409         	12.452         	2.566
MS.410         	12.427         	2.3
MS.411         	12.403         	2.375
MS.412         	12.377         	2.187
MS.413         	12.352         	2.25
MS.414         	12.327         	2.191
MS.415         	12.302         	2.157
MS.416         	12.278         	2.04
MS.417         	12.255         	2
MS.418         	12.23          	2.153
MS.419         	12.205         	1.901
MS.420         	12.18          	1.895
MS.421         	12.155         	1.857
MS.422         	12.132         	2.022
MS.423         	12.108         	1.736
MS.424         	12.082         	1.694
MS.425         	12.06          	1.666
MS.426         	12.035         	1.694
MS.427         	12.01          	1.642
MS.428         	11.988         	1.527
MS.429         	11.962         	1.553
MS.430         	11.94          	1.585
MS.431         	11.915         	1.607
MS.432         	11.892         	1.722
MS.433         	11.867         	1.541
MS.434         	11.845         	1.422
MS.435         	11.82          	1.386
MS.436         	11.797         	1.426
MS.437         	11.773         	1.452
MS.438         	11.75          	1.424
MS.439         	11.727         	1.283
MS.440         	11.702         	1.406
MS.441         	11.68          	1.261
MS.442         	11.655         	1.251
MS.443         	11.632         	1.208
MS.444         	11.61          	1.124
MS.445         	11.587         	1.12
MS.446         	11.562         	1.158
MS.447         	11.54          	1.043
MS.448         	11.517         	0.977
MS.449         	11.495         	1.188
MS.450         	11.47          	0.987
MS.451         	11.447         	0.985
MS.452         	11.425         	0.979
MS.453         	11.403         	0.924
MS.454         	11.38          	0.981
MS.455         	11.358         	0.89
MS.456         	11.335         	0.832
MS.457         	11.312         	0.8
MS.458         	11.29          	0.92
MS.459         	11.267         	0.848
MS.460         	11.245         	0.828
MS.461         	11.222         	0.806
MS.462         	11.2           	0.886
MS.463         	11.177         	0.858
MS.464         	11.155         	0.685
MS.465         	11.132         	0.767
MS.466         	11.11          	0.705
MS.467         	11.087         	0.705
MS.468         	11.065         	0.749
MS.469         	11.042         	0.681
MS.470         	11.023         	0.677
MS.471         	11             	0.721
MS.472         	10.977         	0.715
MS.473         	10.955         	0.685
MS.474         	10.932         	0.651
MS.475         	10.912         	0.616
MS.476         	10.89          	0.578
MS.477         	10.867         	0.582
MS.478         	10.847         	0.578
MS.479         	10.825         	0.616
MS.480         	10.802         	0.548
MS.481         	10.782         	0.586
MS.482         	10.76          	0.506
MS.483         	10.738         	0.514
MS.484         	10.717         	0.632
MS.485         	10.695         	0.481
MS.486         	10.675         	0.481
MS.487         	10.653         	0.524
MS.488         	10.632         	0.481
MS.489         	10.61          	0.483
MS.490         	10.59          	0.429
MS.491         	10.568         	0.467
MS.492         	10.547         	0.371
MS.493         	10.525         	0.371
MS.494         	10.505         	0.369
MS.495         	10.485         	0.385
MS.496         	10.462         	0.31
MS.497         	10.443         	0.367
MS.498         	10.42          	0.423
MS.499         	10.4           	0.354
MS.500         	10.38          	0.314
MS.501         	10.36          	0.294
