File:              	C:\Qtrac\Data\Daniel M Sørensen\MScan multicentre study\Data from centres\Aarhus\Processed data\DMSC00611C.QZD
Name:              	DK.AAR.NC.1.1
Protocol:          	MSCAN-R2
Date:              	11/6/20
Start time:        	14:15:56
Age:               	21
Sex:               	f
Temperature:       	37,2
S/R sites:         	TA
NC/disease:        	NC
Operator:          	DS
Comments:
M-SCAN DATA (8.7-1.9m)
Scanpts: 63, 86, 703, 724
Stim. (mA)     	Amp. (mV)
MS.1           	22             	10.464
MS.2           	22             	10.482
MS.3           	22             	10.522
MS.4           	22             	10.433
MS.5           	22             	10.397
MS.6           	22             	10.399
MS.7           	22             	10.413
MS.8           	22             	10.397
MS.9           	22             	10.381
MS.10          	22             	10.395
MS.11          	22             	10.381
MS.12          	22             	10.399
MS.13          	22             	10.31
MS.14          	22             	10.345
MS.15          	22             	10.337
MS.16          	22             	10.373
MS.17          	22             	10.347
MS.18          	22             	10.365
MS.19          	22             	10.337
MS.20          	22             	10.385
MS.21          	22             	10.385
MS.22          	22             	10.341
MS.23          	22             	10.407
MS.24          	21.913         	10.369
MS.25          	21.868         	10.375
MS.26          	21.825         	10.329
MS.27          	21.78          	10.361
MS.28          	21.737         	10.377
MS.29          	21.695         	10.375
MS.30          	21.65          	10.411
MS.31          	21.608         	10.399
MS.32          	21.565         	10.353
MS.33          	21.52          	10.329
MS.34          	21.477         	10.331
MS.35          	21.435         	10.359
MS.36          	21.392         	10.337
MS.37          	21.35          	10.359
MS.38          	21.307         	10.361
MS.39          	21.265         	10.369
MS.40          	21.222         	10.365
MS.41          	21.18          	10.343
MS.42          	21.137         	10.349
MS.43          	21.095         	10.337
MS.44          	21.052         	10.389
MS.45          	21.01          	10.359
MS.46          	20.97          	10.347
MS.47          	20.927         	10.361
MS.48          	20.885         	10.304
MS.49          	20.842         	10.355
MS.50          	20.802         	10.333
MS.51          	20.76          	10.31
MS.52          	20.717         	10.337
MS.53          	20.677         	10.335
MS.54          	20.635         	10.341
MS.55          	20.595         	10.329
MS.56          	20.552         	10.335
MS.57          	20.512         	10.325
MS.58          	20.472         	10.317
MS.59          	20.43          	10.363
MS.60          	20.39          	10.369
MS.61          	20.35          	10.315
MS.62          	20.307         	10.353
MS.63          	20.267         	10.383
MS.64          	20.227         	10.353
MS.65          	20.188         	10.341
MS.66          	20.147         	10.381
MS.67          	20.108         	10.357
MS.68          	20.065         	10.329
MS.69          	20.025         	10.347
MS.70          	19.985         	10.335
MS.71          	19.945         	10.397
MS.72          	19.907         	10.274
MS.73          	19.868         	10.351
MS.74          	19.827         	10.367
MS.75          	19.788         	10.387
MS.76          	19.747         	10.341
MS.77          	19.708         	10.308
MS.78          	19.67          	10.363
MS.79          	19.63          	10.302
MS.80          	19.59          	10.335
MS.81          	19.55          	10.367
MS.82          	19.512         	10.377
MS.83          	19.472         	10.363
MS.84          	19.435         	10.363
MS.85          	19.395         	10.315
MS.86          	19.358         	10.323
MS.87          	19.317         	10.329
MS.88          	19.28          	10.343
MS.89          	19.24          	10.357
MS.90          	19.202         	10.315
MS.91          	19.165         	10.308
MS.92          	19.125         	10.335
MS.93          	19.087         	10.315
MS.94          	19.05          	10.278
MS.95          	19.012         	10.308
MS.96          	18.972         	10.315
MS.97          	18.935         	10.312
MS.98          	18.897         	10.278
MS.99          	18.86          	10.286
MS.100         	18.823         	10.252
MS.101         	18.785         	10.294
MS.102         	18.747         	10.347
MS.103         	18.71          	10.319
MS.104         	18.672         	10.359
MS.105         	18.635         	10.335
MS.106         	18.597         	10.325
MS.107         	18.56          	10.315
MS.108         	18.522         	10.339
MS.109         	18.487         	10.284
MS.110         	18.45          	10.278
MS.111         	18.413         	10.28
MS.112         	18.375         	10.343
MS.113         	18.34          	10.288
MS.114         	18.302         	10.294
MS.115         	18.265         	10.306
MS.116         	18.23          	10.304
MS.117         	18.192         	10.252
MS.118         	18.157         	10.319
MS.119         	18.12          	10.276
MS.120         	18.085         	10.262
MS.121         	18.047         	10.3
MS.122         	18.012         	10.335
MS.123         	17.975         	10.294
MS.124         	17.94          	10.3
MS.125         	17.905         	10.31
MS.126         	17.868         	10.256
MS.127         	17.833         	10.323
MS.128         	17.797         	10.319
MS.129         	17.762         	10.3
MS.130         	17.725         	10.304
MS.131         	17.69          	10.308
MS.132         	17.655         	10.264
MS.133         	17.62          	10.28
MS.134         	17.585         	10.317
MS.135         	17.55          	10.312
MS.136         	17.515         	10.278
MS.137         	17.48          	10.276
MS.138         	17.445         	10.278
MS.139         	17.41          	10.238
MS.140         	17.375         	10.276
MS.141         	17.34          	10.294
MS.142         	17.305         	10.302
MS.143         	17.27          	10.282
MS.144         	17.237         	10.296
MS.145         	17.202         	10.294
MS.146         	17.167         	10.304
MS.147         	17.132         	10.244
MS.148         	17.1           	10.248
MS.149         	17.065         	10.302
MS.150         	17.03          	10.254
MS.151         	16.997         	10.3
MS.152         	16.962         	10.242
MS.153         	16.93          	10.317
MS.154         	16.895         	10.232
MS.155         	16.862         	10.298
MS.156         	16.827         	10.282
MS.157         	16.795         	10.252
MS.158         	16.76          	10.236
MS.159         	16.727         	10.274
MS.160         	16.695         	10.276
MS.161         	16.66          	10.274
MS.162         	16.628         	10.254
MS.163         	16.595         	10.266
MS.164         	16.56          	10.248
MS.165         	16.528         	10.26
MS.166         	16.495         	10.29
MS.167         	16.462         	10.151
MS.168         	16.43          	10.234
MS.169         	16.395         	10.252
MS.170         	16.362         	10.176
MS.171         	16.33          	10.151
MS.172         	16.297         	10.119
MS.173         	16.265         	10.105
MS.174         	16.233         	10.115
MS.175         	16.2           	10.214
MS.176         	16.167         	10.206
MS.177         	16.135         	10.218
MS.178         	16.102         	10.268
MS.179         	16.073         	10.109
MS.180         	16.04          	10.139
MS.181         	16.007         	10.147
MS.182         	15.975         	10.099
MS.183         	15.943         	10.131
MS.184         	15.912         	10.109
MS.185         	15.88          	10.133
MS.186         	15.847         	10.125
MS.187         	15.818         	10.018
MS.188         	15.785         	10.033
MS.189         	15.752         	10.075
MS.190         	15.722         	10.061
MS.191         	15.69          	10.057
MS.192         	15.66          	10.097
MS.193         	15.627         	10.123
MS.194         	15.597         	10.117
MS.195         	15.565         	10.077
MS.196         	15.535         	10.035
MS.197         	15.502         	10.008
MS.198         	15.472         	10.063
MS.199         	15.44          	9.994
MS.200         	15.41          	10
MS.201         	15.38          	9.964
MS.202         	15.35          	10.049
MS.203         	15.318         	9.98
MS.204         	15.287         	10.024
MS.205         	15.257         	10.033
MS.206         	15.227         	9.964
MS.207         	15.195         	10.029
MS.208         	15.165         	9.948
MS.209         	15.135         	9.93
MS.210         	15.105         	9.906
MS.211         	15.075         	9.972
MS.212         	15.045         	9.936
MS.213         	15.015         	10.02
MS.214         	14.985         	9.892
MS.215         	14.955         	9.968
MS.216         	14.925         	9.954
MS.217         	14.895         	9.918
MS.218         	14.865         	9.958
MS.219         	14.835         	9.871
MS.220         	14.805         	9.924
MS.221         	14.777         	9.924
MS.222         	14.747         	9.94
MS.223         	14.717         	9.966
MS.224         	14.688         	9.932
MS.225         	14.66          	9.924
MS.226         	14.63          	9.902
MS.227         	14.6           	9.898
MS.228         	14.57          	9.879
MS.229         	14.542         	9.9
MS.230         	14.512         	9.883
MS.231         	14.485         	9.916
MS.232         	14.455         	9.912
MS.233         	14.425         	9.932
MS.234         	14.398         	9.926
MS.235         	14.367         	9.9
MS.236         	14.34          	9.873
MS.237         	14.31          	9.916
MS.238         	14.282         	9.968
MS.239         	14.255         	9.863
MS.240         	14.225         	9.871
MS.241         	14.197         	9.906
MS.242         	14.167         	9.888
MS.243         	14.14          	9.847
MS.244         	14.112         	9.722
MS.245         	14.085         	9.805
MS.246         	14.055         	9.819
MS.247         	14.028         	9.819
MS.248         	14             	9.847
MS.249         	13.972         	9.658
MS.250         	13.945         	9.785
MS.251         	13.915         	9.853
MS.252         	13.887         	9.682
MS.253         	13.86          	9.793
MS.254         	13.832         	9.753
MS.255         	13.805         	9.666
MS.256         	13.778         	9.72
MS.257         	13.75          	9.704
MS.258         	13.722         	9.702
MS.259         	13.695         	9.724
MS.260         	13.667         	9.626
MS.261         	13.64          	9.67
MS.262         	13.612         	9.726
MS.263         	13.585         	9.577
MS.264         	13.56          	9.64
MS.265         	13.532         	9.597
MS.266         	13.505         	9.589
MS.267         	13.477         	9.642
MS.268         	13.45          	9.61
MS.269         	13.425         	9.565
MS.270         	13.398         	9.624
MS.271         	13.37          	9.589
MS.272         	13.342         	9.602
MS.273         	13.318         	9.597
MS.274         	13.29          	9.565
MS.275         	13.265         	9.561
MS.276         	13.237         	9.479
MS.277         	13.21          	9.501
MS.278         	13.185         	9.547
MS.279         	13.157         	9.561
MS.280         	13.132         	9.553
MS.281         	13.105         	9.511
MS.282         	13.08          	9.477
MS.283         	13.052         	9.422
MS.284         	13.028         	9.426
MS.285         	13             	9.567
MS.286         	12.975         	9.251
MS.287         	12.95          	9.388
MS.288         	12.922         	9.356
MS.289         	12.898         	9.432
MS.290         	12.872         	9.318
MS.291         	12.845         	9.221
MS.292         	12.82          	9.136
MS.293         	12.795         	9.193
MS.294         	12.77          	9.177
MS.295         	12.742         	9.144
MS.296         	12.717         	9.144
MS.297         	12.693         	9.205
MS.298         	12.667         	9.199
MS.299         	12.642         	9.154
MS.300         	12.617         	9.036
MS.301         	12.592         	9.007
MS.302         	12.568         	8.973
MS.303         	12.542         	9.142
MS.304         	12.517         	9.001
MS.305         	12.492         	8.999
MS.306         	12.467         	8.953
MS.307         	12.443         	8.909
MS.308         	12.417         	8.929
MS.309         	12.392         	8.874
MS.310         	12.367         	9.011
MS.311         	12.342         	8.886
MS.312         	12.318         	8.949
MS.313         	12.292         	8.798
MS.314         	12.267         	8.88
MS.315         	12.245         	8.707
MS.316         	12.22          	8.693
MS.317         	12.195         	8.903
MS.318         	12.17          	8.774
MS.319         	12.148         	8.715
MS.320         	12.122         	8.762
MS.321         	12.097         	8.492
MS.322         	12.075         	8.566
MS.323         	12.05          	8.528
MS.324         	12.025         	8.721
MS.325         	12.002         	8.355
MS.326         	11.977         	8.379
MS.327         	11.952         	8.403
MS.328         	11.93          	8.476
MS.329         	11.905         	8.435
MS.330         	11.882         	8.522
MS.331         	11.858         	8.28
MS.332         	11.835         	8.145
MS.333         	11.81          	8.097
MS.334         	11.787         	8.246
MS.335         	11.765         	8.375
MS.336         	11.74          	8.204
MS.337         	11.717         	8.329
MS.338         	11.693         	7.998
MS.339         	11.67          	7.992
MS.340         	11.648         	7.946
MS.341         	11.622         	8.006
MS.342         	11.6           	7.863
MS.343         	11.577         	7.871
MS.344         	11.555         	7.97
MS.345         	11.53          	7.581
MS.346         	11.507         	7.632
MS.347         	11.485         	7.323
MS.348         	11.462         	7.765
MS.349         	11.44          	7.609
MS.350         	11.415         	7.732
MS.351         	11.392         	7.418
MS.352         	11.37          	7.275
MS.353         	11.347         	7.104
MS.354         	11.325         	7.221
MS.355         	11.302         	7.138
MS.356         	11.28          	7.019
MS.357         	11.257         	6.993
MS.358         	11.235         	6.917
MS.359         	11.212         	6.923
MS.360         	11.19          	6.933
MS.361         	11.167         	6.635
MS.362         	11.145         	6.457
MS.363         	11.122         	6.584
MS.364         	11.1           	6.502
MS.365         	11.08          	6.5
MS.366         	11.057         	6.343
MS.367         	11.035         	6.465
MS.368         	11.012         	6.095
MS.369         	10.99          	6.32
MS.370         	10.967         	6.063
MS.371         	10.948         	6.183
MS.372         	10.925         	5.906
MS.373         	10.903         	6.071
MS.374         	10.88          	5.815
MS.375         	10.86          	6.059
MS.376         	10.837         	5.942
MS.377         	10.815         	5.688
MS.378         	10.795         	5.67
MS.379         	10.773         	5.64
MS.380         	10.752         	5.44
MS.381         	10.73          	5.551
MS.382         	10.707         	5.585
MS.383         	10.688         	5.529
MS.384         	10.665         	5.543
MS.385         	10.645         	5.39
MS.386         	10.622         	5.358
MS.387         	10.602         	5.499
MS.388         	10.58          	5.295
MS.389         	10.56          	5.269
MS.390         	10.537         	5.118
MS.391         	10.517         	5.047
MS.392         	10.497         	5.215
MS.393         	10.475         	5.013
MS.394         	10.455         	5.152
MS.395         	10.432         	5.031
MS.396         	10.412         	4.888
MS.397         	10.392         	5.015
MS.398         	10.372         	4.917
MS.399         	10.35          	4.864
MS.400         	10.33          	4.693
MS.401         	10.31          	4.705
MS.402         	10.287         	4.598
MS.403         	10.267         	4.717
MS.404         	10.247         	4.655
MS.405         	10.227         	4.399
MS.406         	10.207         	4.514
MS.407         	10.185         	4.391
MS.408         	10.165         	4.341
MS.409         	10.145         	4.361
MS.410         	10.125         	4.411
MS.411         	10.105         	4.21
MS.412         	10.085         	4.004
MS.413         	10.065         	4.24
MS.414         	10.045         	4.238
MS.415         	10.025         	3.742
MS.416         	10.005         	4.113
MS.417         	9.985          	3.813
MS.418         	9.965          	3.668
MS.419         	9.945          	3.895
MS.420         	9.925          	3.621
MS.421         	9.905          	3.785
MS.422         	9.885          	3.565
MS.423         	9.865          	3.509
MS.424         	9.845          	3.335
MS.425         	9.825          	3.454
MS.426         	9.807          	3.315
MS.427         	9.787          	3.551
MS.428         	9.767          	3.4
MS.429         	9.747          	3.39
MS.430         	9.727          	3.327
MS.431         	9.71           	3.255
MS.432         	9.69           	3.122
MS.433         	9.67           	3.072
MS.434         	9.65           	3.062
MS.435         	9.632          	3.041
MS.436         	9.613          	2.842
MS.437         	9.592          	2.906
MS.438         	9.575          	2.898
MS.439         	9.555          	2.798
MS.440         	9.535          	2.844
MS.441         	9.517          	2.866
MS.442         	9.497          	2.854
MS.443         	9.477          	2.723
MS.444         	9.46           	2.679
MS.445         	9.44           	2.622
MS.446         	9.422          	2.61
MS.447         	9.403          	2.574
MS.448         	9.385          	2.453
MS.449         	9.365          	2.447
MS.450         	9.347          	2.463
MS.451         	9.327          	2.344
MS.452         	9.31           	2.437
MS.453         	9.29           	2.3
MS.454         	9.273          	2.377
MS.455         	9.255          	2.334
MS.456         	9.235          	2.26
MS.457         	9.217          	2.135
MS.458         	9.198          	2.125
MS.459         	9.18           	2.161
MS.460         	9.162          	1.956
MS.461         	9.142          	2.026
MS.462         	9.125          	2.026
MS.463         	9.108          	1.932
MS.464         	9.09           	2.034
MS.465         	9.07           	1.956
MS.466         	9.052          	1.952
MS.467         	9.035          	1.742
MS.468         	9.017          	1.891
MS.469         	8.997          	1.71
MS.470         	8.98           	1.541
MS.471         	8.962          	1.696
MS.472         	8.945          	1.601
MS.473         	8.927          	1.599
MS.474         	8.91           	1.535
MS.475         	8.89           	1.444
MS.476         	8.872          	1.444
MS.477         	8.855          	1.368
MS.478         	8.837          	1.478
MS.479         	8.82           	1.398
MS.480         	8.802          	1.319
MS.481         	8.785          	1.341
MS.482         	8.767          	1.327
MS.483         	8.75           	1.13
MS.484         	8.733          	1.227
MS.485         	8.715          	1.208
MS.486         	8.698          	1.16
MS.487         	8.68           	1.172
MS.488         	8.662          	1.233
MS.489         	8.645          	1.192
MS.490         	8.627          	1.126
MS.491         	8.61           	0.949
MS.492         	8.595          	0.967
MS.493         	8.577          	0.965
MS.494         	8.56           	0.91
MS.495         	8.542          	0.781
MS.496         	8.525          	0.882
