File:              	C:\Qtrac\Data\Daniel M Sørensen\MScan multicentre study\Data from centres\Aarhus\Processed data\DMSC10413C.QZD
Name:              	DK.AAR.NC.12.1
Protocol:          	MSCAN-R2
Date:              	13/4/21
Start time:        	14:51:38
Age:               	26
Sex:               	f
Temperature:       	39,5
S/R sites:         	TA
NC/disease:        	NC
Operator:          	DS
Comments:
M-SCAN DATA (6.5-1.2m)
Scanpts: 13, 23, 546, 567
Stim. (mA)     	Amp. (mV)
MS.1           	22.5           	6.461
MS.2           	22.5           	6.441
MS.3           	22.5           	6.467
MS.4           	22.5           	6.421
MS.5           	22.5           	6.431
MS.6           	22.5           	6.417
MS.7           	22.5           	6.449
MS.8           	22.5           	6.417
MS.9           	22.5           	6.417
MS.10          	22.5           	6.397
MS.11          	22.5           	6.425
MS.12          	22.5           	6.395
MS.13          	22.5           	6.407
MS.14          	22.5           	6.423
MS.15          	22.5           	6.413
MS.16          	22.5           	6.401
MS.17          	22.5           	6.413
MS.18          	22.5           	6.403
MS.19          	22.5           	6.413
MS.20          	22.5           	6.393
MS.21          	22.5           	6.395
MS.22          	22.5           	6.389
MS.23          	22.5           	6.417
MS.24          	22.41          	6.389
MS.25          	22.365         	6.377
MS.26          	22.32          	6.413
MS.27          	22.275         	6.395
MS.28          	22.233         	6.399
MS.29          	22.188         	6.397
MS.30          	22.142         	6.389
MS.31          	22.097         	6.371
MS.32          	22.055         	6.389
MS.33          	22.01          	6.373
MS.34          	21.967         	6.385
MS.35          	21.922         	6.359
MS.36          	21.877         	6.371
MS.37          	21.835         	6.375
MS.38          	21.792         	6.393
MS.39          	21.747         	6.395
MS.40          	21.705         	6.371
MS.41          	21.66          	6.383
MS.42          	21.618         	6.385
MS.43          	21.575         	6.369
MS.44          	21.532         	6.357
MS.45          	21.487         	6.365
MS.46          	21.445         	6.379
MS.47          	21.403         	6.357
MS.48          	21.36          	6.353
MS.49          	21.317         	6.351
MS.50          	21.275         	6.335
MS.51          	21.233         	6.391
MS.52          	21.19          	6.375
MS.53          	21.147         	6.343
MS.54          	21.105         	6.349
MS.55          	21.062         	6.316
MS.56          	21.02          	6.337
MS.57          	20.98          	6.337
MS.58          	20.938         	6.314
MS.59          	20.895         	6.324
MS.60          	20.852         	6.322
MS.61          	20.812         	6.365
MS.62          	20.77          	6.375
MS.63          	20.727         	6.292
MS.64          	20.688         	6.337
MS.65          	20.645         	6.306
MS.66          	20.605         	6.322
MS.67          	20.562         	6.31
MS.68          	20.522         	6.322
MS.69          	20.483         	6.282
MS.70          	20.44          	6.331
MS.71          	20.4           	6.208
MS.72          	20.36          	6.208
MS.73          	20.317         	6.308
MS.74          	20.278         	6.208
MS.75          	20.237         	6.202
MS.76          	20.198         	6.185
MS.77          	20.155         	6.196
MS.78          	20.115         	6.2
MS.79          	20.075         	6.206
MS.80          	20.035         	6.179
MS.81          	19.995         	6.202
MS.82          	19.955         	6.304
MS.83          	19.915         	6.165
MS.84          	19.875         	6.173
MS.85          	19.837         	6.175
MS.86          	19.797         	6.157
MS.87          	19.757         	6.153
MS.88          	19.717         	6.212
MS.89          	19.677         	6.153
MS.90          	19.64          	6.125
MS.91          	19.6           	6.151
MS.92          	19.56          	6.157
MS.93          	19.522         	6.105
MS.94          	19.483         	6.123
MS.95          	19.442         	6.105
MS.96          	19.405         	6.131
MS.97          	19.365         	6.165
MS.98          	19.327         	6.161
MS.99          	19.288         	6.117
MS.100         	19.25          	6.159
MS.101         	19.212         	6.119
MS.102         	19.172         	6.121
MS.103         	19.135         	6.095
MS.104         	19.097         	6.115
MS.105         	19.057         	6.103
MS.106         	19.02          	6.111
MS.107         	18.983         	6.079
MS.108         	18.945         	6.101
MS.109         	18.907         	6.081
MS.110         	18.87          	6.101
MS.111         	18.83          	6.099
MS.112         	18.792         	6.113
MS.113         	18.755         	6.101
MS.114         	18.717         	6.109
MS.115         	18.68          	6.089
MS.116         	18.645         	6.115
MS.117         	18.608         	6.135
MS.118         	18.57          	6.075
MS.119         	18.532         	6.051
MS.120         	18.495         	6.089
MS.121         	18.458         	6.101
MS.122         	18.422         	6.073
MS.123         	18.385         	6.115
MS.124         	18.347         	6.077
MS.125         	18.31          	6.004
MS.126         	18.275         	6.063
MS.127         	18.237         	5.95
MS.128         	18.202         	5.984
MS.129         	18.165         	6.01
MS.130         	18.13          	5.958
MS.131         	18.092         	5.98
MS.132         	18.057         	5.966
MS.133         	18.02          	5.992
MS.134         	17.985         	5.954
MS.135         	17.948         	6.002
MS.136         	17.913         	5.93
MS.137         	17.878         	5.968
MS.138         	17.84          	5.952
MS.139         	17.805         	5.936
MS.140         	17.77          	5.857
MS.141         	17.735         	5.922
MS.142         	17.7           	5.914
MS.143         	17.663         	5.908
MS.144         	17.628         	5.861
MS.145         	17.592         	5.91
MS.146         	17.557         	5.895
MS.147         	17.522         	5.843
MS.148         	17.487         	5.835
MS.149         	17.452         	5.833
MS.150         	17.417         	5.867
MS.151         	17.382         	5.825
MS.152         	17.347         	5.789
MS.153         	17.315         	5.849
MS.154         	17.28          	5.831
MS.155         	17.245         	5.744
MS.156         	17.21          	5.777
MS.157         	17.175         	5.773
MS.158         	17.142         	5.752
MS.159         	17.108         	5.696
MS.160         	17.073         	5.718
MS.161         	17.04          	5.698
MS.162         	17.005         	5.718
MS.163         	16.97          	5.736
MS.164         	16.938         	5.756
MS.165         	16.903         	5.7
MS.166         	16.87          	5.724
MS.167         	16.835         	5.615
MS.168         	16.802         	5.63
MS.169         	16.767         	5.69
MS.170         	16.735         	5.71
MS.171         	16.702         	5.682
MS.172         	16.667         	5.634
MS.173         	16.635         	5.597
MS.174         	16.602         	5.67
MS.175         	16.567         	5.626
MS.176         	16.535         	5.605
MS.177         	16.503         	5.553
MS.178         	16.47          	5.531
MS.179         	16.438         	5.521
MS.180         	16.405         	5.561
MS.181         	16.37          	5.487
MS.182         	16.337         	5.549
MS.183         	16.305         	5.497
MS.184         	16.272         	5.452
MS.185         	16.24          	5.319
MS.186         	16.208         	5.434
MS.187         	16.175         	5.422
MS.188         	16.142         	5.412
MS.189         	16.11          	5.36
MS.190         	16.08          	5.301
MS.191         	16.047         	5.422
MS.192         	16.015         	5.39
MS.193         	15.983         	5.203
MS.194         	15.95          	5.307
MS.195         	15.92          	5.265
MS.196         	15.887         	5.315
MS.197         	15.855         	5.313
MS.198         	15.822         	5.438
MS.199         	15.792         	5.146
MS.200         	15.76          	5.19
MS.201         	15.73          	5.1
MS.202         	15.697         	5.1
MS.203         	15.667         	5.261
MS.204         	15.635         	5.142
MS.205         	15.602         	5.041
MS.206         	15.572         	5.152
MS.207         	15.542         	5.06
MS.208         	15.51          	5.07
MS.209         	15.48          	5.021
MS.210         	15.447         	4.892
MS.211         	15.417         	4.965
MS.212         	15.387         	4.941
MS.213         	15.355         	4.943
MS.214         	15.325         	4.832
MS.215         	15.295         	4.681
MS.216         	15.265         	4.828
MS.217         	15.233         	4.88
MS.218         	15.202         	4.85
MS.219         	15.172         	4.786
MS.220         	15.142         	4.699
MS.221         	15.112         	4.77
MS.222         	15.082         	4.717
MS.223         	15.052         	4.753
MS.224         	15.023         	4.679
MS.225         	14.992         	4.554
MS.226         	14.962         	4.598
MS.227         	14.932         	4.562
MS.228         	14.902         	4.723
MS.229         	14.872         	4.59
MS.230         	14.842         	4.498
MS.231         	14.812         	4.546
MS.232         	14.782         	4.455
MS.233         	14.755         	4.445
MS.234         	14.725         	4.383
MS.235         	14.695         	4.3
MS.236         	14.665         	4.363
MS.237         	14.637         	4.391
MS.238         	14.608         	4.441
MS.239         	14.577         	4.365
MS.240         	14.55          	4.302
MS.241         	14.52          	4.365
MS.242         	14.49          	4.272
MS.243         	14.462         	4.341
MS.244         	14.432         	4.26
MS.245         	14.405         	4.22
MS.246         	14.375         	4.244
MS.247         	14.347         	4.189
MS.248         	14.318         	4.252
MS.249         	14.29          	4.151
MS.250         	14.26          	4.234
MS.251         	14.233         	4.129
MS.252         	14.205         	4.063
MS.253         	14.175         	4.057
MS.254         	14.148         	4.079
MS.255         	14.12          	4.028
MS.256         	14.09          	4.032
MS.257         	14.062         	4.018
MS.258         	14.035         	3.966
MS.259         	14.007         	4.022
MS.260         	13.977         	3.863
MS.261         	13.95          	3.879
MS.262         	13.922         	3.795
MS.263         	13.895         	3.837
MS.264         	13.867         	3.857
MS.265         	13.84          	3.716
MS.266         	13.812         	3.728
MS.267         	13.785         	3.615
MS.268         	13.757         	3.636
MS.269         	13.73          	3.672
MS.270         	13.702         	3.74
MS.271         	13.675         	3.559
MS.272         	13.648         	3.585
MS.273         	13.62          	3.442
MS.274         	13.592         	3.569
MS.275         	13.565         	3.529
MS.276         	13.537         	3.394
MS.277         	13.51          	3.346
MS.278         	13.485         	3.317
MS.279         	13.457         	3.37
MS.280         	13.43          	3.38
MS.281         	13.403         	3.37
MS.282         	13.377         	3.184
MS.283         	13.35          	3.366
MS.284         	13.322         	3.196
MS.285         	13.297         	3.303
MS.286         	13.27          	3.162
MS.287         	13.242         	3.201
MS.288         	13.217         	3.16
MS.289         	13.19          	3.201
MS.290         	13.165         	3.142
MS.291         	13.137         	3.102
MS.292         	13.112         	3.138
MS.293         	13.085         	3.047
MS.294         	13.06          	3.029
MS.295         	13.032         	3.005
MS.296         	13.007         	2.987
MS.297         	12.983         	3.029
MS.298         	12.955         	2.973
MS.299         	12.93          	2.979
MS.300         	12.903         	2.896
MS.301         	12.877         	2.872
MS.302         	12.852         	2.838
MS.303         	12.827         	2.786
MS.304         	12.8           	2.671
MS.305         	12.775         	2.844
MS.306         	12.75          	2.729
MS.307         	12.725         	2.757
MS.308         	12.7           	2.723
MS.309         	12.672         	2.685
MS.310         	12.648         	2.584
MS.311         	12.622         	2.586
MS.312         	12.597         	2.528
MS.313         	12.572         	2.606
MS.314         	12.547         	2.614
MS.315         	12.523         	2.526
MS.316         	12.497         	2.538
MS.317         	12.472         	2.524
MS.318         	12.447         	2.419
MS.319         	12.422         	2.449
MS.320         	12.398         	2.389
MS.321         	12.372         	2.403
MS.322         	12.347         	2.322
MS.323         	12.322         	2.401
MS.324         	12.3           	2.272
MS.325         	12.275         	2.326
MS.326         	12.25          	2.199
MS.327         	12.225         	2.195
MS.328         	12.2           	2.107
MS.329         	12.177         	2.133
MS.330         	12.153         	2.105
MS.331         	12.127         	2.123
MS.332         	12.102         	2.02
MS.333         	12.08          	2.103
MS.334         	12.055         	2.036
MS.335         	12.032         	1.986
MS.336         	12.007         	1.913
MS.337         	11.983         	1.966
MS.338         	11.96          	1.926
MS.339         	11.935         	1.801
MS.340         	11.912         	1.954
MS.341         	11.887         	1.873
MS.342         	11.865         	1.819
MS.343         	11.84          	1.799
MS.344         	11.818         	1.793
MS.345         	11.792         	1.66
MS.346         	11.77          	1.678
MS.347         	11.745         	1.587
MS.348         	11.722         	1.609
MS.349         	11.7           	1.664
MS.350         	11.675         	1.527
MS.351         	11.653         	1.579
MS.352         	11.63          	1.549
MS.353         	11.605         	1.49
MS.354         	11.582         	1.454
MS.355         	11.56          	1.45
MS.356         	11.537         	1.505
MS.357         	11.512         	1.331
MS.358         	11.49          	1.414
MS.359         	11.467         	1.341
MS.360         	11.445         	1.249
MS.361         	11.422         	1.285
MS.362         	11.4           	1.283
MS.363         	11.375         	1.233
MS.364         	11.352         	1.213
MS.365         	11.33          	1.182
MS.366         	11.307         	1.158
MS.367         	11.285         	1.144
MS.368         	11.262         	1.078
MS.369         	11.24          	1.078
MS.370         	11.217         	1.057
MS.371         	11.195         	0.991
MS.372         	11.172         	0.965
MS.373         	11.15          	1.051
MS.374         	11.127         	0.931
MS.375         	11.108         	0.997
MS.376         	11.085         	0.89
MS.377         	11.062         	0.929
MS.378         	11.04          	0.882
MS.379         	11.017         	0.834
MS.380         	10.995         	0.808
MS.381         	10.975         	0.747
MS.382         	10.952         	0.779
MS.383         	10.93          	0.802
MS.384         	10.907         	0.755
MS.385         	10.887         	0.727
MS.386         	10.865         	0.794
MS.387         	10.842         	0.723
MS.388         	10.82          	0.667
MS.389         	10.8           	0.649
MS.390         	10.778         	0.578
MS.391         	10.757         	0.544
MS.392         	10.735         	0.651
MS.393         	10.712         	0.588
MS.394         	10.693         	0.522
MS.395         	10.67          	0.55
MS.396         	10.65          	0.558
MS.397         	10.627         	0.514
MS.398         	10.608         	0.471
MS.399         	10.585         	0.497
MS.400         	10.565         	0.5
MS.401         	10.542         	0.493
MS.402         	10.523         	0.485
MS.403         	10.502         	0.477
MS.404         	10.48          	0.524
MS.405         	10.46          	0.487
MS.406         	10.438         	0.453
MS.407         	10.417         	0.443
MS.408         	10.398         	0.409
MS.409         	10.375         	0.385
MS.410         	10.355         	0.409
MS.411         	10.335         	0.397
MS.412         	10.315         	0.387
MS.413         	10.292         	0.407
MS.414         	10.273         	0.348
MS.415         	10.252         	0.373
MS.416         	10.233         	0.383
MS.417         	10.212         	0.373
MS.418         	10.19          	0.292
MS.419         	10.17          	0.348
MS.420         	10.15          	0.314
MS.421         	10.13          	0.322
MS.422         	10.11          	0.302
MS.423         	10.09          	0.26
MS.424         	10.07          	0.282
MS.425         	10.05          	0.26
MS.426         	10.03          	0.27
MS.427         	10.01          	0.264
MS.428         	9.99           	0.246
MS.429         	9.97           	0.238
MS.430         	9.95           	0.207
MS.431         	9.93           	0.25
MS.432         	9.91           	0.22
MS.433         	9.89           	0.224
MS.434         	9.87           	0.234
MS.435         	9.85           	0.23
MS.436         	9.83           	0.216
MS.437         	9.81           	0.197
MS.438         	9.792          	0.226
MS.439         	9.773          	0.214
MS.440         	9.752          	0.183
MS.441         	9.733          	0.141
MS.442         	9.712          	0.149
MS.443         	9.695          	0.191
MS.444         	9.675          	0.167
MS.445         	9.655          	0.143
MS.446         	9.635          	0.157
MS.447         	9.617          	0.137
MS.448         	9.597          	0.127
MS.449         	9.577          	0.125
MS.450         	9.56           	0.137
MS.451         	9.54           	0.149
MS.452         	9.52           	0.113
MS.453         	9.502          	0.127
MS.454         	9.483          	0.135
MS.455         	9.465          	0.085
MS.456         	9.445          	0.109
MS.457         	9.427          	0.087
MS.458         	9.407          	0.107
MS.459         	9.387          	0.097
MS.460         	9.37           	0.075
MS.461         	9.352          	0.127
MS.462         	9.332          	0.097
MS.463         	9.315          	0.058
MS.464         	9.295          	0.089
MS.465         	9.278          	0.064
MS.466         	9.257          	0.064
MS.467         	9.24           	0.07
MS.468         	9.222          	0.06
MS.469         	9.202          	0.07
MS.470         	9.185          	0.042
MS.471         	9.165          	0.044
MS.472         	9.148          	0.036
MS.473         	9.13           	0.05
MS.474         	9.113          	0.038
MS.475         	9.092          	0.052
MS.476         	9.075          	0.04
MS.477         	9.057          	0.048
MS.478         	9.037          	0.044
MS.479         	9.02           	0.036
MS.480         	9.002          	0.044
MS.481         	8.985          	0.04
MS.482         	8.967          	0.046
MS.483         	8.948          	0.032
MS.484         	8.93           	0.044
MS.485         	8.912          	0.038
MS.486         	8.895          	0.034
MS.487         	8.877          	0.042
MS.488         	8.86           	0.034
MS.489         	8.842          	0.014
MS.490         	8.825          	0.022
MS.491         	8.807          	0.022
MS.492         	8.79           	0.02
MS.493         	8.773          	0.022
MS.494         	8.755          	0.02
MS.495         	8.738          	0.018
MS.496         	8.72           	0.008
MS.497         	8.702          	0.008
MS.498         	8.685          	0.004
MS.499         	8.667          	0.002
MS.500         	8.65           	0.01
MS.501         	8.632          	0.016
