File:              	C:\Qtrac\Data\Daniel M Sørensen\MScan multicentre study\Data from centres\Ankara\Processed data\FBC10122C.QZD
Name:              	TR.ANK.NC.5.2
Protocol:          	MSCAN-R2
Date:              	22/1/21
Start time:        	15:47:23
Age:               	33
Sex:               	F
Temperature:
S/R sites:         	TA
NC/disease:        	NC
Operator:          	EB
Comments:
M-SCAN DATA (5.7-1m)
Scanpts: 8, 11, 493, 514
Stim. (mA)     	Amp. (mV)
MS.1           	24             	6.477
MS.2           	24             	6.466
MS.3           	24             	6.483
MS.4           	24             	6.422
MS.5           	24             	6.428
MS.6           	24             	6.448
MS.7           	24             	6.438
MS.8           	24             	6.439
MS.9           	24             	6.437
MS.10          	24             	6.445
MS.11          	24             	6.453
MS.12          	24             	6.455
MS.13          	24             	6.42
MS.14          	24             	6.423
MS.15          	24             	6.398
MS.16          	24             	6.444
MS.17          	24             	6.422
MS.18          	24             	6.421
MS.19          	24             	6.41
MS.20          	24             	6.414
MS.21          	24             	6.44
MS.22          	24             	6.426
MS.23          	23.952         	6.411
MS.24          	23.905         	6.41
MS.25          	23.858         	6.438
MS.26          	23.81          	6.437
MS.27          	23.76          	6.442
MS.28          	23.712         	6.428
MS.29          	23.667         	6.406
MS.30          	23.62          	6.406
MS.31          	23.573         	6.415
MS.32          	23.525         	6.416
MS.33          	23.477         	6.434
MS.34          	23.43          	6.422
MS.35          	23.385         	6.409
MS.36          	23.337         	6.416
MS.37          	23.29          	6.425
MS.38          	23.245         	6.393
MS.39          	23.198         	6.357
MS.40          	23.153         	6.416
MS.41          	23.105         	6.421
MS.42          	23.06          	6.414
MS.43          	23.012         	6.437
MS.44          	22.967         	6.393
MS.45          	22.92          	6.411
MS.46          	22.875         	6.399
MS.47          	22.83          	6.39
MS.48          	22.785         	6.373
MS.49          	22.737         	6.383
MS.50          	22.692         	6.378
MS.51          	22.647         	6.384
MS.52          	22.602         	6.399
MS.53          	22.557         	6.407
MS.54          	22.512         	6.392
MS.55          	22.467         	6.407
MS.56          	22.422         	6.315
MS.57          	22.377         	6.301
MS.58          	22.332         	6.281
MS.59          	22.288         	6.375
MS.60          	22.243         	6.292
MS.61          	22.2           	6.36
MS.62          	22.155         	6.313
MS.63          	22.11          	6.304
MS.64          	22.067         	6.3
MS.65          	22.022         	6.29
MS.66          	21.977         	6.392
MS.67          	21.935         	6.345
MS.68          	21.89          	6.365
MS.69          	21.847         	6.217
MS.70          	21.802         	6.26
MS.71          	21.76          	6.235
MS.72          	21.715         	6.204
MS.73          	21.672         	6.216
MS.74          	21.63          	6.226
MS.75          	21.585         	6.215
MS.76          	21.542         	6.226
MS.77          	21.5           	6.246
MS.78          	21.458         	6.208
MS.79          	21.415         	6.176
MS.80          	21.372         	6.222
MS.81          	21.327         	6.23
MS.82          	21.285         	6.172
MS.83          	21.243         	6.122
MS.84          	21.2           	6.11
MS.85          	21.16          	6.121
MS.86          	21.118         	6.102
MS.87          	21.075         	6.141
MS.88          	21.032         	6.156
MS.89          	20.99          	6.155
MS.90          	20.948         	6.128
MS.91          	20.907         	6.079
MS.92          	20.865         	6.044
MS.93          	20.823         	6.128
MS.94          	20.782         	6.139
MS.95          	20.74          	6.041
MS.96          	20.698         	6.036
MS.97          	20.657         	6.052
MS.98          	20.615         	6.083
MS.99          	20.575         	6.034
MS.100         	20.532         	6.119
MS.101         	20.493         	6.006
MS.102         	20.452         	5.997
MS.103         	20.41          	6.035
MS.104         	20.37          	6.034
MS.105         	20.33          	5.985
MS.106         	20.288         	6.007
MS.107         	20.247         	6.005
MS.108         	20.208         	5.964
MS.109         	20.167         	6.007
MS.110         	20.127         	5.98
MS.111         	20.087         	5.928
MS.112         	20.047         	5.92
MS.113         	20.007         	5.92
MS.114         	19.967         	5.95
MS.115         	19.927         	5.906
MS.116         	19.887         	5.9
MS.117         	19.847         	5.884
MS.118         	19.807         	5.842
MS.119         	19.767         	5.78
MS.120         	19.727         	5.845
MS.121         	19.69          	5.887
MS.122         	19.65          	5.765
MS.123         	19.61          	5.863
MS.124         	19.57          	5.813
MS.125         	19.532         	5.823
MS.126         	19.493         	5.784
MS.127         	19.455         	5.807
MS.128         	19.415         	5.73
MS.129         	19.377         	5.818
MS.130         	19.337         	5.742
MS.131         	19.3           	5.681
MS.132         	19.26          	5.686
MS.133         	19.222         	5.669
MS.134         	19.182         	5.692
MS.135         	19.145         	5.691
MS.136         	19.108         	5.68
MS.137         	19.07          	5.64
MS.138         	19.03          	5.562
MS.139         	18.993         	5.627
MS.140         	18.955         	5.613
MS.141         	18.917         	5.631
MS.142         	18.88          	5.543
MS.143         	18.842         	5.518
MS.144         	18.802         	5.538
MS.145         	18.765         	5.619
MS.146         	18.727         	5.56
MS.147         	18.69          	5.519
MS.148         	18.655         	5.48
MS.149         	18.618         	5.449
MS.150         	18.58          	5.507
MS.151         	18.542         	5.388
MS.152         	18.505         	5.485
MS.153         	18.467         	5.372
MS.154         	18.432         	5.415
MS.155         	18.395         	5.438
MS.156         	18.358         	5.35
MS.157         	18.32          	5.299
MS.158         	18.285         	5.33
MS.159         	18.247         	5.348
MS.160         	18.212         	5.411
MS.161         	18.175         	5.337
MS.162         	18.14          	5.232
MS.163         	18.102         	5.326
MS.164         	18.067         	5.284
MS.165         	18.03          	5.188
MS.166         	17.995         	5.402
MS.167         	17.958         	5.178
MS.168         	17.922         	5.133
MS.169         	17.887         	5.051
MS.170         	17.85          	5.175
MS.171         	17.815         	5.101
MS.172         	17.78          	5.035
MS.173         	17.745         	4.955
MS.174         	17.708         	4.863
MS.175         	17.672         	4.807
MS.176         	17.637         	4.832
MS.177         	17.602         	4.979
MS.178         	17.567         	4.779
MS.179         	17.532         	4.821
MS.180         	17.497         	4.636
MS.181         	17.462         	4.718
MS.182         	17.427         	4.758
MS.183         	17.392         	4.722
MS.184         	17.358         	4.739
MS.185         	17.323         	4.686
MS.186         	17.288         	4.564
MS.187         	17.255         	4.635
MS.188         	17.22          	4.639
MS.189         	17.185         	4.634
MS.190         	17.15          	4.604
MS.191         	17.118         	4.53
MS.192         	17.083         	4.47
MS.193         	17.047         	4.495
MS.194         	17.015         	4.507
MS.195         	16.98          	4.486
MS.196         	16.948         	4.46
MS.197         	16.913         	4.395
MS.198         	16.878         	4.352
MS.199         	16.845         	4.36
MS.200         	16.812         	4.314
MS.201         	16.778         	4.276
MS.202         	16.745         	4.348
MS.203         	16.71          	4.277
MS.204         	16.677         	4.301
MS.205         	16.645         	4.16
MS.206         	16.61          	4.111
MS.207         	16.577         	4.224
MS.208         	16.545         	4.137
MS.209         	16.512         	4.138
MS.210         	16.477         	4.047
MS.211         	16.445         	3.978
MS.212         	16.413         	4.127
MS.213         	16.38          	3.97
MS.214         	16.347         	4.001
MS.215         	16.315         	3.904
MS.216         	16.282         	3.782
MS.217         	16.25          	3.981
MS.218         	16.217         	3.955
MS.219         	16.185         	3.687
MS.220         	16.153         	3.75
MS.221         	16.12          	3.792
MS.222         	16.087         	3.739
MS.223         	16.055         	3.712
MS.224         	16.022         	3.789
MS.225         	15.992         	3.685
MS.226         	15.96          	3.639
MS.227         	15.927         	3.564
MS.228         	15.895         	3.615
MS.229         	15.865         	3.553
MS.230         	15.832         	3.369
MS.231         	15.8           	3.53
MS.232         	15.77          	3.459
MS.233         	15.737         	3.4
MS.234         	15.705         	3.254
MS.235         	15.675         	3.369
MS.236         	15.642         	3.257
MS.237         	15.612         	3.322
MS.238         	15.58          	3.198
MS.239         	15.55          	3.201
MS.240         	15.52          	3.138
MS.241         	15.487         	3.151
MS.242         	15.457         	3.052
MS.243         	15.425         	3.002
MS.244         	15.395         	3.121
MS.245         	15.365         	3.094
MS.246         	15.332         	3.031
MS.247         	15.302         	2.874
MS.248         	15.273         	2.826
MS.249         	15.242         	2.878
MS.250         	15.212         	2.866
MS.251         	15.18          	2.744
MS.252         	15.15          	2.852
MS.253         	15.12          	2.783
MS.254         	15.09          	2.704
MS.255         	15.06          	2.646
MS.256         	15.03          	2.656
MS.257         	15             	2.612
MS.258         	14.97          	2.648
MS.259         	14.94          	2.45
MS.260         	14.91          	2.479
MS.261         	14.88          	2.285
MS.262         	14.85          	2.308
MS.263         	14.82          	2.45
MS.264         	14.792         	2.421
MS.265         	14.762         	2.383
MS.266         	14.733         	2.263
MS.267         	14.702         	2.285
MS.268         	14.672         	2.246
MS.269         	14.645         	2.288
MS.270         	14.615         	2.18
MS.271         	14.585         	2.255
MS.272         	14.557         	2.153
MS.273         	14.527         	2.148
MS.274         	14.497         	2.168
MS.275         	14.47          	2.106
MS.276         	14.44          	1.98
MS.277         	14.412         	2.117
MS.278         	14.382         	2.095
MS.279         	14.355         	2.036
MS.280         	14.325         	1.995
MS.281         	14.297         	1.935
MS.282         	14.267         	1.919
MS.283         	14.24          	1.895
MS.284         	14.212         	1.93
MS.285         	14.182         	1.857
MS.286         	14.155         	1.892
MS.287         	14.127         	1.849
MS.288         	14.097         	1.814
MS.289         	14.07          	1.798
MS.290         	14.042         	1.715
MS.291         	14.015         	1.727
MS.292         	13.985         	1.665
MS.293         	13.957         	1.726
MS.294         	13.93          	1.661
MS.295         	13.903         	1.633
MS.296         	13.875         	1.646
MS.297         	13.847         	1.53
MS.298         	13.82          	1.493
MS.299         	13.792         	1.439
MS.300         	13.765         	1.401
MS.301         	13.737         	1.338
MS.302         	13.71          	1.267
MS.303         	13.682         	1.294
MS.304         	13.655         	1.267
MS.305         	13.627         	1.237
MS.306         	13.6           	1.207
MS.307         	13.572         	1.168
MS.308         	13.545         	1.143
MS.309         	13.517         	1.095
MS.310         	13.492         	1.146
MS.311         	13.465         	1.034
MS.312         	13.438         	1.022
MS.313         	13.41          	0.957
MS.314         	13.385         	1.052
MS.315         	13.358         	0.879
MS.316         	13.33          	0.89
MS.317         	13.305         	0.917
MS.318         	13.278         	0.907
MS.319         	13.25          	0.868
MS.320         	13.225         	0.824
MS.321         	13.197         	0.835
MS.322         	13.172         	0.793
MS.323         	13.145         	0.848
MS.324         	13.12          	0.735
MS.325         	13.092         	0.67
MS.326         	13.068         	0.723
MS.327         	13.04          	0.658
MS.328         	13.015         	0.657
MS.329         	12.987         	0.663
MS.330         	12.962         	0.614
MS.331         	12.938         	0.621
MS.332         	12.91          	0.594
MS.333         	12.885         	0.618
MS.334         	12.86          	0.563
MS.335         	12.832         	0.602
MS.336         	12.807         	0.548
MS.337         	12.782         	0.518
MS.338         	12.757         	0.627
MS.339         	12.73          	0.53
MS.340         	12.705         	0.497
MS.341         	12.68          	0.513
MS.342         	12.655         	0.538
MS.343         	12.63          	0.504
MS.344         	12.605         	0.49
MS.345         	12.58          	0.491
MS.346         	12.555         	0.439
MS.347         	12.53          	0.417
MS.348         	12.505         	0.443
MS.349         	12.48          	0.41
MS.350         	12.455         	0.443
MS.351         	12.43          	0.408
MS.352         	12.405         	0.42
MS.353         	12.38          	0.364
MS.354         	12.355         	0.344
MS.355         	12.33          	0.381
MS.356         	12.305         	0.314
MS.357         	12.28          	0.299
MS.358         	12.257         	0.319
MS.359         	12.233         	0.333
MS.360         	12.207         	0.304
MS.361         	12.182         	0.283
MS.362         	12.16          	0.251
MS.363         	12.135         	0.248
MS.364         	12.11          	0.258
MS.365         	12.085         	0.253
MS.366         	12.062         	0.243
MS.367         	12.037         	0.239
MS.368         	12.015         	0.216
MS.369         	11.99          	0.215
MS.370         	11.965         	0.238
MS.371         	11.943         	0.221
MS.372         	11.917         	0.24
MS.373         	11.895         	0.233
MS.374         	11.87          	0.237
MS.375         	11.847         	0.181
MS.376         	11.822         	0.219
MS.377         	11.8           	0.227
MS.378         	11.775         	0.214
MS.379         	11.752         	0.197
MS.380         	11.73          	0.182
MS.381         	11.705         	0.17
MS.382         	11.682         	0.186
MS.383         	11.657         	0.17
MS.384         	11.635         	0.178
MS.385         	11.613         	0.17
MS.386         	11.59          	0.155
MS.387         	11.565         	0.137
MS.388         	11.542         	0.143
MS.389         	11.52          	0.162
MS.390         	11.497         	0.162
MS.391         	11.472         	0.153
MS.392         	11.45          	0.142
MS.393         	11.427         	0.121
MS.394         	11.405         	0.122
MS.395         	11.382         	0.149
MS.396         	11.36          	0.122
MS.397         	11.337         	0.111
MS.398         	11.315         	0.129
MS.399         	11.292         	0.121
MS.400         	11.27          	0.128
MS.401         	11.247         	0.107
MS.402         	11.225         	0.106
MS.403         	11.202         	0.1
MS.404         	11.18          	0.092
MS.405         	11.157         	0.099
MS.406         	11.135         	0.089
MS.407         	11.113         	0.09
MS.408         	11.09          	0.096
MS.409         	11.068         	0.09
MS.410         	11.045         	0.089
MS.411         	11.025         	0.094
MS.412         	11.002         	0.067
MS.413         	10.98          	0.073
MS.414         	10.957         	0.093
MS.415         	10.935         	0.084
MS.416         	10.915         	0.059
MS.417         	10.892         	0.065
MS.418         	10.87          	0.081
MS.419         	10.85          	0.068
MS.420         	10.827         	0.071
MS.421         	10.805         	0.07
MS.422         	10.785         	0.06
MS.423         	10.762         	0.026
MS.424         	10.74          	0.039
MS.425         	10.72          	0.038
MS.426         	10.698         	0.056
MS.427         	10.677         	0.05
MS.428         	10.655         	0.028
MS.429         	10.635         	0.044
MS.430         	10.613         	0.037
MS.431         	10.592         	0.027
MS.432         	10.57          	0.037
MS.433         	10.55          	0.034
MS.434         	10.528         	0.031
MS.435         	10.507         	0.049
MS.436         	10.485         	0.007
MS.437         	10.465         	0.039
MS.438         	10.445         	0.045
MS.439         	10.422         	0.034
MS.440         	10.403         	0.031
MS.441         	10.382         	0.028
MS.442         	10.36          	0.043
MS.443         	10.34          	0.01
MS.444         	10.32          	0.038
MS.445         	10.3           	0.007
MS.446         	10.278         	0.028
MS.447         	10.257         	0.029
MS.448         	10.238         	0.029
MS.449         	10.217         	0.033
MS.450         	10.198         	0.007
MS.451         	10.175         	0.031
MS.452         	10.155         	0.032
MS.453         	10.135         	0.032
MS.454         	10.115         	0.015
MS.455         	10.095         	0.007
MS.456         	10.075         	0.034
MS.457         	10.055         	0.033
MS.458         	10.035         	0.034
MS.459         	10.015         	0.011
MS.460         	9.995          	0.011
MS.461         	9.975          	0.01
MS.462         	9.955          	0.009
MS.463         	9.935          	0.022
MS.464         	9.915          	0.011
MS.465         	9.895          	0.006
MS.466         	9.875          	0.01
MS.467         	9.855          	0.006
MS.468         	9.835          	0.011
MS.469         	9.818          	0.011
MS.470         	9.797          	0.009
MS.471         	9.778          	0.007
MS.472         	9.757          	0.011
MS.473         	9.738          	0.009
MS.474         	9.717          	0.011
MS.475         	9.7            	0.011
MS.476         	9.68           	0.009
MS.477         	9.66           	0.009
MS.478         	9.642          	0.009
MS.479         	9.622          	0.009
MS.480         	9.602          	0.007
MS.481         	9.582          	0.009
MS.482         	9.565          	0.01
MS.483         	9.545          	0.01
MS.484         	9.528          	0.007
MS.485         	9.507          	0.007
MS.486         	9.488          	0.01
MS.487         	9.47           	0.007
MS.488         	9.45           	0.011
MS.489         	9.432          	0.01
MS.490         	9.412          	0.009
MS.491         	9.395          	0.01
MS.492         	9.375          	0.01
MS.493         	9.358          	0.009
MS.494         	9.337          	0.006
MS.495         	9.32           	0.007
MS.496         	9.3            	0.007
MS.497         	9.283          	0.01
MS.498         	9.262          	0.009
MS.499         	9.245          	0.007
MS.500         	9.227          	0.007
MS.501         	9.207          	0.009
MS.502         	9.19           	0.009
