File:              	C:\Qtrac\Data\Daniel M Sørensen\MScan multicentre study\Data from centres\Ankara\Processed data\HEBC01204B.QZD
Name:              	TR.ANK.NC.4.2
Protocol:          	MSCAN-R2
Date:              	4/12/20
Start time:        	13:06:42
Age:               	38
Sex:               	M
Temperature:
S/R sites:         	TA
NC/disease:        	NC
Operator:          	HA
Comments:
M-SCAN DATA (9-3.9m)
Scanpts: 5, 10, 541, 563
Stim. (mA)     	Amp. (mV)
MS.1           	21             	4.751
MS.2           	21             	4.721
MS.3           	21             	4.719
MS.4           	21             	4.778
MS.5           	21             	4.665
MS.6           	21             	4.749
MS.7           	21             	4.719
MS.8           	21             	4.717
MS.9           	21             	4.735
MS.10          	21             	4.699
MS.11          	21             	4.695
MS.12          	21             	4.715
MS.13          	21             	4.701
MS.14          	21             	4.659
MS.15          	21             	4.766
MS.16          	21             	4.715
MS.17          	21             	4.6
MS.18          	21             	4.687
MS.19          	21             	4.786
MS.20          	21             	4.745
MS.21          	21             	4.657
MS.22          	21             	4.691
MS.23          	21             	4.717
MS.24          	20.958         	4.729
MS.25          	20.915         	4.629
MS.26          	20.875         	4.657
MS.27          	20.833         	4.709
MS.28          	20.79          	4.681
MS.29          	20.75          	4.697
MS.30          	20.708         	4.679
MS.31          	20.667         	4.679
MS.32          	20.625         	4.504
MS.33          	20.585         	4.689
MS.34          	20.542         	4.681
MS.35          	20.502         	4.62
MS.36          	20.46          	4.57
MS.37          	20.42          	4.56
MS.38          	20.38          	4.673
MS.39          	20.337         	4.649
MS.40          	20.297         	4.639
MS.41          	20.257         	4.453
MS.42          	20.217         	4.578
MS.43          	20.177         	4.604
MS.44          	20.137         	4.556
MS.45          	20.095         	4.526
MS.46          	20.055         	4.657
MS.47          	20.015         	4.526
MS.48          	19.975         	4.604
MS.49          	19.935         	4.661
MS.50          	19.895         	4.538
MS.51          	19.858         	4.369
MS.52          	19.817         	3.642
MS.53          	19.778         	3.277
MS.54          	19.737         	3.146
MS.55          	19.698         	3.279
MS.56          	19.66          	3.436
MS.57          	19.62          	4.524
MS.58          	19.58          	4.437
MS.59          	19.54          	4.494
MS.60          	19.502         	4.403
MS.61          	19.462         	4.479
MS.62          	19.425         	4.397
MS.63          	19.385         	4.411
MS.64          	19.347         	4.288
MS.65          	19.307         	4.278
MS.66          	19.27          	4.079
MS.67          	19.23          	4.324
MS.68          	19.192         	4.393
MS.69          	19.155         	4.314
MS.70          	19.115         	4.492
MS.71          	19.077         	4.334
MS.72          	19.04          	4.371
MS.73          	19.002         	4.328
MS.74          	18.962         	4.226
MS.75          	18.925         	4.212
MS.76          	18.887         	4.286
MS.77          	18.85          	4.324
MS.78          	18.812         	4.21
MS.79          	18.775         	4.228
MS.80          	18.737         	4.2
MS.81          	18.7           	4.03
MS.82          	18.663         	4.022
MS.83          	18.625         	4.02
MS.84          	18.587         	4.204
MS.85          	18.55          	4.159
MS.86          	18.515         	4.173
MS.87          	18.477         	4.165
MS.88          	18.44          	4.123
MS.89          	18.403         	4.139
MS.90          	18.368         	4.204
MS.91          	18.33          	4.165
MS.92          	18.292         	4.115
MS.93          	18.257         	4.179
MS.94          	18.22          	3.966
MS.95          	18.182         	4.03
MS.96          	18.147         	4.008
MS.97          	18.11          	3.901
MS.98          	18.075         	3.962
MS.99          	18.04          	3.938
MS.100         	18.003         	3.974
MS.101         	17.967         	3.823
MS.102         	17.93          	3.676
MS.103         	17.895         	3.787
MS.104         	17.86          	3.795
MS.105         	17.823         	3.871
MS.106         	17.788         	3.644
MS.107         	17.753         	3.73
MS.108         	17.717         	3.889
MS.109         	17.682         	3.728
MS.110         	17.645         	3.565
MS.111         	17.61          	3.716
MS.112         	17.575         	3.754
MS.113         	17.54          	3.599
MS.114         	17.505         	3.644
MS.115         	17.47          	3.664
MS.116         	17.435         	3.71
MS.117         	17.4           	3.567
MS.118         	17.365         	3.545
MS.119         	17.333         	3.468
MS.120         	17.297         	3.539
MS.121         	17.262         	3.472
MS.122         	17.227         	3.47
MS.123         	17.192         	3.503
MS.124         	17.16          	3.523
MS.125         	17.125         	3.44
MS.126         	17.09          	3.358
MS.127         	17.057         	3.325
MS.128         	17.022         	3.458
MS.129         	16.987         	3.388
MS.130         	16.955         	3.39
MS.131         	16.92          	3.291
MS.132         	16.887         	3.307
MS.133         	16.852         	3.233
MS.134         	16.82          	3.311
MS.135         	16.785         	3.176
MS.136         	16.753         	3.281
MS.137         	16.717         	3.092
MS.138         	16.685         	3.275
MS.139         	16.653         	3.16
MS.140         	16.618         	3.134
MS.141         	16.585         	3.215
MS.142         	16.552         	3.201
MS.143         	16.52          	3.11
MS.144         	16.485         	3.09
MS.145         	16.452         	3.106
MS.146         	16.42          	3.1
MS.147         	16.387         	3.005
MS.148         	16.355         	3.005
MS.149         	16.323         	2.917
MS.150         	16.29          	3.037
MS.151         	16.257         	3.005
MS.152         	16.225         	2.908
MS.153         	16.192         	2.977
MS.154         	16.16          	2.846
MS.155         	16.128         	2.908
MS.156         	16.095         	2.798
MS.157         	16.062         	2.886
MS.158         	16.03          	2.745
MS.159         	16             	2.808
MS.160         	15.967         	2.649
MS.161         	15.935         	2.614
MS.162         	15.902         	2.612
MS.163         	15.872         	2.602
MS.164         	15.84          	2.637
MS.165         	15.807         	2.481
MS.166         	15.777         	2.522
MS.167         	15.745         	2.461
MS.168         	15.712         	2.401
MS.169         	15.682         	2.485
MS.170         	15.65          	2.403
MS.171         	15.62          	2.459
MS.172         	15.587         	2.349
MS.173         	15.557         	2.492
MS.174         	15.525         	2.238
MS.175         	15.495         	2.346
MS.176         	15.465         	2.218
MS.177         	15.432         	2.33
MS.178         	15.402         	2.189
MS.179         	15.372         	2.21
MS.180         	15.34          	2.24
MS.181         	15.31          	2.036
MS.182         	15.28          	2.242
MS.183         	15.25          	2.103
MS.184         	15.217         	1.982
MS.185         	15.188         	1.954
MS.186         	15.157         	1.994
MS.187         	15.127         	2.018
MS.188         	15.097         	1.903
MS.189         	15.068         	1.851
MS.190         	15.037         	2.004
MS.191         	15.007         	1.785
MS.192         	14.977         	1.819
MS.193         	14.947         	1.827
MS.194         	14.917         	1.772
MS.195         	14.887         	1.905
MS.196         	14.858         	1.785
MS.197         	14.827         	1.674
MS.198         	14.797         	1.664
MS.199         	14.77          	1.67
MS.200         	14.74          	1.74
MS.201         	14.71          	1.674
MS.202         	14.68          	1.698
MS.203         	14.65          	1.656
MS.204         	14.622         	1.644
MS.205         	14.592         	1.625
MS.206         	14.562         	1.603
MS.207         	14.535         	1.541
MS.208         	14.505         	1.553
MS.209         	14.477         	1.531
MS.210         	14.447         	1.519
MS.211         	14.417         	1.45
MS.212         	14.39          	1.48
MS.213         	14.36          	1.492
MS.214         	14.332         	1.45
MS.215         	14.305         	1.509
MS.216         	14.275         	1.507
MS.217         	14.247         	1.488
MS.218         	14.217         	1.356
MS.219         	14.19          	1.438
MS.220         	14.162         	1.394
MS.221         	14.132         	1.366
MS.222         	14.105         	1.349
MS.223         	14.077         	1.339
MS.224         	14.047         	1.356
MS.225         	14.02          	1.331
MS.226         	13.992         	1.301
MS.227         	13.965         	1.243
MS.228         	13.938         	1.221
MS.229         	13.91          	1.277
MS.230         	13.88          	1.237
MS.231         	13.852         	1.253
MS.232         	13.825         	1.158
MS.233         	13.797         	1.188
MS.234         	13.77          	1.128
MS.235         	13.742         	1.138
MS.236         	13.715         	1.08
MS.237         	13.688         	1.017
MS.238         	13.66          	1.088
MS.239         	13.632         	1.122
MS.240         	13.605         	0.999
MS.241         	13.58          	0.995
MS.242         	13.552         	1.055
MS.243         	13.525         	1.023
MS.244         	13.497         	0.979
MS.245         	13.47          	0.922
MS.246         	13.445         	0.874
MS.247         	13.417         	0.973
MS.248         	13.39          	0.896
MS.249         	13.362         	0.91
MS.250         	13.337         	0.904
MS.251         	13.31          	0.858
MS.252         	13.282         	0.947
MS.253         	13.257         	0.792
MS.254         	13.23          	0.858
MS.255         	13.205         	0.856
MS.256         	13.177         	0.9
MS.257         	13.153         	0.709
MS.258         	13.125         	0.709
MS.259         	13.1           	0.755
MS.260         	13.072         	0.779
MS.261         	13.047         	0.641
MS.262         	13.02          	0.651
MS.263         	12.995         	0.566
MS.264         	12.967         	0.634
MS.265         	12.943         	0.691
MS.266         	12.917         	0.626
MS.267         	12.89          	0.59
MS.268         	12.865         	0.62
MS.269         	12.84          	0.584
MS.270         	12.815         	0.524
MS.271         	12.787         	0.572
MS.272         	12.762         	0.526
MS.273         	12.738         	0.514
MS.274         	12.712         	0.518
MS.275         	12.688         	0.465
MS.276         	12.66          	0.427
MS.277         	12.635         	0.421
MS.278         	12.61          	0.487
MS.279         	12.585         	0.463
MS.280         	12.56          	0.401
MS.281         	12.535         	0.397
MS.282         	12.51          	0.469
MS.283         	12.485         	0.417
MS.284         	12.46          	0.399
MS.285         	12.435         	0.365
MS.286         	12.41          	0.385
MS.287         	12.385         	0.425
MS.288         	12.36          	0.328
MS.289         	12.335         	0.399
MS.290         	12.312         	0.326
MS.291         	12.287         	0.324
MS.292         	12.262         	0.357
MS.293         	12.238         	0.296
MS.294         	12.212         	0.369
MS.295         	12.19          	0.266
MS.296         	12.165         	0.338
MS.297         	12.14          	0.25
MS.298         	12.115         	0.272
MS.299         	12.092         	0.282
MS.300         	12.068         	0.26
MS.301         	12.042         	0.224
MS.302         	12.02          	0.262
MS.303         	11.995         	0.264
MS.304         	11.972         	0.216
MS.305         	11.947         	0.199
MS.306         	11.922         	0.195
MS.307         	11.9           	0.173
MS.308         	11.875         	0.165
MS.309         	11.852         	0.193
MS.310         	11.827         	0.195
MS.311         	11.805         	0.163
MS.312         	11.782         	0.151
MS.313         	11.757         	0.147
MS.314         	11.735         	0.143
MS.315         	11.71          	0.161
MS.316         	11.688         	0.165
MS.317         	11.665         	0.127
MS.318         	11.64          	0.135
MS.319         	11.617         	0.121
MS.320         	11.595         	0.127
MS.321         	11.57          	0.111
MS.322         	11.547         	0.151
MS.323         	11.525         	0.129
MS.324         	11.502         	0.101
MS.325         	11.48          	0.091
MS.326         	11.455         	0.105
MS.327         	11.432         	0.117
MS.328         	11.41          	0.113
MS.329         	11.387         	0.083
MS.330         	11.365         	0.085
MS.331         	11.342         	0.081
MS.332         	11.32          	0.06
MS.333         	11.297         	0.079
MS.334         	11.275         	0.066
MS.335         	11.252         	0.056
MS.336         	11.23          	0.064
MS.337         	11.207         	0.075
MS.338         	11.185         	0.068
MS.339         	11.162         	0.079
MS.340         	11.14          	0.064
MS.341         	11.117         	0.064
MS.342         	11.095         	0.06
MS.343         	11.073         	0.052
MS.344         	11.05          	0.056
MS.345         	11.03          	0.058
MS.346         	11.007         	0.054
MS.347         	10.985         	0.052
MS.348         	10.962         	0.048
MS.349         	10.94          	0.056
MS.350         	10.92          	0.058
MS.351         	10.898         	0.056
MS.352         	10.875         	0.056
MS.353         	10.855         	0.046
MS.354         	10.832         	0.046
MS.355         	10.81          	0.064
MS.356         	10.79          	0.054
MS.357         	10.767         	0.048
MS.358         	10.745         	0.05
MS.359         	10.725         	0.05
MS.360         	10.702         	0.056
MS.361         	10.682         	0.056
MS.362         	10.66          	0.046
MS.363         	10.64          	0.046
MS.364         	10.617         	0.052
MS.365         	10.597         	0.056
MS.366         	10.575         	0.05
MS.367         	10.555         	0.058
MS.368         	10.532         	0.056
MS.369         	10.512         	0.052
MS.370         	10.49          	0.05
MS.371         	10.47          	0.048
MS.372         	10.45          	0.05
MS.373         	10.427         	0.05
MS.374         	10.407         	0.052
MS.375         	10.387         	0.048
MS.376         	10.365         	0.048
MS.377         	10.345         	0.044
MS.378         	10.325         	0.048
MS.379         	10.305         	0.05
MS.380         	10.282         	0.056
MS.381         	10.262         	0.044
MS.382         	10.242         	0.048
MS.383         	10.222         	0.05
MS.384         	10.202         	0.05
MS.385         	10.18          	0.054
MS.386         	10.16          	0.05
MS.387         	10.14          	0.05
MS.388         	10.12          	0.05
MS.389         	10.1           	0.05
MS.390         	10.08          	0.046
MS.391         	10.06          	0.05
MS.392         	10.04          	0.054
MS.393         	10.02          	0.054
MS.394         	10             	0.048
MS.395         	9.98           	0.046
MS.396         	9.96           	0.056
MS.397         	9.94           	0.052
MS.398         	9.92           	0.054
MS.399         	9.9            	0.052
MS.400         	9.88           	0.044
MS.401         	9.86           	0.052
MS.402         	9.84           	0.05
MS.403         	9.82           	0.044
MS.404         	9.802          	0.048
MS.405         	9.782          	0.048
MS.406         	9.762          	0.046
MS.407         	9.742          	0.046
MS.408         	9.722          	0.05
MS.409         	9.705          	0.048
MS.410         	9.685          	0.054
MS.411         	9.665          	0.052
MS.412         	9.645          	0.048
MS.413         	9.627          	0.048
MS.414         	9.608          	0.048
MS.415         	9.587          	0.048
MS.416         	9.57           	0.05
MS.417         	9.55           	0.05
MS.418         	9.53           	0.046
MS.419         	9.512          	0.052
MS.420         	9.492          	0.042
MS.421         	9.472          	0.046
MS.422         	9.455          	0.046
MS.423         	9.435          	0.048
MS.424         	9.417          	0.048
MS.425         	9.398          	0.048
MS.426         	9.38           	0.046
MS.427         	9.36           	0.046
MS.428         	9.342          	0.04
MS.429         	9.323          	0.048
MS.430         	9.305          	0.044
MS.431         	9.285          	0.048
MS.432         	9.267          	0.042
MS.433         	9.25           	0.046
MS.434         	9.23           	0.042
MS.435         	9.212          	0.046
MS.436         	9.193          	0.04
MS.437         	9.175          	0.048
MS.438         	9.158          	0.044
MS.439         	9.137          	0.044
MS.440         	9.12           	0.042
MS.441         	9.102          	0.042
MS.442         	9.085          	0.036
MS.443         	9.065          	0.04
MS.444         	9.047          	0.044
MS.445         	9.03           	0.038
MS.446         	9.012          	0.04
MS.447         	8.992          	0.044
MS.448         	8.975          	0.042
MS.449         	8.957          	0.04
MS.450         	8.94           	0.042
MS.451         	8.922          	0.042
MS.452         	8.905          	0.044
MS.453         	8.887          	0.046
MS.454         	8.867          	0.04
MS.455         	8.85           	0.04
MS.456         	8.832          	0.044
MS.457         	8.815          	0.042
MS.458         	8.797          	0.036
MS.459         	8.78           	0.04
MS.460         	8.762          	0.046
MS.461         	8.745          	0.04
MS.462         	8.727          	0.038
MS.463         	8.71           	0.042
MS.464         	8.693          	0.04
MS.465         	8.675          	0.034
MS.466         	8.658          	0.038
MS.467         	8.64           	0.038
MS.468         	8.625          	0.036
MS.469         	8.608          	0.042
MS.470         	8.59           	0.032
MS.471         	8.573          	0.04
MS.472         	8.555          	0.036
MS.473         	8.537          	0.036
MS.474         	8.52           	0.038
MS.475         	8.505          	0.042
MS.476         	8.488          	0.03
MS.477         	8.47           	0.038
MS.478         	8.452          	0.036
MS.479         	8.435          	0.036
MS.480         	8.42           	0.034
MS.481         	8.403          	0.036
MS.482         	8.385          	0.038
MS.483         	8.37           	0.042
MS.484         	8.352          	0.04
MS.485         	8.335          	0.034
MS.486         	8.32           	0.036
MS.487         	8.302          	0.038
MS.488         	8.285          	0.036
MS.489         	8.27           	0.034
MS.490         	8.252          	0.038
MS.491         	8.235          	0.032
MS.492         	8.22           	0.034
MS.493         	8.202          	0.032
MS.494         	8.188          	0.038
MS.495         	8.17           	0.032
MS.496         	8.155          	0.034
MS.497         	8.137          	0.026
MS.498         	8.122          	0.03
MS.499         	8.105          	0.038
MS.500         	8.09           	0.036
MS.501         	8.073          	0.032
MS.502         	8.057          	0.028
