File:              	C:\Qtrac\Data\Daniel M Sørensen\MScan multicentre study\Data from centres\Ankara\Processed data\HKC10114C.QZD
Name:              	TR.ANK.NC.8.1
Protocol:          	MSCAN-R2
Date:              	14/1/21
Start time:        	18:15:28
Age:               	25
Sex:               	F
Temperature:
S/R sites:         	TA
NC/disease:        	NC
Operator:          	HA
Comments:
M-SCAN DATA (7.1-1.9m)
Scanpts: 5, 9, 547, 564
Stim. (mA)     	Amp. (mV)
MS.1           	42             	3.583
MS.2           	42             	3.571
MS.3           	42             	3.509
MS.4           	42             	3.525
MS.5           	42             	3.539
MS.6           	42             	3.525
MS.7           	42             	3.573
MS.8           	42             	3.539
MS.9           	42             	3.565
MS.10          	42             	3.557
MS.11          	42             	3.527
MS.12          	42             	3.535
MS.13          	42             	3.497
MS.14          	42             	3.511
MS.15          	42             	3.539
MS.16          	42             	3.565
MS.17          	42             	3.563
MS.18          	42             	3.527
MS.19          	42             	3.503
MS.20          	42             	3.68
MS.21          	42             	3.551
MS.22          	42             	3.539
MS.23          	42             	3.547
MS.24          	41.833         	3.39
MS.25          	41.747         	3.464
MS.26          	41.665         	3.458
MS.27          	41.583         	3.507
MS.28          	41.5           	3.491
MS.29          	41.415         	3.396
MS.30          	41.333         	3.448
MS.31          	41.25          	3.346
MS.32          	41.167         	3.426
MS.33          	41.085         	3.356
MS.34          	41.005         	3.354
MS.35          	40.923         	3.293
MS.36          	40.84          	3.313
MS.37          	40.757         	3.348
MS.38          	40.677         	3.319
MS.39          	40.595         	3.235
MS.40          	40.515         	3.253
MS.41          	40.435         	3.291
MS.42          	40.353         	3.15
MS.43          	40.272         	3.348
MS.44          	40.192         	3.194
MS.45          	40.112         	3.259
MS.46          	40.032         	3.126
MS.47          	39.952         	3.213
MS.48          	39.872         	3.106
MS.49          	39.792         	3.11
MS.50          	39.712         	3.045
MS.51          	39.632         	3.124
MS.52          	39.555         	3.021
MS.53          	39.475         	2.995
MS.54          	39.395         	3.049
MS.55          	39.317         	3.037
MS.56          	39.24          	2.985
MS.57          	39.16          	2.973
MS.58          	39.083         	2.957
MS.59          	39.005         	2.919
MS.60          	38.925         	2.929
MS.61          	38.847         	2.904
MS.62          	38.77          	2.88
MS.63          	38.692         	2.9
MS.64          	38.615         	2.852
MS.65          	38.54          	2.767
MS.66          	38.462         	2.798
MS.67          	38.385         	2.761
MS.68          	38.307         	2.786
MS.69          	38.232         	2.763
MS.70          	38.155         	2.699
MS.71          	38.08          	2.711
MS.72          	38.002         	2.743
MS.73          	37.927         	2.675
MS.74          	37.853         	2.639
MS.75          	37.775         	2.594
MS.76          	37.7           	2.588
MS.77          	37.625         	2.594
MS.78          	37.55          	2.588
MS.79          	37.475         	2.602
MS.80          	37.4           	2.54
MS.81          	37.325         	2.522
MS.82          	37.25          	2.546
MS.83          	37.175         	2.467
MS.84          	37.103         	2.431
MS.85          	37.028         	2.375
MS.86          	36.952         	2.421
MS.87          	36.88          	2.367
MS.88          	36.805         	2.316
MS.89          	36.732         	2.316
MS.90          	36.66          	2.304
MS.91          	36.585         	2.302
MS.92          	36.513         	2.344
MS.93          	36.44          	2.296
MS.94          	36.368         	2.294
MS.95          	36.295         	2.246
MS.96          	36.222         	2.203
MS.97          	36.15          	2.224
MS.98          	36.077         	2.179
MS.99          	36.005         	2.143
MS.100         	35.932         	2.109
MS.101         	35.862         	2.131
MS.102         	35.79          	2.101
MS.103         	35.717         	2.087
MS.104         	35.647         	2.048
MS.105         	35.575         	2.058
MS.106         	35.505         	1.984
MS.107         	35.435         	2.02
MS.108         	35.362         	2
MS.109         	35.292         	1.966
MS.110         	35.222         	1.97
MS.111         	35.153         	1.956
MS.112         	35.08          	1.891
MS.113         	35.01          	1.895
MS.114         	34.94          	1.889
MS.115         	34.872         	1.839
MS.116         	34.802         	1.793
MS.117         	34.732         	1.867
MS.118         	34.662         	1.815
MS.119         	34.592         	1.793
MS.120         	34.525         	1.736
MS.121         	34.455         	1.793
MS.122         	34.388         	1.76
MS.123         	34.318         	1.774
MS.124         	34.25          	1.72
MS.125         	34.18          	1.682
MS.126         	34.112         	1.666
MS.127         	34.045         	1.629
MS.128         	33.978         	1.593
MS.129         	33.907         	1.569
MS.130         	33.84          	1.619
MS.131         	33.772         	1.615
MS.132         	33.705         	1.583
MS.133         	33.638         	1.567
MS.134         	33.57          	1.529
MS.135         	33.505         	1.505
MS.136         	33.438         	1.468
MS.137         	33.37          	1.424
MS.138         	33.302         	1.434
MS.139         	33.237         	1.384
MS.140         	33.17          	1.404
MS.141         	33.105         	1.352
MS.142         	33.037         	1.349
MS.143         	32.972         	1.368
MS.144         	32.907         	1.327
MS.145         	32.84          	1.309
MS.146         	32.775         	1.271
MS.147         	32.71          	1.362
MS.148         	32.645         	1.283
MS.149         	32.58          	1.215
MS.150         	32.515         	1.265
MS.151         	32.45          	1.208
MS.152         	32.385         	1.217
MS.153         	32.32          	1.217
MS.154         	32.255         	1.178
MS.155         	32.19          	1.146
MS.156         	32.125         	1.122
MS.157         	32.062         	1.136
MS.158         	31.997         	1.108
MS.159         	31.935         	1.102
MS.160         	31.87          	1.102
MS.161         	31.807         	1.092
MS.162         	31.742         	1.088
MS.163         	31.68          	1.074
MS.164         	31.615         	1.039
MS.165         	31.552         	1.049
MS.166         	31.49          	0.991
MS.167         	31.427         	0.985
MS.168         	31.365         	0.959
MS.169         	31.302         	0.987
MS.170         	31.24          	0.969
MS.171         	31.177         	0.947
MS.172         	31.115         	0.979
MS.173         	31.052         	0.914
MS.174         	30.99          	0.908
MS.175         	30.927         	0.89
MS.176         	30.867         	0.868
MS.177         	30.805         	0.826
MS.178         	30.742         	0.888
MS.179         	30.682         	0.822
MS.180         	30.62          	0.85
MS.181         	30.56          	0.824
MS.182         	30.497         	0.858
MS.183         	30.438         	0.769
MS.184         	30.377         	0.788
MS.185         	30.315         	0.775
MS.186         	30.255         	0.81
MS.187         	30.195         	0.824
MS.188         	30.135         	0.781
MS.189         	30.075         	0.759
MS.190         	30.015         	0.743
MS.191         	29.955         	0.727
MS.192         	29.895         	0.713
MS.193         	29.835         	0.707
MS.194         	29.775         	0.735
MS.195         	29.715         	0.727
MS.196         	29.655         	0.701
MS.197         	29.597         	0.705
MS.198         	29.537         	0.715
MS.199         	29.477         	0.687
MS.200         	29.42          	0.693
MS.201         	29.36          	0.649
MS.202         	29.302         	0.719
MS.203         	29.242         	0.679
MS.204         	29.185         	0.689
MS.205         	29.127         	0.665
MS.206         	29.07          	0.628
MS.207         	29.01          	0.671
MS.208         	28.952         	0.638
MS.209         	28.895         	0.651
MS.210         	28.837         	0.616
MS.211         	28.78          	0.6
MS.212         	28.722         	0.618
MS.213         	28.665         	0.628
MS.214         	28.608         	0.641
MS.215         	28.55          	0.632
MS.216         	28.493         	0.598
MS.217         	28.438         	0.657
MS.218         	28.38          	0.632
MS.219         	28.323         	0.628
MS.220         	28.265         	0.574
MS.221         	28.21          	0.641
MS.222         	28.153         	0.665
MS.223         	28.097         	0.602
MS.224         	28.04          	0.608
MS.225         	27.985         	0.582
MS.226         	27.93          	0.568
MS.227         	27.872         	0.578
MS.228         	27.817         	0.594
MS.229         	27.762         	0.626
MS.230         	27.707         	0.632
MS.231         	27.65          	0.582
MS.232         	27.595         	0.596
MS.233         	27.54          	0.558
MS.234         	27.485         	0.582
MS.235         	27.43          	0.58
MS.236         	27.375         	0.54
MS.237         	27.323         	0.516
MS.238         	27.267         	0.5
MS.239         	27.212         	0.542
MS.240         	27.157         	0.548
MS.241         	27.102         	0.564
MS.242         	27.05          	0.532
MS.243         	26.995         	0.52
MS.244         	26.942         	0.512
MS.245         	26.887         	0.528
MS.246         	26.835         	0.534
MS.247         	26.78          	0.423
MS.248         	26.727         	0.52
MS.249         	26.672         	0.477
MS.250         	26.62          	0.53
MS.251         	26.567         	0.485
MS.252         	26.515         	0.477
MS.253         	26.46          	0.477
MS.254         	26.407         	0.431
MS.255         	26.355         	0.407
MS.256         	26.302         	0.451
MS.257         	26.25          	0.397
MS.258         	26.198         	0.401
MS.259         	26.145         	0.359
MS.260         	26.092         	0.363
MS.261         	26.04          	0.348
MS.262         	25.99          	0.419
MS.263         	25.938         	0.379
MS.264         	25.885         	0.357
MS.265         	25.832         	0.324
MS.266         	25.782         	0.338
MS.267         	25.73          	0.363
MS.268         	25.68          	0.304
MS.269         	25.627         	0.324
MS.270         	25.577         	0.308
MS.271         	25.525         	0.314
MS.272         	25.475         	0.294
MS.273         	25.422         	0.294
MS.274         	25.372         	0.312
MS.275         	25.323         	0.304
MS.276         	25.27          	0.284
MS.277         	25.22          	0.324
MS.278         	25.17          	0.282
MS.279         	25.12          	0.294
MS.280         	25.07          	0.296
MS.281         	25.02          	0.262
MS.282         	24.97          	0.278
MS.283         	24.92          	0.268
MS.284         	24.87          	0.258
MS.285         	24.82          	0.27
MS.286         	24.77          	0.254
MS.287         	24.722         	0.211
MS.288         	24.672         	0.252
MS.289         	24.622         	0.232
MS.290         	24.573         	0.282
MS.291         	24.525         	0.248
MS.292         	24.475         	0.262
MS.293         	24.427         	0.232
MS.294         	24.377         	0.203
MS.295         	24.33          	0.189
MS.296         	24.28          	0.258
MS.297         	24.233         	0.222
MS.298         	24.182         	0.207
MS.299         	24.135         	0.181
MS.300         	24.087         	0.201
MS.301         	24.038         	0.23
MS.302         	23.99          	0.216
MS.303         	23.942         	0.193
MS.304         	23.895         	0.181
MS.305         	23.847         	0.179
MS.306         	23.8           	0.175
MS.307         	23.752         	0.165
MS.308         	23.705         	0.185
MS.309         	23.657         	0.185
MS.310         	23.61          	0.185
MS.311         	23.562         	0.163
MS.312         	23.515         	0.165
MS.313         	23.467         	0.177
MS.314         	23.422         	0.193
MS.315         	23.375         	0.139
MS.316         	23.327         	0.161
MS.317         	23.282         	0.135
MS.318         	23.235         	0.157
MS.319         	23.188         	0.161
MS.320         	23.142         	0.139
MS.321         	23.095         	0.163
MS.322         	23.05          	0.145
MS.323         	23.005         	0.163
MS.324         	22.957         	0.155
MS.325         	22.913         	0.119
MS.326         	22.868         	0.147
MS.327         	22.82          	0.123
MS.328         	22.775         	0.149
MS.329         	22.73          	0.151
MS.330         	22.685         	0.141
MS.331         	22.64          	0.145
MS.332         	22.592         	0.141
MS.333         	22.547         	0.145
MS.334         	22.502         	0.127
MS.335         	22.457         	0.145
MS.336         	22.413         	0.139
MS.337         	22.37          	0.137
MS.338         	22.325         	0.117
MS.339         	22.28          	0.123
MS.340         	22.235         	0.135
MS.341         	22.19          	0.107
MS.342         	22.145         	0.123
MS.343         	22.102         	0.109
MS.344         	22.057         	0.107
MS.345         	22.012         	0.115
MS.346         	21.97          	0.093
MS.347         	21.925         	0.095
MS.348         	21.882         	0.105
MS.349         	21.837         	0.107
MS.350         	21.795         	0.103
MS.351         	21.75          	0.113
MS.352         	21.708         	0.105
MS.353         	21.665         	0.115
MS.354         	21.62          	0.099
MS.355         	21.577         	0.101
MS.356         	21.535         	0.083
MS.357         	21.493         	0.097
MS.358         	21.448         	0.089
MS.359         	21.405         	0.089
MS.360         	21.362         	0.079
MS.361         	21.32          	0.095
MS.362         	21.278         	0.077
MS.363         	21.235         	0.087
MS.364         	21.192         	0.099
MS.365         	21.15          	0.077
MS.366         	21.108         	0.083
MS.367         	21.065         	0.095
MS.368         	21.025         	0.093
MS.369         	20.983         	0.079
MS.370         	20.94          	0.07
MS.371         	20.897         	0.079
MS.372         	20.858         	0.077
MS.373         	20.815         	0.091
MS.374         	20.772         	0.083
MS.375         	20.733         	0.077
MS.376         	20.69          	0.077
MS.377         	20.65          	0.081
MS.378         	20.608         	0.075
MS.379         	20.567         	0.073
MS.380         	20.525         	0.075
MS.381         	20.485         	0.077
MS.382         	20.442         	0.077
MS.383         	20.403         	0.073
MS.384         	20.362         	0.075
MS.385         	20.32          	0.073
MS.386         	20.28          	0.073
MS.387         	20.24          	0.075
MS.388         	20.2           	0.075
MS.389         	20.16          	0.077
MS.390         	20.12          	0.077
MS.391         	20.08          	0.064
MS.392         	20.038         	0.073
MS.393         	19.997         	0.068
MS.394         	19.958         	0.077
MS.395         	19.92          	0.073
MS.396         	19.88          	0.064
MS.397         	19.84          	0.066
MS.398         	19.8           	0.07
MS.399         	19.76          	0.064
MS.400         	19.72          	0.07
MS.401         	19.68          	0.07
MS.402         	19.642         	0.064
MS.403         	19.602         	0.07
MS.404         	19.562         	0.066
MS.405         	19.525         	0.062
MS.406         	19.485         	0.06
MS.407         	19.448         	0.064
MS.408         	19.407         	0.062
MS.409         	19.37          	0.064
MS.410         	19.33          	0.064
MS.411         	19.292         	0.064
MS.412         	19.252         	0.06
MS.413         	19.215         	0.07
MS.414         	19.175         	0.066
MS.415         	19.137         	0.066
MS.416         	19.1           	0.066
MS.417         	19.062         	0.062
MS.418         	19.022         	0.066
MS.419         	18.985         	0.064
MS.420         	18.948         	0.066
MS.421         	18.91          	0.066
MS.422         	18.872         	0.064
MS.423         	18.835         	0.062
MS.424         	18.797         	0.062
MS.425         	18.76          	0.066
MS.426         	18.722         	0.062
MS.427         	18.685         	0.066
MS.428         	18.647         	0.064
MS.429         	18.61          	0.064
MS.430         	18.573         	0.068
MS.431         	18.535         	0.062
MS.432         	18.497         	0.064
MS.433         	18.46          	0.056
MS.434         	18.425         	0.064
MS.435         	18.387         	0.06
MS.436         	18.35          	0.064
MS.437         	18.315         	0.062
MS.438         	18.278         	0.058
MS.439         	18.24          	0.056
MS.440         	18.205         	0.062
MS.441         	18.167         	0.058
MS.442         	18.132         	0.062
MS.443         	18.095         	0.058
MS.444         	18.06          	0.066
MS.445         	18.022         	0.062
MS.446         	17.987         	0.058
MS.447         	17.952         	0.06
MS.448         	17.915         	0.064
MS.449         	17.88          	0.056
MS.450         	17.845         	0.062
MS.451         	17.807         	0.052
MS.452         	17.772         	0.056
MS.453         	17.737         	0.06
MS.454         	17.702         	0.058
MS.455         	17.667         	0.054
MS.456         	17.63          	0.058
MS.457         	17.595         	0.056
MS.458         	17.56          	0.058
MS.459         	17.525         	0.056
MS.460         	17.49          	0.06
MS.461         	17.455         	0.056
MS.462         	17.42          	0.054
MS.463         	17.385         	0.058
MS.464         	17.352         	0.054
MS.465         	17.317         	0.058
MS.466         	17.282         	0.058
MS.467         	17.247         	0.058
MS.468         	17.212         	0.056
MS.469         	17.177         	0.052
MS.470         	17.145         	0.056
MS.471         	17.11          	0.054
MS.472         	17.075         	0.052
MS.473         	17.042         	0.054
MS.474         	17.007         	0.054
MS.475         	16.972         	0.054
MS.476         	16.94          	0.056
MS.477         	16.905         	0.054
MS.478         	16.872         	0.06
MS.479         	16.837         	0.056
MS.480         	16.805         	0.054
MS.481         	16.77          	0.054
MS.482         	16.737         	0.052
MS.483         	16.705         	0.05
MS.484         	16.67          	0.052
MS.485         	16.637         	0.054
MS.486         	16.605         	0.056
MS.487         	16.57          	0.052
MS.488         	16.538         	0.052
MS.489         	16.505         	0.052
MS.490         	16.472         	0.056
MS.491         	16.44          	0.054
MS.492         	16.407         	0.056
MS.493         	16.372         	0.052
MS.494         	16.34          	0.058
MS.495         	16.307         	0.056
MS.496         	16.275         	0.056
MS.497         	16.243         	0.052
MS.498         	16.21          	0.052
MS.499         	16.177         	0.054
MS.500         	16.145         	0.052
MS.501         	16.112         	0.052
