File:              	C:\Qtrac\Data\Daniel M Sørensen\MScan multicentre study\Data from centres\Roskilde\Folders with NC-examinations\ROS_N9b\MBC00603C.QZD
Name:              	DK.ROS.NC.9.2
Protocol:          	MSCAN-R2
Date:              	3/6/20
Start time:        	10:00:28
Age:               	60
Sex:               	f
Temperature:       	37.1
S/R sites:         	Peroneal -TA
NC/disease:        	NC
Operator:          	MB
Comments:
M-SCAN DATA (9.3-1.4m)
Scanpts: 17, 21, 604, 618
Stim. (mA)     	Amp. (mV)
MS.1           	22.5           	4.967
MS.2           	22.5           	4.981
MS.3           	22.5           	4.975
MS.4           	22.5           	4.939
MS.5           	22.5           	4.971
MS.6           	22.5           	4.941
MS.7           	22.5           	4.935
MS.8           	22.5           	4.957
MS.9           	22.5           	4.939
MS.10          	22.5           	4.953
MS.11          	22.5           	4.943
MS.12          	22.5           	4.941
MS.13          	22.5           	4.939
MS.14          	22.5           	4.949
MS.15          	22.5           	4.935
MS.16          	22.5           	4.973
MS.17          	22.5           	4.943
MS.18          	22.5           	4.943
MS.19          	22.5           	4.931
MS.20          	22.5           	4.933
MS.21          	22.5           	4.973
MS.22          	22.5           	4.959
MS.23          	22.5           	4.941
MS.24          	22.41          	4.947
MS.25          	22.365         	4.959
MS.26          	22.32          	4.937
MS.27          	22.275         	4.945
MS.28          	22.233         	4.941
MS.29          	22.188         	4.941
MS.30          	22.142         	4.939
MS.31          	22.097         	4.927
MS.32          	22.055         	4.939
MS.33          	22.01          	4.937
MS.34          	21.967         	4.953
MS.35          	21.922         	4.927
MS.36          	21.877         	4.915
MS.37          	21.835         	4.925
MS.38          	21.792         	4.921
MS.39          	21.747         	4.939
MS.40          	21.705         	4.917
MS.41          	21.66          	4.935
MS.42          	21.618         	4.894
MS.43          	21.575         	4.925
MS.44          	21.532         	4.923
MS.45          	21.487         	4.917
MS.46          	21.445         	4.925
MS.47          	21.403         	4.904
MS.48          	21.36          	4.919
MS.49          	21.317         	4.915
MS.50          	21.275         	4.898
MS.51          	21.233         	4.892
MS.52          	21.19          	4.892
MS.53          	21.147         	4.902
MS.54          	21.105         	4.909
MS.55          	21.062         	4.894
MS.56          	21.02          	4.898
MS.57          	20.98          	4.9
MS.58          	20.938         	4.894
MS.59          	20.895         	4.9
MS.60          	20.852         	4.882
MS.61          	20.812         	4.923
MS.62          	20.77          	4.906
MS.63          	20.727         	4.89
MS.64          	20.688         	4.892
MS.65          	20.645         	4.915
MS.66          	20.605         	4.888
MS.67          	20.562         	4.917
MS.68          	20.522         	4.894
MS.69          	20.483         	4.904
MS.70          	20.44          	4.909
MS.71          	20.4           	4.894
MS.72          	20.36          	4.898
MS.73          	20.317         	4.904
MS.74          	20.278         	4.904
MS.75          	20.237         	4.9
MS.76          	20.198         	4.892
MS.77          	20.155         	4.917
MS.78          	20.115         	4.894
MS.79          	20.075         	4.884
MS.80          	20.035         	4.894
MS.81          	19.995         	4.904
MS.82          	19.955         	4.898
MS.83          	19.915         	4.896
MS.84          	19.875         	4.874
MS.85          	19.837         	4.886
MS.86          	19.797         	4.882
MS.87          	19.757         	4.878
MS.88          	19.717         	4.886
MS.89          	19.677         	4.917
MS.90          	19.64          	4.896
MS.91          	19.6           	4.864
MS.92          	19.56          	4.862
MS.93          	19.522         	4.888
MS.94          	19.483         	4.888
MS.95          	19.442         	4.874
MS.96          	19.405         	4.854
MS.97          	19.365         	4.878
MS.98          	19.327         	4.868
MS.99          	19.288         	4.84
MS.100         	19.25          	4.872
MS.101         	19.212         	4.866
MS.102         	19.172         	4.84
MS.103         	19.135         	4.864
MS.104         	19.097         	4.864
MS.105         	19.057         	4.86
MS.106         	19.02          	4.856
MS.107         	18.983         	4.862
MS.108         	18.945         	4.856
MS.109         	18.907         	4.826
MS.110         	18.87          	4.858
MS.111         	18.83          	4.846
MS.112         	18.792         	4.832
MS.113         	18.755         	4.86
MS.114         	18.717         	4.84
MS.115         	18.68          	4.826
MS.116         	18.645         	4.832
MS.117         	18.608         	4.87
MS.118         	18.57          	4.83
MS.119         	18.532         	4.816
MS.120         	18.495         	4.832
MS.121         	18.458         	4.804
MS.122         	18.422         	4.832
MS.123         	18.385         	4.772
MS.124         	18.347         	4.792
MS.125         	18.31          	4.822
MS.126         	18.275         	4.761
MS.127         	18.237         	4.782
MS.128         	18.202         	4.794
MS.129         	18.165         	4.717
MS.130         	18.13          	4.743
MS.131         	18.092         	4.784
MS.132         	18.057         	4.739
MS.133         	18.02          	4.78
MS.134         	17.985         	4.745
MS.135         	17.948         	4.743
MS.136         	17.913         	4.717
MS.137         	17.878         	4.727
MS.138         	17.84          	4.786
MS.139         	17.805         	4.709
MS.140         	17.77          	4.725
MS.141         	17.735         	4.759
MS.142         	17.7           	4.715
MS.143         	17.663         	4.699
MS.144         	17.628         	4.703
MS.145         	17.592         	4.693
MS.146         	17.557         	4.679
MS.147         	17.522         	4.651
MS.148         	17.487         	4.709
MS.149         	17.452         	4.643
MS.150         	17.417         	4.669
MS.151         	17.382         	4.643
MS.152         	17.347         	4.655
MS.153         	17.315         	4.614
MS.154         	17.28          	4.612
MS.155         	17.245         	4.625
MS.156         	17.21          	4.641
MS.157         	17.175         	4.548
MS.158         	17.142         	4.586
MS.159         	17.108         	4.578
MS.160         	17.073         	4.556
MS.161         	17.04          	4.608
MS.162         	17.005         	4.564
MS.163         	16.97          	4.594
MS.164         	16.938         	4.548
MS.165         	16.903         	4.552
MS.166         	16.87          	4.562
MS.167         	16.835         	4.562
MS.168         	16.802         	4.53
MS.169         	16.767         	4.538
MS.170         	16.735         	4.482
MS.171         	16.702         	4.435
MS.172         	16.667         	4.461
MS.173         	16.635         	4.5
MS.174         	16.602         	4.463
MS.175         	16.567         	4.498
MS.176         	16.535         	4.467
MS.177         	16.503         	4.385
MS.178         	16.47          	4.433
MS.179         	16.438         	4.413
MS.180         	16.405         	4.435
MS.181         	16.37          	4.441
MS.182         	16.337         	4.389
MS.183         	16.305         	4.399
MS.184         	16.272         	4.421
MS.185         	16.24          	4.365
MS.186         	16.208         	4.373
MS.187         	16.175         	4.328
MS.188         	16.142         	4.373
MS.189         	16.11          	4.351
MS.190         	16.08          	4.298
MS.191         	16.047         	4.3
MS.192         	16.015         	4.294
MS.193         	15.983         	4.298
MS.194         	15.95          	4.238
MS.195         	15.92          	4.272
MS.196         	15.887         	4.234
MS.197         	15.855         	4.278
MS.198         	15.822         	4.214
MS.199         	15.792         	4.198
MS.200         	15.76          	4.187
MS.201         	15.73          	4.131
MS.202         	15.697         	4.177
MS.203         	15.667         	4.252
MS.204         	15.635         	4.141
MS.205         	15.602         	4.123
MS.206         	15.572         	4.107
MS.207         	15.542         	4.081
MS.208         	15.51          	4.083
MS.209         	15.48          	4.113
MS.210         	15.447         	4.105
MS.211         	15.417         	4.032
MS.212         	15.387         	4.073
MS.213         	15.355         	4.012
MS.214         	15.325         	4.024
MS.215         	15.295         	4.006
MS.216         	15.265         	3.994
MS.217         	15.233         	3.978
MS.218         	15.202         	3.968
MS.219         	15.172         	4.004
MS.220         	15.142         	3.944
MS.221         	15.112         	3.988
MS.222         	15.082         	3.952
MS.223         	15.052         	3.92
MS.224         	15.023         	3.944
MS.225         	14.992         	3.924
MS.226         	14.962         	3.901
MS.227         	14.932         	3.928
MS.228         	14.902         	3.909
MS.229         	14.872         	3.944
MS.230         	14.842         	3.869
MS.231         	14.812         	3.815
MS.232         	14.782         	3.827
MS.233         	14.755         	3.807
MS.234         	14.725         	3.845
MS.235         	14.695         	3.849
MS.236         	14.665         	3.801
MS.237         	14.637         	3.738
MS.238         	14.608         	3.811
MS.239         	14.577         	3.787
MS.240         	14.55          	3.754
MS.241         	14.52          	3.734
MS.242         	14.49          	3.76
MS.243         	14.462         	3.793
MS.244         	14.432         	3.68
MS.245         	14.405         	3.692
MS.246         	14.375         	3.674
MS.247         	14.347         	3.654
MS.248         	14.318         	3.712
MS.249         	14.29          	3.654
MS.250         	14.26          	3.613
MS.251         	14.233         	3.591
MS.252         	14.205         	3.559
MS.253         	14.175         	3.549
MS.254         	14.148         	3.628
MS.255         	14.12          	3.585
MS.256         	14.09          	3.517
MS.257         	14.062         	3.575
MS.258         	14.035         	3.521
MS.259         	14.007         	3.478
MS.260         	13.977         	3.507
MS.261         	13.95          	3.378
MS.262         	13.922         	3.44
MS.263         	13.895         	3.412
MS.264         	13.867         	3.374
MS.265         	13.84          	3.366
MS.266         	13.812         	3.384
MS.267         	13.785         	3.333
MS.268         	13.757         	3.372
MS.269         	13.73          	3.311
MS.270         	13.702         	3.289
MS.271         	13.675         	3.271
MS.272         	13.648         	3.217
MS.273         	13.62          	3.273
MS.274         	13.592         	3.251
MS.275         	13.565         	3.235
MS.276         	13.537         	3.259
MS.277         	13.51          	3.231
MS.278         	13.485         	3.156
MS.279         	13.457         	3.124
MS.280         	13.43          	3.104
MS.281         	13.403         	3.126
MS.282         	13.377         	3.021
MS.283         	13.35          	3.082
MS.284         	13.322         	3.051
MS.285         	13.297         	2.999
MS.286         	13.27          	3.001
MS.287         	13.242         	2.995
MS.288         	13.217         	2.961
MS.289         	13.19          	2.927
MS.290         	13.165         	2.929
MS.291         	13.137         	2.858
MS.292         	13.112         	2.925
MS.293         	13.085         	2.88
MS.294         	13.06          	2.84
MS.295         	13.032         	2.81
MS.296         	13.007         	2.794
MS.297         	12.983         	2.763
MS.298         	12.955         	2.739
MS.299         	12.93          	2.729
MS.300         	12.903         	2.679
MS.301         	12.877         	2.661
MS.302         	12.852         	2.703
MS.303         	12.827         	2.594
MS.304         	12.8           	2.564
MS.305         	12.775         	2.598
MS.306         	12.75          	2.588
MS.307         	12.725         	2.524
MS.308         	12.7           	2.542
MS.309         	12.672         	2.532
MS.310         	12.648         	2.528
MS.311         	12.622         	2.49
MS.312         	12.597         	2.441
MS.313         	12.572         	2.423
MS.314         	12.547         	2.419
MS.315         	12.523         	2.383
MS.316         	12.497         	2.471
MS.317         	12.472         	2.423
MS.318         	12.447         	2.361
MS.319         	12.422         	2.367
MS.320         	12.398         	2.342
MS.321         	12.372         	2.357
MS.322         	12.347         	2.242
MS.323         	12.322         	2.268
MS.324         	12.3           	2.375
MS.325         	12.275         	2.31
MS.326         	12.25          	2.258
MS.327         	12.225         	2.238
MS.328         	12.2           	2.224
MS.329         	12.177         	2.288
MS.330         	12.153         	2.226
MS.331         	12.127         	2.252
MS.332         	12.102         	2.228
MS.333         	12.08          	2.22
MS.334         	12.055         	2.173
MS.335         	12.032         	2.169
MS.336         	12.007         	2.161
MS.337         	11.983         	2.107
MS.338         	11.96          	2.167
MS.339         	11.935         	2.141
MS.340         	11.912         	2.203
MS.341         	11.887         	2.169
MS.342         	11.865         	2.038
MS.343         	11.84          	2.081
MS.344         	11.818         	2.093
MS.345         	11.792         	2.04
MS.346         	11.77          	2.141
MS.347         	11.745         	2.054
MS.348         	11.722         	1.954
MS.349         	11.7           	1.968
MS.350         	11.675         	2.028
MS.351         	11.653         	1.964
MS.352         	11.63          	1.968
MS.353         	11.605         	1.966
MS.354         	11.582         	1.964
MS.355         	11.56          	1.909
MS.356         	11.537         	1.865
MS.357         	11.512         	1.783
MS.358         	11.49          	1.837
MS.359         	11.467         	1.825
MS.360         	11.445         	1.871
MS.361         	11.422         	1.781
MS.362         	11.4           	1.803
MS.363         	11.375         	1.696
MS.364         	11.352         	1.714
MS.365         	11.33          	1.66
MS.366         	11.307         	1.629
MS.367         	11.285         	1.623
MS.368         	11.262         	1.611
MS.369         	11.24          	1.559
MS.370         	11.217         	1.547
MS.371         	11.195         	1.486
MS.372         	11.172         	1.543
MS.373         	11.15          	1.541
MS.374         	11.127         	1.492
MS.375         	11.108         	1.446
MS.376         	11.085         	1.456
MS.377         	11.062         	1.38
MS.378         	11.04          	1.384
MS.379         	11.017         	1.394
MS.380         	10.995         	1.358
MS.381         	10.975         	1.392
MS.382         	10.952         	1.384
MS.383         	10.93          	1.313
MS.384         	10.907         	1.335
MS.385         	10.887         	1.341
MS.386         	10.865         	1.259
MS.387         	10.842         	1.279
MS.388         	10.82          	1.215
MS.389         	10.8           	1.257
MS.390         	10.778         	1.231
MS.391         	10.757         	1.277
MS.392         	10.735         	1.176
MS.393         	10.712         	1.196
MS.394         	10.693         	1.152
MS.395         	10.67          	1.174
MS.396         	10.65          	1.196
MS.397         	10.627         	1.1
MS.398         	10.608         	1.156
MS.399         	10.585         	1.074
MS.400         	10.565         	1.104
MS.401         	10.542         	1.08
MS.402         	10.523         	1.1
MS.403         	10.502         	1.045
MS.404         	10.48          	1.019
MS.405         	10.46          	1.07
MS.406         	10.438         	1.029
MS.407         	10.417         	1.049
MS.408         	10.398         	1.027
MS.409         	10.375         	0.957
MS.410         	10.355         	0.995
MS.411         	10.335         	0.971
MS.412         	10.315         	0.971
MS.413         	10.292         	0.924
MS.414         	10.273         	0.951
MS.415         	10.252         	0.937
MS.416         	10.233         	0.941
MS.417         	10.212         	0.981
MS.418         	10.19          	0.906
MS.419         	10.17          	0.904
MS.420         	10.15          	0.908
MS.421         	10.13          	0.888
MS.422         	10.11          	0.88
MS.423         	10.09          	0.878
MS.424         	10.07          	0.86
MS.425         	10.05          	0.862
MS.426         	10.03          	0.822
MS.427         	10.01          	0.781
MS.428         	9.99           	0.818
MS.429         	9.97           	0.848
MS.430         	9.95           	0.767
MS.431         	9.93           	0.838
MS.432         	9.91           	0.792
MS.433         	9.89           	0.794
MS.434         	9.87           	0.745
MS.435         	9.85           	0.735
MS.436         	9.83           	0.729
MS.437         	9.81           	0.755
MS.438         	9.792          	0.711
MS.439         	9.773          	0.703
MS.440         	9.752          	0.665
MS.441         	9.733          	0.691
MS.442         	9.712          	0.681
MS.443         	9.695          	0.689
MS.444         	9.675          	0.699
MS.445         	9.655          	0.651
MS.446         	9.635          	0.632
MS.447         	9.617          	0.675
MS.448         	9.597          	0.653
MS.449         	9.577          	0.643
MS.450         	9.56           	0.57
MS.451         	9.54           	0.63
MS.452         	9.52           	0.586
MS.453         	9.502          	0.582
MS.454         	9.483          	0.558
MS.455         	9.465          	0.62
MS.456         	9.445          	0.608
MS.457         	9.427          	0.56
MS.458         	9.407          	0.59
MS.459         	9.387          	0.53
MS.460         	9.37           	0.54
MS.461         	9.352          	0.52
MS.462         	9.332          	0.51
MS.463         	9.315          	0.51
MS.464         	9.295          	0.439
MS.465         	9.278          	0.52
MS.466         	9.257          	0.487
MS.467         	9.24           	0.495
MS.468         	9.222          	0.471
MS.469         	9.202          	0.451
MS.470         	9.185          	0.451
MS.471         	9.165          	0.471
MS.472         	9.148          	0.429
MS.473         	9.13           	0.437
MS.474         	9.113          	0.457
MS.475         	9.092          	0.425
MS.476         	9.075          	0.393
MS.477         	9.057          	0.397
MS.478         	9.037          	0.413
MS.479         	9.02           	0.395
MS.480         	9.002          	0.381
MS.481         	8.985          	0.399
MS.482         	8.967          	0.367
MS.483         	8.948          	0.385
MS.484         	8.93           	0.379
MS.485         	8.912          	0.367
MS.486         	8.895          	0.332
MS.487         	8.877          	0.357
MS.488         	8.86           	0.3
MS.489         	8.842          	0.334
MS.490         	8.825          	0.365
MS.491         	8.807          	0.296
MS.492         	8.79           	0.332
MS.493         	8.773          	0.3
MS.494         	8.755          	0.328
MS.495         	8.738          	0.354
MS.496         	8.72           	0.3
MS.497         	8.702          	0.296
MS.498         	8.685          	0.284
MS.499         	8.667          	0.276
MS.500         	8.65           	0.296
