File:              	C:\Qtrac\Data\Daniel M Sørensen\MScan multicentre study\Data from centres\Roskilde\Folders with NC-examinations\ROS_N5a\MBC00416C.QZD
Name:              	DK.ROS.NC.5.1
Protocol:          	MSCAN-R2
Date:              	16/4/20
Start time:        	13:51:07
Age:               	33
Sex:               	m
Temperature:       	37.9
S/R sites:         	Peroneal-TA
NC/disease:        	NC
Operator:          	MB
Comments:
M-SCAN DATA (13-1.7m)
Scanpts: 13, 23, 1164, 1174
Stim. (mA)     	Amp. (mV)
MS.1           	42             	10.272
MS.2           	42             	10.351
MS.3           	42             	10.292
MS.4           	42             	10.25
MS.5           	42             	10.306
MS.6           	42             	10.296
MS.7           	42             	10.323
MS.8           	42             	10.268
MS.9           	42             	10.321
MS.10          	42             	10.308
MS.11          	42             	10.349
MS.12          	42             	10.373
MS.13          	42             	10.367
MS.14          	42             	10.343
MS.15          	42             	10.363
MS.16          	42             	10.343
MS.17          	42             	10.387
MS.18          	42             	10.363
MS.19          	42             	10.397
MS.20          	42             	10.308
MS.21          	42             	10.375
MS.22          	42             	10.349
MS.23          	42             	10.355
MS.24          	41.833         	10.331
MS.25          	41.747         	10.377
MS.26          	41.665         	10.357
MS.27          	41.583         	10.365
MS.28          	41.5           	10.391
MS.29          	41.415         	10.333
MS.30          	41.333         	10.349
MS.31          	41.25          	10.415
MS.32          	41.167         	10.345
MS.33          	41.085         	10.315
MS.34          	41.005         	10.278
MS.35          	40.923         	10.238
MS.36          	40.84          	10.272
MS.37          	40.757         	10.222
MS.38          	40.677         	10.248
MS.39          	40.595         	10.083
MS.40          	40.515         	10.081
MS.41          	40.435         	10.119
MS.42          	40.353         	10.306
MS.43          	40.272         	10.165
MS.44          	40.192         	10.286
MS.45          	40.112         	10.145
MS.46          	40.032         	10.186
MS.47          	39.952         	10.182
MS.48          	39.872         	10.063
MS.49          	39.792         	10.103
MS.50          	39.712         	10.063
MS.51          	39.632         	10.075
MS.52          	39.555         	9.99
MS.53          	39.475         	9.938
MS.54          	39.395         	9.94
MS.55          	39.317         	9.894
MS.56          	39.24          	9.958
MS.57          	39.16          	9.924
MS.58          	39.083         	9.994
MS.59          	39.005         	9.871
MS.60          	38.925         	9.783
MS.61          	38.847         	9.938
MS.62          	38.77          	9.994
MS.63          	38.692         	9.736
MS.64          	38.615         	9.805
MS.65          	38.54          	9.894
MS.66          	38.462         	9.773
MS.67          	38.385         	9.966
MS.68          	38.307         	9.885
MS.69          	38.232         	9.994
MS.70          	38.155         	9.602
MS.71          	38.08          	9.799
MS.72          	38.002         	10.039
MS.73          	37.927         	9.966
MS.74          	37.853         	9.896
MS.75          	37.775         	9.904
MS.76          	37.7           	9.825
MS.77          	37.625         	9.775
MS.78          	37.55          	9.624
MS.79          	37.475         	9.521
MS.80          	37.4           	9.716
MS.81          	37.325         	9.7
MS.82          	37.25          	9.541
MS.83          	37.175         	9.507
MS.84          	37.103         	9.495
MS.85          	37.028         	9.503
MS.86          	36.952         	9.471
MS.87          	36.88          	8.76
MS.88          	36.805         	9.559
MS.89          	36.732         	9.624
MS.90          	36.66          	9.41
MS.91          	36.585         	9.483
MS.92          	36.513         	9.646
MS.93          	36.44          	9.599
MS.94          	36.368         	9.533
MS.95          	36.295         	9.485
MS.96          	36.222         	9.428
MS.97          	36.15          	9.326
MS.98          	36.077         	9.501
MS.99          	36.005         	9.507
MS.100         	35.932         	9.37
MS.101         	35.862         	9.344
MS.102         	35.79          	9.322
MS.103         	35.717         	9.392
MS.104         	35.647         	9.34
MS.105         	35.575         	9.456
MS.106         	35.505         	9.45
MS.107         	35.435         	9.378
MS.108         	35.362         	9.336
MS.109         	35.292         	9.318
MS.110         	35.222         	9.273
MS.111         	35.153         	9.251
MS.112         	35.08          	8.909
MS.113         	35.01          	9.213
MS.114         	34.94          	9.187
MS.115         	34.872         	9.221
MS.116         	34.802         	9.189
MS.117         	34.732         	9.223
MS.118         	34.662         	9.307
MS.119         	34.592         	9.255
MS.120         	34.525         	9.199
MS.121         	34.455         	9.247
MS.122         	34.388         	9.207
MS.123         	34.318         	9.257
MS.124         	34.25          	9.243
MS.125         	34.18          	9.207
MS.126         	34.112         	9.066
MS.127         	34.045         	9.082
MS.128         	33.978         	9.12
MS.129         	33.907         	8.983
MS.130         	33.84          	9.221
MS.131         	33.772         	9.227
MS.132         	33.705         	9.215
MS.133         	33.638         	9.158
MS.134         	33.57          	9.058
MS.135         	33.505         	9.078
MS.136         	33.438         	9.094
MS.137         	33.37          	8.929
MS.138         	33.302         	9.011
MS.139         	33.237         	9.034
MS.140         	33.17          	8.999
MS.141         	33.105         	8.969
MS.142         	33.037         	8.947
MS.143         	32.972         	9.023
MS.144         	32.907         	9.229
MS.145         	32.84          	9.174
MS.146         	32.775         	9.13
MS.147         	32.71          	9.104
MS.148         	32.645         	8.977
MS.149         	32.58          	8.953
MS.150         	32.515         	8.959
MS.151         	32.45          	8.947
MS.152         	32.385         	8.963
MS.153         	32.32          	8.973
MS.154         	32.255         	8.899
MS.155         	32.19          	8.86
MS.156         	32.125         	8.816
MS.157         	32.062         	8.832
MS.158         	31.997         	8.888
MS.159         	31.935         	8.834
MS.160         	31.87          	8.933
MS.161         	31.807         	8.697
MS.162         	31.742         	8.804
MS.163         	31.68          	8.903
MS.164         	31.615         	8.796
MS.165         	31.552         	8.872
MS.166         	31.49          	8.649
MS.167         	31.427         	8.651
MS.168         	31.365         	8.731
MS.169         	31.302         	8.675
MS.170         	31.24          	8.671
MS.171         	31.177         	8.776
MS.172         	31.115         	8.713
MS.173         	31.052         	8.687
MS.174         	30.99          	8.645
MS.175         	30.927         	8.679
MS.176         	30.867         	8.669
MS.177         	30.805         	8.609
MS.178         	30.742         	8.592
MS.179         	30.682         	8.625
MS.180         	30.62          	8.5
MS.181         	30.56          	8.286
MS.182         	30.497         	8.47
MS.183         	30.438         	8.564
MS.184         	30.377         	8.615
MS.185         	30.315         	8.534
MS.186         	30.255         	8.56
MS.187         	30.195         	8.506
MS.188         	30.135         	8.516
MS.189         	30.075         	8.447
MS.190         	30.015         	8.417
MS.191         	29.955         	8.373
MS.192         	29.895         	8.476
MS.193         	29.835         	8.54
MS.194         	29.775         	8.421
MS.195         	29.715         	8.482
MS.196         	29.655         	8.464
MS.197         	29.597         	8.423
MS.198         	29.537         	8.411
MS.199         	29.477         	8.407
MS.200         	29.42          	8.433
MS.201         	29.36          	8.385
MS.202         	29.302         	8.395
MS.203         	29.242         	8.423
MS.204         	29.185         	8.407
MS.205         	29.127         	8.419
MS.206         	29.07          	8.359
MS.207         	29.01          	8.387
MS.208         	28.952         	8.282
MS.209         	28.895         	8.375
MS.210         	28.837         	8.399
MS.211         	28.78          	8.318
MS.212         	28.722         	8.397
MS.213         	28.665         	8.381
MS.214         	28.608         	8.347
MS.215         	28.55          	8.272
MS.216         	28.493         	8.252
MS.217         	28.438         	8.268
MS.218         	28.38          	8.27
MS.219         	28.323         	8.325
MS.220         	28.265         	8.294
MS.221         	28.21          	8.306
MS.222         	28.153         	8.325
MS.223         	28.097         	8.316
MS.224         	28.04          	8.218
MS.225         	27.985         	8.337
MS.226         	27.93          	8.206
MS.227         	27.872         	8.228
MS.228         	27.817         	8.234
MS.229         	27.762         	8.304
MS.230         	27.707         	8.266
MS.231         	27.65          	8.248
MS.232         	27.595         	8.192
MS.233         	27.54          	8.232
MS.234         	27.485         	8.22
MS.235         	27.43          	8.208
MS.236         	27.375         	8.26
MS.237         	27.323         	8.222
MS.238         	27.267         	8.246
MS.239         	27.212         	8.177
MS.240         	27.157         	8.186
MS.241         	27.102         	8.171
MS.242         	27.05          	8.173
MS.243         	26.995         	8.143
MS.244         	26.942         	8.194
MS.245         	26.887         	8.163
MS.246         	26.835         	8.194
MS.247         	26.78          	8.202
MS.248         	26.727         	8.202
MS.249         	26.672         	8.121
MS.250         	26.62          	8.121
MS.251         	26.567         	8.171
MS.252         	26.515         	8.117
MS.253         	26.46          	8.165
MS.254         	26.407         	8.184
MS.255         	26.355         	8.177
MS.256         	26.302         	8.129
MS.257         	26.25          	8.159
MS.258         	26.198         	8.121
MS.259         	26.145         	8.147
MS.260         	26.092         	8.143
MS.261         	26.04          	8.119
MS.262         	25.99          	8.091
MS.263         	25.938         	8.145
MS.264         	25.885         	8.115
MS.265         	25.832         	8.151
MS.266         	25.782         	8.137
MS.267         	25.73          	8.105
MS.268         	25.68          	8.135
MS.269         	25.627         	8.109
MS.270         	25.577         	8.149
MS.271         	25.525         	8.117
MS.272         	25.475         	8.151
MS.273         	25.422         	8.101
MS.274         	25.372         	8.153
MS.275         	25.323         	8.081
MS.276         	25.27          	8.081
MS.277         	25.22          	8.071
MS.278         	25.17          	8.069
MS.279         	25.12          	8.091
MS.280         	25.07          	8.067
MS.281         	25.02          	8.055
MS.282         	24.97          	8.075
MS.283         	24.92          	8.069
MS.284         	24.87          	8.047
MS.285         	24.82          	8.071
MS.286         	24.77          	8.065
MS.287         	24.722         	8.063
MS.288         	24.672         	8.105
MS.289         	24.622         	8.059
MS.290         	24.573         	8.077
MS.291         	24.525         	8.045
MS.292         	24.475         	8.081
MS.293         	24.427         	8.077
MS.294         	24.377         	8.095
MS.295         	24.33          	8.028
MS.296         	24.28          	8.043
MS.297         	24.233         	8.077
MS.298         	24.182         	8.057
MS.299         	24.135         	8.077
MS.300         	24.087         	8.004
MS.301         	24.038         	8.087
MS.302         	23.99          	8.069
MS.303         	23.942         	8.107
MS.304         	23.895         	8.057
MS.305         	23.847         	8.049
MS.306         	23.8           	8.087
MS.307         	23.752         	8.091
MS.308         	23.705         	8.065
MS.309         	23.657         	8.002
MS.310         	23.61          	8.053
MS.311         	23.562         	7.986
MS.312         	23.515         	8.063
MS.313         	23.467         	8.02
MS.314         	23.422         	8.049
MS.315         	23.375         	8.059
MS.316         	23.327         	8.022
MS.317         	23.282         	7.988
MS.318         	23.235         	7.926
MS.319         	23.188         	7.962
MS.320         	23.142         	8.004
MS.321         	23.095         	7.938
MS.322         	23.05          	7.948
MS.323         	23.005         	7.954
MS.324         	22.957         	7.948
MS.325         	22.913         	7.956
MS.326         	22.868         	7.944
MS.327         	22.82          	7.938
MS.328         	22.775         	7.932
MS.329         	22.73          	7.944
MS.330         	22.685         	7.946
MS.331         	22.64          	7.932
MS.332         	22.592         	7.93
MS.333         	22.547         	7.934
MS.334         	22.502         	7.908
MS.335         	22.457         	7.916
MS.336         	22.413         	7.928
MS.337         	22.37          	7.869
MS.338         	22.325         	7.918
MS.339         	22.28          	7.891
MS.340         	22.235         	7.896
MS.341         	22.19          	7.926
MS.342         	22.145         	7.96
MS.343         	22.102         	7.912
MS.344         	22.057         	7.906
MS.345         	22.012         	7.906
MS.346         	21.97          	7.896
MS.347         	21.925         	7.912
MS.348         	21.882         	7.891
MS.349         	21.837         	7.9
MS.350         	21.795         	7.883
MS.351         	21.75          	7.887
MS.352         	21.708         	7.926
MS.353         	21.665         	7.875
MS.354         	21.62          	7.863
MS.355         	21.577         	7.92
MS.356         	21.535         	7.916
MS.357         	21.493         	7.916
MS.358         	21.448         	7.916
MS.359         	21.405         	7.877
MS.360         	21.362         	7.887
MS.361         	21.32          	7.851
MS.362         	21.278         	7.93
MS.363         	21.235         	7.879
MS.364         	21.192         	7.906
MS.365         	21.15          	7.887
MS.366         	21.108         	7.912
MS.367         	21.065         	7.902
MS.368         	21.025         	7.908
MS.369         	20.983         	7.934
MS.370         	20.94          	7.912
MS.371         	20.897         	7.871
MS.372         	20.858         	7.908
MS.373         	20.815         	7.891
MS.374         	20.772         	7.92
MS.375         	20.733         	7.924
MS.376         	20.69          	7.91
MS.377         	20.65          	7.912
MS.378         	20.608         	7.893
MS.379         	20.567         	7.902
MS.380         	20.525         	7.94
MS.381         	20.485         	7.922
MS.382         	20.442         	7.898
MS.383         	20.403         	7.916
MS.384         	20.362         	7.936
MS.385         	20.32          	7.91
MS.386         	20.28          	7.904
MS.387         	20.24          	7.914
MS.388         	20.2           	7.944
MS.389         	20.16          	7.936
MS.390         	20.12          	7.881
MS.391         	20.08          	7.908
MS.392         	20.038         	7.908
MS.393         	19.997         	7.908
MS.394         	19.958         	7.914
MS.395         	19.92          	7.9
MS.396         	19.88          	7.918
MS.397         	19.84          	7.906
MS.398         	19.8           	7.93
MS.399         	19.76          	7.91
MS.400         	19.72          	7.91
MS.401         	19.68          	7.91
MS.402         	19.642         	7.928
MS.403         	19.602         	7.928
MS.404         	19.562         	7.926
MS.405         	19.525         	7.908
MS.406         	19.485         	7.936
MS.407         	19.448         	7.936
MS.408         	19.407         	7.932
MS.409         	19.37          	7.936
MS.410         	19.33          	7.902
MS.411         	19.292         	7.928
MS.412         	19.252         	7.91
MS.413         	19.215         	7.922
MS.414         	19.175         	7.938
MS.415         	19.137         	7.926
MS.416         	19.1           	7.934
MS.417         	19.062         	7.926
MS.418         	19.022         	7.922
MS.419         	18.985         	7.928
MS.420         	18.948         	7.891
MS.421         	18.91          	7.924
MS.422         	18.872         	7.887
MS.423         	18.835         	7.9
MS.424         	18.797         	7.936
MS.425         	18.76          	7.934
MS.426         	18.722         	7.944
MS.427         	18.685         	7.885
MS.428         	18.647         	7.898
MS.429         	18.61          	7.887
MS.430         	18.573         	7.91
MS.431         	18.535         	7.906
MS.432         	18.497         	7.891
MS.433         	18.46          	7.893
MS.434         	18.425         	7.946
MS.435         	18.387         	7.908
MS.436         	18.35          	7.916
MS.437         	18.315         	7.879
MS.438         	18.278         	7.891
MS.439         	18.24          	7.912
MS.440         	18.205         	7.9
MS.441         	18.167         	7.94
MS.442         	18.132         	7.898
MS.443         	18.095         	7.873
MS.444         	18.06          	7.896
MS.445         	18.022         	7.887
MS.446         	17.987         	7.904
MS.447         	17.952         	7.9
MS.448         	17.915         	7.898
MS.449         	17.88          	7.887
MS.450         	17.845         	7.904
MS.451         	17.807         	7.857
MS.452         	17.772         	7.857
MS.453         	17.737         	7.875
MS.454         	17.702         	7.841
MS.455         	17.667         	7.849
MS.456         	17.63          	7.811
MS.457         	17.595         	7.853
MS.458         	17.56          	7.785
MS.459         	17.525         	7.833
MS.460         	17.49          	7.857
MS.461         	17.455         	7.839
MS.462         	17.42          	7.845
MS.463         	17.385         	7.829
MS.464         	17.352         	7.815
MS.465         	17.317         	7.811
MS.466         	17.282         	7.791
MS.467         	17.247         	7.827
MS.468         	17.212         	7.795
MS.469         	17.177         	7.797
MS.470         	17.145         	7.817
MS.471         	17.11          	7.785
MS.472         	17.075         	7.801
MS.473         	17.042         	7.791
MS.474         	17.007         	7.807
MS.475         	16.972         	7.801
MS.476         	16.94          	7.791
MS.477         	16.905         	7.797
MS.478         	16.872         	7.805
MS.479         	16.837         	7.805
MS.480         	16.805         	7.809
MS.481         	16.77          	7.783
MS.482         	16.737         	7.777
MS.483         	16.705         	7.789
MS.484         	16.67          	7.797
MS.485         	16.637         	7.757
MS.486         	16.605         	7.759
MS.487         	16.57          	7.785
MS.488         	16.538         	7.761
MS.489         	16.505         	7.759
MS.490         	16.472         	7.785
MS.491         	16.44          	7.781
MS.492         	16.407         	7.763
MS.493         	16.372         	7.771
MS.494         	16.34          	7.771
MS.495         	16.307         	7.807
MS.496         	16.275         	7.761
MS.497         	16.243         	7.773
MS.498         	16.21          	7.761
MS.499         	16.177         	7.767
