File:              	C:\Qtrac\Data\Daniel M Sørensen\MScan multicentre study\Data from centres\Roskilde\Folders with NC-examinations\ROS_N3a\MBC00304C.QZD
Name:              	DK.ROS.NC.3.1
Protocol:          	MSCAN-R2
Date:              	4/3/20
Start time:        	14:47:03
Age:               	22
Sex:               	f
Temperature:       	37.4
S/R sites:         	Per-TA
NC/disease:        	NC
Operator:          	MB
Comments:
M-SCAN DATA (13.5-1.7m)
Scanpts: 53, 59, 1202, 1224
Stim. (mA)     	Amp. (mV)
MS.1           	40.5           	5.875
MS.2           	40.5           	5.867
MS.3           	40.5           	5.857
MS.4           	40.5           	5.829
MS.5           	40.5           	5.726
MS.6           	40.5           	5.861
MS.7           	40.5           	5.833
MS.8           	40.5           	5.861
MS.9           	40.5           	5.881
MS.10          	40.5           	5.883
MS.11          	40.5           	5.815
MS.12          	40.5           	5.891
MS.13          	40.5           	5.821
MS.14          	40.5           	5.889
MS.15          	40.5           	5.904
MS.16          	40.5           	5.895
MS.17          	40.5           	5.899
MS.18          	40.5           	5.863
MS.19          	40.5           	5.861
MS.20          	40.5           	5.92
MS.21          	40.5           	5.879
MS.22          	40.5           	5.916
MS.23          	40.5           	5.91
MS.24          	40.337         	5.857
MS.25          	40.257         	5.891
MS.26          	40.177         	5.901
MS.27          	40.097         	5.942
MS.28          	40.017         	5.899
MS.29          	39.938         	5.861
MS.30          	39.857         	5.944
MS.31          	39.778         	5.914
MS.32          	39.697         	5.897
MS.33          	39.618         	5.845
MS.34          	39.54          	5.827
MS.35          	39.46          	5.869
MS.36          	39.382         	5.906
MS.37          	39.302         	5.857
MS.38          	39.225         	5.857
MS.39          	39.145         	5.857
MS.40          	39.067         	5.914
MS.41          	38.99          	5.944
MS.42          	38.912         	5.918
MS.43          	38.835         	5.988
MS.44          	38.757         	5.944
MS.45          	38.68          	5.966
MS.46          	38.603         	5.964
MS.47          	38.525         	5.942
MS.48          	38.447         	5.966
MS.49          	38.37          	6.022
MS.50          	38.295         	5.968
MS.51          	38.217         	5.942
MS.52          	38.142         	5.96
MS.53          	38.065         	5.922
MS.54          	37.99          	5.879
MS.55          	37.912         	5.942
MS.56          	37.837         	5.928
MS.57          	37.763         	5.889
MS.58          	37.688         	5.954
MS.59          	37.61          	5.893
MS.60          	37.535         	5.946
MS.61          	37.46          	5.869
MS.62          	37.385         	5.869
MS.63          	37.312         	5.873
MS.64          	37.237         	5.853
MS.65          	37.162         	5.914
MS.66          	37.087         	5.897
MS.67          	37.015         	5.936
MS.68          	36.94          	5.906
MS.69          	36.868         	5.899
MS.70          	36.792         	5.984
MS.71          	36.72          	5.879
MS.72          	36.645         	5.906
MS.73          	36.572         	5.857
MS.74          	36.5           	5.877
MS.75          	36.427         	5.855
MS.76          	36.355         	5.904
MS.77          	36.28          	5.857
MS.78          	36.208         	5.908
MS.79          	36.138         	5.926
MS.80          	36.065         	5.916
MS.81          	35.993         	5.831
MS.82          	35.92          	5.899
MS.83          	35.847         	5.865
MS.84          	35.778         	5.897
MS.85          	35.705         	5.893
MS.86          	35.635         	5.813
MS.87          	35.562         	5.841
MS.88          	35.493         	5.851
MS.89          	35.42          	5.873
MS.90          	35.35          	5.855
MS.91          	35.28          	5.873
MS.92          	35.21          	5.899
MS.93          	35.138         	5.803
MS.94          	35.068         	5.841
MS.95          	34.997         	5.825
MS.96          	34.927         	5.847
MS.97          	34.857         	5.752
MS.98          	34.79          	5.805
MS.99          	34.72          	5.827
MS.100         	34.65          	5.783
MS.101         	34.58          	5.744
MS.102         	34.513         	5.829
MS.103         	34.443         	5.716
MS.104         	34.375         	5.7
MS.105         	34.305         	5.746
MS.106         	34.237         	5.732
MS.107         	34.167         	5.847
MS.108         	34.1           	5.66
MS.109         	34.032         	5.779
MS.110         	33.965         	5.763
MS.111         	33.895         	5.738
MS.112         	33.827         	5.863
MS.113         	33.76          	5.809
MS.114         	33.693         	5.763
MS.115         	33.625         	5.754
MS.116         	33.56          	5.867
MS.117         	33.493         	5.811
MS.118         	33.425         	5.799
MS.119         	33.357         	5.724
MS.120         	33.292         	5.797
MS.121         	33.225         	5.734
MS.122         	33.157         	5.823
MS.123         	33.092         	5.773
MS.124         	33.025         	5.841
MS.125         	32.96          	5.754
MS.126         	32.895         	5.835
MS.127         	32.827         	5.791
MS.128         	32.763         	5.773
MS.129         	32.697         	5.726
MS.130         	32.632         	5.684
MS.131         	32.568         	5.867
MS.132         	32.502         	5.758
MS.133         	32.438         	5.716
MS.134         	32.372         	5.821
MS.135         	32.307         	5.813
MS.136         	32.243         	5.819
MS.137         	32.177         	5.803
MS.138         	32.115         	5.789
MS.139         	32.05          	5.813
MS.140         	31.985         	5.779
MS.141         	31.922         	5.718
MS.142         	31.858         	5.69
MS.143         	31.795         	5.72
MS.144         	31.73          	5.652
MS.145         	31.667         	5.756
MS.146         	31.605         	5.809
MS.147         	31.542         	5.69
MS.148         	31.477         	5.708
MS.149         	31.415         	5.714
MS.150         	31.352         	5.742
MS.151         	31.29          	5.658
MS.152         	31.227         	5.758
MS.153         	31.165         	5.714
MS.154         	31.102         	5.75
MS.155         	31.04          	5.722
MS.156         	30.977         	5.634
MS.157         	30.917         	5.76
MS.158         	30.855         	5.72
MS.159         	30.792         	5.781
MS.160         	30.733         	5.716
MS.161         	30.67          	5.769
MS.162         	30.61          	5.767
MS.163         	30.547         	5.754
MS.164         	30.487         	5.827
MS.165         	30.425         	5.702
MS.166         	30.365         	5.752
MS.167         	30.305         	5.593
MS.168         	30.245         	5.765
MS.169         	30.182         	5.7
MS.170         	30.122         	5.783
MS.171         	30.062         	5.712
MS.172         	30.002         	5.7
MS.173         	29.942         	5.791
MS.174         	29.882         	5.752
MS.175         	29.823         	5.791
MS.176         	29.765         	5.817
MS.177         	29.705         	5.708
MS.178         	29.645         	5.636
MS.179         	29.585         	5.75
MS.180         	29.528         	5.646
MS.181         	29.467         	5.734
MS.182         	29.41          	5.628
MS.183         	29.35          	5.601
MS.184         	29.292         	5.466
MS.185         	29.233         	5.45
MS.186         	29.175         	5.565
MS.187         	29.117         	5.456
MS.188         	29.057         	5.559
MS.189         	29             	5.456
MS.190         	28.942         	5.277
MS.191         	28.885         	5.301
MS.192         	28.827         	5.325
MS.193         	28.77          	5.188
MS.194         	28.712         	5.472
MS.195         	28.655         	5.267
MS.196         	28.597         	5.34
MS.197         	28.54          	5.47
MS.198         	28.483         	5.269
MS.199         	28.425         	5.217
MS.200         	28.37          	5.366
MS.201         	28.312         	5.156
MS.202         	28.255         	5.1
MS.203         	28.2           	5.303
MS.204         	28.142         	5.317
MS.205         	28.087         	5.136
MS.206         	28.03          	5.1
MS.207         	27.975         	4.884
MS.208         	27.92          	5.015
MS.209         	27.862         	4.949
MS.210         	27.807         	4.963
MS.211         	27.752         	4.79
MS.212         	27.698         	4.794
MS.213         	27.64          	4.915
MS.214         	27.585         	4.828
MS.215         	27.53          	4.894
MS.216         	27.475         	4.852
MS.217         	27.42          	4.78
MS.218         	27.365         	4.665
MS.219         	27.31          	4.693
MS.220         	27.257         	4.675
MS.221         	27.202         	4.518
MS.222         	27.147         	4.504
MS.223         	27.092         	4.548
MS.224         	27.04          	4.57
MS.225         	26.985         	4.659
MS.226         	26.932         	4.522
MS.227         	26.877         	4.568
MS.228         	26.825         	4.552
MS.229         	26.77          	4.498
MS.230         	26.717         	4.411
MS.231         	26.662         	4.322
MS.232         	26.61          	4.484
MS.233         	26.557         	4.282
MS.234         	26.505         	4.32
MS.235         	26.45          	4.451
MS.236         	26.397         	4.379
MS.237         	26.345         	4.179
MS.238         	26.292         	4.524
MS.239         	26.24          	4.477
MS.240         	26.188         	4.318
MS.241         	26.135         	4.33
MS.242         	26.082         	4.296
MS.243         	26.032         	4.246
MS.244         	25.98          	4.234
MS.245         	25.927         	4.403
MS.246         	25.875         	4.23
MS.247         	25.825         	4.214
MS.248         	25.772         	4.042
MS.249         	25.72          	4.131
MS.250         	25.67          	4.099
MS.251         	25.618         	3.992
MS.252         	25.567         	3.944
MS.253         	25.515         	3.883
MS.254         	25.465         	3.918
MS.255         	25.415         	4.079
MS.256         	25.362         	3.875
MS.257         	25.312         	3.801
MS.258         	25.262         	3.712
MS.259         	25.212         	3.64
MS.260         	25.16          	3.495
MS.261         	25.11          	3.527
MS.262         	25.06          	3.619
MS.263         	25.01          	3.656
MS.264         	24.96          	3.511
MS.265         	24.91          	3.625
MS.266         	24.86          	3.384
MS.267         	24.812         	3.468
MS.268         	24.762         	3.368
MS.269         	24.712         	3.444
MS.270         	24.663         	3.104
MS.271         	24.612         	3.201
MS.272         	24.565         	3.303
MS.273         	24.515         	3.188
MS.274         	24.467         	3.108
MS.275         	24.417         	3.124
MS.276         	24.368         	3.078
MS.277         	24.32          	2.933
MS.278         	24.272         	2.769
MS.279         	24.222         	2.812
MS.280         	24.175         	2.854
MS.281         	24.125         	2.614
MS.282         	24.077         	2.826
MS.283         	24.03          	2.919
MS.284         	23.983         	2.407
MS.285         	23.935         	2.558
MS.286         	23.885         	2.421
MS.287         	23.837         	2.645
MS.288         	23.79          	2.471
MS.289         	23.743         	2.367
MS.290         	23.695         	2.415
MS.291         	23.647         	2.342
MS.292         	23.6           	2.197
MS.293         	23.555         	2.308
MS.294         	23.507         	2.332
MS.295         	23.46          	2.298
MS.296         	23.413         	2.093
MS.297         	23.368         	2.145
MS.298         	23.32          	2.044
MS.299         	23.272         	2.161
MS.300         	23.227         	2.01
MS.301         	23.18          	1.964
MS.302         	23.135         	2.006
MS.303         	23.087         	1.988
MS.304         	23.042         	1.871
MS.305         	22.995         	1.905
MS.306         	22.95          	1.928
MS.307         	22.903         	1.958
MS.308         	22.858         	1.815
MS.309         	22.812         	1.855
MS.310         	22.767         	1.766
MS.311         	22.72          	1.742
MS.312         	22.675         	1.73
MS.313         	22.63          	1.64
MS.314         	22.585         	1.736
MS.315         	22.54          	1.476
MS.316         	22.495         	1.529
MS.317         	22.45          	1.509
MS.318         	22.405         	1.46
MS.319         	22.36          	1.424
MS.320         	22.315         	1.343
MS.321         	22.272         	1.47
MS.322         	22.227         	1.408
MS.323         	22.182         	1.319
MS.324         	22.137         	1.422
MS.325         	22.095         	1.299
MS.326         	22.05          	1.398
MS.327         	22.005         	1.333
MS.328         	21.962         	1.446
MS.329         	21.917         	1.291
MS.330         	21.875         	1.215
MS.331         	21.83          	1.255
MS.332         	21.788         	1.192
MS.333         	21.743         	1.178
MS.334         	21.7           	1.158
MS.335         	21.657         	1.146
MS.336         	21.612         	1.192
MS.337         	21.57          	1.223
MS.338         	21.528         	1.15
MS.339         	21.485         	1.102
MS.340         	21.44          	1.182
MS.341         	21.397         	1.118
MS.342         	21.355         	1.059
MS.343         	21.312         	1.011
MS.344         	21.27          	1.057
MS.345         	21.227         	1.065
MS.346         	21.185         	1.019
MS.347         	21.142         	0.955
MS.348         	21.1           	0.947
MS.349         	21.057         	0.985
MS.350         	21.017         	0.967
MS.351         	20.975         	0.945
MS.352         	20.932         	0.886
MS.353         	20.89          	0.931
MS.354         	20.85          	0.872
MS.355         	20.807         	0.898
MS.356         	20.765         	0.838
MS.357         	20.725         	0.89
MS.358         	20.682         	0.892
MS.359         	20.642         	0.802
MS.360         	20.6           	0.806
MS.361         	20.56          	0.798
MS.362         	20.517         	0.83
MS.363         	20.477         	0.773
MS.364         	20.435         	0.788
MS.365         	20.395         	0.763
MS.366         	20.355         	0.737
MS.367         	20.315         	0.777
MS.368         	20.272         	0.767
MS.369         	20.233         	0.735
MS.370         	20.192         	0.719
MS.371         	20.153         	0.685
MS.372         	20.112         	0.717
MS.373         	20.073         	0.665
MS.374         	20.032         	0.651
MS.375         	19.993         	0.681
MS.376         	19.952         	0.669
MS.377         	19.913         	0.659
MS.378         	19.872         	0.638
MS.379         	19.833         	0.63
MS.380         	19.792         	0.661
MS.381         	19.752         	0.628
MS.382         	19.712         	0.636
MS.383         	19.675         	0.62
MS.384         	19.635         	0.576
MS.385         	19.595         	0.618
MS.386         	19.557         	0.564
MS.387         	19.517         	0.584
MS.388         	19.477         	0.582
MS.389         	19.44          	0.542
MS.390         	19.4           	0.532
MS.391         	19.362         	0.54
MS.392         	19.323         	0.536
MS.393         	19.285         	0.532
MS.394         	19.245         	0.544
MS.395         	19.208         	0.542
MS.396         	19.17          	0.487
MS.397         	19.13          	0.491
MS.398         	19.092         	0.487
MS.399         	19.055         	0.475
MS.400         	19.017         	0.495
MS.401         	18.977         	0.463
MS.402         	18.94          	0.506
MS.403         	18.903         	0.493
MS.404         	18.865         	0.427
MS.405         	18.827         	0.431
MS.406         	18.79          	0.425
MS.407         	18.753         	0.441
MS.408         	18.715         	0.465
MS.409         	18.677         	0.431
MS.410         	18.64          	0.469
MS.411         	18.602         	0.409
MS.412         	18.565         	0.425
MS.413         	18.528         	0.421
MS.414         	18.493         	0.407
MS.415         	18.455         	0.423
MS.416         	18.417         	0.401
MS.417         	18.38          	0.395
MS.418         	18.345         	0.399
MS.419         	18.307         	0.346
MS.420         	18.27          	0.389
MS.421         	18.235         	0.357
MS.422         	18.198         	0.328
MS.423         	18.163         	0.367
MS.424         	18.125         	0.344
MS.425         	18.09          	0.314
MS.426         	18.052         	0.326
MS.427         	18.017         	0.371
MS.428         	17.98          	0.308
MS.429         	17.945         	0.3
MS.430         	17.91          	0.312
MS.431         	17.872         	0.288
MS.432         	17.837         	0.294
MS.433         	17.802         	0.304
MS.434         	17.765         	0.312
MS.435         	17.73          	0.298
MS.436         	17.695         	0.3
MS.437         	17.66          	0.268
MS.438         	17.625         	0.288
MS.439         	17.59          	0.226
MS.440         	17.555         	0.26
MS.441         	17.52          	0.25
MS.442         	17.485         	0.23
MS.443         	17.45          	0.234
MS.444         	17.415         	0.246
MS.445         	17.38          	0.254
MS.446         	17.345         	0.242
MS.447         	17.31          	0.252
MS.448         	17.275         	0.226
MS.449         	17.24          	0.226
MS.450         	17.208         	0.222
MS.451         	17.172         	0.203
MS.452         	17.137         	0.211
MS.453         	17.105         	0.185
MS.454         	17.07          	0.195
MS.455         	17.035         	0.203
MS.456         	17.003         	0.191
MS.457         	16.967         	0.203
MS.458         	16.932         	0.185
MS.459         	16.9           	0.195
MS.460         	16.865         	0.216
MS.461         	16.833         	0.189
MS.462         	16.797         	0.175
MS.463         	16.765         	0.169
MS.464         	16.733         	0.175
MS.465         	16.698         	0.187
MS.466         	16.665         	0.183
MS.467         	16.632         	0.187
MS.468         	16.597         	0.167
MS.469         	16.565         	0.165
MS.470         	16.532         	0.179
MS.471         	16.5           	0.197
MS.472         	16.465         	0.155
MS.473         	16.432         	0.157
MS.474         	16.4           	0.157
MS.475         	16.368         	0.145
MS.476         	16.335         	0.163
MS.477         	16.302         	0.175
MS.478         	16.27          	0.147
MS.479         	16.237         	0.153
MS.480         	16.205         	0.145
MS.481         	16.172         	0.153
MS.482         	16.14          	0.157
MS.483         	16.108         	0.137
MS.484         	16.075         	0.153
MS.485         	16.042         	0.135
MS.486         	16.012         	0.155
MS.487         	15.98          	0.137
MS.488         	15.947         	0.123
MS.489         	15.915         	0.131
MS.490         	15.885         	0.143
MS.491         	15.852         	0.129
MS.492         	15.82          	0.123
MS.493         	15.79          	0.141
MS.494         	15.757         	0.141
MS.495         	15.725         	0.139
MS.496         	15.695         	0.135
MS.497         	15.662         	0.115
MS.498         	15.632         	0.137
MS.499         	15.6           	0.125
MS.500         	15.57          	0.127
