File:              	C:\Qtrac\Data\Daniel M Sørensen\MScan multicentre study\Data from centres\Toronto\Processed data\MSCC01119C.QZD
Name:              	CA.TOR.NC.1.2
Protocol:          	MSCAN-R2
Date:              	19/11/20
Start time:        	12:00:46
Age:               	36
Sex:               	M
Temperature:       	33.3
S/R sites:         	TA
NC/disease:        	NC
Operator:          	LP
Comments:          	use 2nd trial
M-SCAN DATA (Repeat 2/2, 8.3-4.7m)
Scanpts: 4, 9, 357, 363
Stim. (mA)     	Amp. (mV)
MS.1           	33             	8.351
MS.2           	33             	8.313
MS.3           	32.935         	8.356
MS.4           	32.868         	8.337
MS.5           	32.802         	8.35
MS.6           	32.737         	8.342
MS.7           	32.673         	8.334
MS.8           	32.607         	8.32
MS.9           	32.54          	8.353
MS.10          	32.475         	8.373
MS.11          	32.412         	8.329
MS.12          	32.347         	8.298
MS.13          	32.282         	8.314
MS.14          	32.217         	8.348
MS.15          	32.153         	8.252
MS.16          	32.09          	8.312
MS.17          	32.025         	8.302
MS.18          	31.96          	8.174
MS.19          	31.897         	8.221
MS.20          	31.832         	8.328
MS.21          	31.77          	8.228
MS.22          	31.705         	8.219
MS.23          	31.642         	8.158
MS.24          	31.58          	8.333
MS.25          	31.517         	8.29
MS.26          	31.452         	8.217
MS.27          	31.39          	8.259
MS.28          	31.327         	8.209
MS.29          	31.265         	8.186
MS.30          	31.202         	8.269
MS.31          	31.14          	8.113
MS.32          	31.077         	8.204
MS.33          	31.015         	8.229
MS.34          	30.955         	8.121
MS.35          	30.892         	8.185
MS.36          	30.83          	8.167
MS.37          	30.77          	8.105
MS.38          	30.707         	8.168
MS.39          	30.645         	8.102
MS.40          	30.585         	8.124
MS.41          	30.525         	8.068
MS.42          	30.462         	8.096
MS.43          	30.403         	8.07
MS.44          	30.34          	8.051
MS.45          	30.28          	8.02
MS.46          	30.22          	7.997
MS.47          	30.16          	7.988
MS.48          	30.1           	8.027
MS.49          	30.04          	7.925
MS.50          	29.98          	7.92
MS.51          	29.92          	7.977
MS.52          	29.86          	7.943
MS.53          	29.8           	7.924
MS.54          	29.74          	7.949
MS.55          	29.68          	7.867
MS.56          	29.622         	7.867
MS.57          	29.562         	7.864
MS.58          	29.502         	7.788
MS.59          	29.445         	7.833
MS.60          	29.385         	7.882
MS.61          	29.327         	7.814
MS.62          	29.267         	7.833
MS.63          	29.21          	7.792
MS.64          	29.153         	7.732
MS.65          	29.092         	7.759
MS.66          	29.035         	7.662
MS.67          	28.977         	7.704
MS.68          	28.92          	7.751
MS.69          	28.862         	7.655
MS.70          	28.805         	7.666
MS.71          	28.747         	7.588
MS.72          	28.69          	7.507
MS.73          	28.632         	7.529
MS.74          	28.575         	7.571
MS.75          	28.517         	7.637
MS.76          	28.46          	7.405
MS.77          	28.403         	7.479
MS.78          	28.347         	7.478
MS.79          	28.29          	7.432
MS.80          	28.233         	7.368
MS.81          	28.177         	7.432
MS.82          	28.12          	7.316
MS.83          	28.065         	7.393
MS.84          	28.007         	7.323
MS.85          	27.952         	7.427
MS.86          	27.897         	7.373
MS.87          	27.84          	7.28
MS.88          	27.785         	7.28
MS.89          	27.73          	7.316
MS.90          	27.675         	7.194
MS.91          	27.62          	7.362
MS.92          	27.565         	7.26
MS.93          	27.51          	7.175
MS.94          	27.455         	7.107
MS.95          	27.4           	7.123
MS.96          	27.345         	7.009
MS.97          	27.29          	7.037
MS.98          	27.235         	7.057
MS.99          	27.18          	6.879
MS.100         	27.127         	7.059
MS.101         	27.073         	6.866
MS.102         	27.017         	6.849
MS.103         	26.965         	6.851
MS.104         	26.91          	7.034
MS.105         	26.858         	6.881
MS.106         	26.802         	6.873
MS.107         	26.75          	6.757
MS.108         	26.695         	6.741
MS.109         	26.642         	6.774
MS.110         	26.59          	6.801
MS.111         	26.535         	6.863
MS.112         	26.483         	6.823
MS.113         	26.43          	6.774
MS.114         	26.377         	6.6
MS.115         	26.325         	6.787
MS.116         	26.272         	6.787
MS.117         	26.22          	6.654
MS.118         	26.167         	6.575
MS.119         	26.115         	6.571
MS.120         	26.062         	6.521
MS.121         	26.01          	6.587
MS.122         	25.957         	6.438
MS.123         	25.907         	6.488
MS.124         	25.855         	6.448
MS.125         	25.802         	6.483
MS.126         	25.752         	6.469
MS.127         	25.7           	6.326
MS.128         	25.65          	6.469
MS.129         	25.597         	6.228
MS.130         	25.547         	6.432
MS.131         	25.495         	6.271
MS.132         	25.445         	6.276
MS.133         	25.395         	6.156
MS.134         	25.342         	6.237
MS.135         	25.292         	6.189
MS.136         	25.243         	6.146
MS.137         	25.192         	6.04
MS.138         	25.14          	6.061
MS.139         	25.09          	5.992
MS.140         	25.04          	5.953
MS.141         	24.99          	5.953
MS.142         	24.94          	5.97
MS.143         	24.89          	5.986
MS.144         	24.842         	5.907
MS.145         	24.792         	5.964
MS.146         	24.743         	5.857
MS.147         	24.692         	5.908
MS.148         	24.642         	5.93
MS.149         	24.595         	5.907
MS.150         	24.545         	5.69
MS.151         	24.495         	5.583
MS.152         	24.448         	5.657
MS.153         	24.397         	5.593
MS.154         	24.35          	5.48
MS.155         	24.3           	5.641
MS.156         	24.252         	5.43
MS.157         	24.202         	5.464
MS.158         	24.155         	5.487
MS.159         	24.108         	5.538
MS.160         	24.06          	5.392
MS.161         	24.01          	5.26
MS.162         	23.962         	5.308
MS.163         	23.915         	5.372
MS.164         	23.868         	5.437
MS.165         	23.82          	5.292
MS.166         	23.772         	5.354
MS.167         	23.725         	5.206
MS.168         	23.677         	5.477
MS.169         	23.63          	5.446
MS.170         	23.582         	5.372
MS.171         	23.535         	5.144
MS.172         	23.487         	5.343
MS.173         	23.442         	5.277
MS.174         	23.395         	5.085
MS.175         	23.347         	5.007
MS.176         	23.302         	5.065
MS.177         	23.255         	5.039
MS.178         	23.207         	4.803
MS.179         	23.163         	5.039
MS.180         	23.115         	4.929
MS.181         	23.07          	4.901
MS.182         	23.022         	4.856
MS.183         	22.977         	4.57
MS.184         	22.932         	4.651
MS.185         	22.885         	4.982
MS.186         	22.84          	4.661
MS.187         	22.795         	4.785
MS.188         	22.747         	4.678
MS.189         	22.702         	4.489
MS.190         	22.657         	4.37
MS.191         	22.612         	4.514
MS.192         	22.567         	4.552
MS.193         	22.522         	4.292
MS.194         	22.477         	4.493
MS.195         	22.432         	4.471
MS.196         	22.387         	4.272
MS.197         	22.342         	4.224
MS.198         	22.297         	4.279
MS.199         	22.252         	4.158
MS.200         	22.21          	4.052
MS.201         	22.165         	4.038
MS.202         	22.12          	4
MS.203         	22.077         	3.915
MS.204         	22.032         	3.988
MS.205         	21.987         	3.896
MS.206         	21.945         	3.724
MS.207         	21.9           	3.756
MS.208         	21.858         	4.016
MS.209         	21.812         	3.763
MS.210         	21.77          	3.735
MS.211         	21.725         	3.893
MS.212         	21.682         	3.691
MS.213         	21.64          	3.66
MS.214         	21.595         	3.766
MS.215         	21.552         	3.885
MS.216         	21.51          	3.695
MS.217         	21.467         	3.733
MS.218         	21.425         	3.612
MS.219         	21.38          	3.453
MS.220         	21.337         	3.306
MS.221         	21.295         	3.358
MS.222         	21.252         	3.429
MS.223         	21.21          	3.385
MS.224         	21.167         	3.424
MS.225         	21.125         	3.088
MS.226         	21.085         	3.154
MS.227         	21.042         	3.176
MS.228         	21             	3.185
MS.229         	20.958         	3.007
MS.230         	20.915         	3.362
MS.231         	20.875         	2.866
MS.232         	20.833         	3.195
MS.233         	20.79          	2.869
MS.234         	20.75          	2.692
MS.235         	20.708         	2.714
MS.236         	20.667         	2.789
MS.237         	20.625         	2.792
MS.238         	20.585         	2.936
MS.239         	20.542         	2.742
MS.240         	20.502         	2.754
MS.241         	20.46          	2.665
MS.242         	20.42          	2.627
MS.243         	20.38          	2.548
MS.244         	20.337         	2.621
MS.245         	20.297         	2.4
MS.246         	20.257         	2.551
MS.247         	20.217         	2.504
MS.248         	20.177         	2.505
MS.249         	20.135         	2.528
MS.250         	20.095         	2.463
MS.251         	20.055         	2.407
MS.252         	20.015         	2.639
MS.253         	19.975         	2.458
MS.254         	19.935         	2.352
MS.255         	19.895         	2.307
MS.256         	19.855         	2.236
MS.257         	19.817         	2.217
MS.258         	19.778         	2.158
MS.259         	19.737         	2.219
MS.260         	19.698         	2.119
MS.261         	19.657         	1.893
MS.262         	19.62          	2.108
MS.263         	19.58          	1.84
MS.264         	19.54          	1.865
MS.265         	19.502         	1.857
MS.266         	19.462         	1.853
MS.267         	19.425         	1.75
MS.268         	19.385         	1.658
MS.269         	19.347         	1.721
MS.270         	19.307         	1.665
MS.271         	19.27          	1.665
MS.272         	19.23          	1.508
MS.273         	19.192         	1.581
MS.274         	19.155         	1.51
MS.275         	19.115         	1.63
MS.276         	19.077         	1.624
MS.277         	19.04          	1.477
MS.278         	19.002         	1.316
MS.279         	18.962         	1.46
MS.280         	18.925         	1.411
MS.281         	18.887         	1.428
MS.282         	18.85          	1.36
MS.283         	18.812         	1.393
MS.284         	18.775         	1.36
MS.285         	18.737         	1.312
MS.286         	18.7           	1.312
MS.287         	18.663         	1.466
MS.288         	18.625         	1.436
MS.289         	18.587         	1.189
MS.290         	18.55          	1.235
MS.291         	18.512         	1.409
MS.292         	18.477         	1.342
MS.293         	18.44          	1.284
MS.294         	18.403         	1.195
MS.295         	18.365         	0.934
MS.296         	18.33          	1.223
MS.297         	18.292         	1.248
MS.298         	18.255         	1.227
MS.299         	18.22          	1.19
MS.300         	18.182         	1.169
MS.301         	18.147         	1.132
MS.302         	18.11          	1.172
MS.303         	18.075         	1.189
MS.304         	18.038         	0.906
MS.305         	18.003         	0.95
MS.306         	17.967         	1.285
MS.307         	17.93          	1.315
MS.308         	17.895         	1.168
MS.309         	17.86          	1.086
MS.310         	17.823         	1.046
MS.311         	17.788         	1.152
MS.312         	17.753         	1.014
MS.313         	17.717         	1.129
MS.314         	17.682         	1
MS.315         	17.645         	0.742
MS.316         	17.61          	0.941
MS.317         	17.575         	1.03
MS.318         	17.54          	1.03
MS.319         	17.505         	0.914
MS.320         	17.47          	0.812
MS.321         	17.435         	0.765
MS.322         	17.4           	0.813
MS.323         	17.365         	0.618
MS.324         	17.33          	0.759
MS.325         	17.297         	0.723
MS.326         	17.262         	0.428
MS.327         	17.227         	0.415
MS.328         	17.192         	0.542
MS.329         	17.157         	0.673
MS.330         	17.125         	0.625
MS.331         	17.09          	0.736
MS.332         	17.055         	0.562
MS.333         	17.022         	0.714
MS.334         	16.987         	0.603
MS.335         	16.955         	0.457
MS.336         	16.92          	0.497
MS.337         	16.887         	0.452
MS.338         	16.852         	0.427
MS.339         	16.82          	0.457
MS.340         	16.785         	0.437
MS.341         	16.753         	0.398
MS.342         	16.717         	0.393
MS.343         	16.685         	0.415
MS.344         	16.653         	0.417
MS.345         	16.618         	0.243
MS.346         	16.585         	0.251
MS.347         	16.552         	0.211
MS.348         	16.52          	0.232
MS.349         	16.485         	0.234
MS.350         	16.452         	0.217
MS.351         	16.42          	0.236
MS.352         	16.387         	0.253
MS.353         	16.355         	0.242
MS.354         	16.323         	0.215
MS.355         	16.29          	0.217
MS.356         	16.257         	0.223
MS.357         	16.225         	0.201
MS.358         	16.192         	0.19
MS.359         	16.16          	0.205
MS.360         	16.128         	0.183
MS.361         	16.095         	0.226
MS.362         	16.062         	0.2
MS.363         	16.03          	0.188
MS.364         	15.997         	0.226
MS.365         	15.967         	0.198
MS.366         	15.935         	0.217
MS.367         	15.902         	0.183
MS.368         	15.87          	0.187
DERIVED EXCITABILITY VARIABLES
Program = QTracP 3/4/2020
Threshold method = 6 (optimised for CAP, using data for present condition only)
SR method = 1 (using actual data values)
6.                 	0.000               	Peak response\(mV)
9.                 	33.3                	Temperature ( C)
17.                	36                  	Age (years)
18.                	1                   	Sex (M=1, F=2)

EXTRA VARIABLES

MScPeak(mV) = 8.34
MScS5(mA) = 16.91
MScS50(mA) = 22.26
MScS95(mA) = 29.9
MScNSteps = 2
MScSteps(%) = 4.6
MScStepMax(%) = 2.6
MScD50 = 55
MScSlope = 3.77
MSFPeakAmp(mV) = 8.14
MSFNUnits = 160
MSFMeanUnitAmp(uV) = 50.9
MSFHuntTime(m) = 1.87
MSFError(%) = 4.98
MSFNLarge = 43.62
MSFMedianAmp(%) = 0.482
MSFMedianAmp(mV) = 0.0393
MSFHalfAmpAmp(%) = 0.715
MSFHalfAmpAmp(mV) = 0.0582
MSFLargestAmp(%) = 2.55
MSFLargestAmp(mV) = 0.207
MSFMeanRS(%) = 2
MSFOpts = 10106121
MSFTraces = 360
MSFSizeLimit(uV) = 20.4
MSFLimitType = 1
MSFSmallestAmp(uV) = 20.5

EXTRA WAVEFORMS


!MScan Model
!160
	1	16.44	0.4	2
	2	16.51	0.5	2
	3	16.61	0.36	2
	4	16.66	0.32	2
	5	16.69	0.29	2
	6	16.72	0.36	2
	7	16.77	0.51	2
	8	16.92	1.08	2
	9	17.25	2.02	2
	10	17.38	1.13	2
	11	17.47	0.47	2
	12	17.58	2.55	2
	13	18.09	2.08	2
	14	18.57	1.57	2
	15	18.83	1.39	2
	16	18.97	0.77	2
	17	19.07	0.52	2
	18	19.12	0.39	2
	19	19.16	0.4	2
	20	19.21	0.36	2
	21	19.25	0.36	2
	22	19.29	0.42	2
	23	19.34	0.47	2
	24	19.38	0.46	2
	25	19.42	0.38	2
	26	19.45	0.4	2
	27	19.49	0.59	2
	28	19.54	0.63	2
	29	19.57	0.37	2
	30	19.6	0.37	2
	31	19.63	0.36	2
	32	19.65	0.35	2
	33	19.68	0.4	2
	34	19.71	0.41	2
	35	19.74	0.42	2
	36	19.8	0.94	2
	37	19.87	0.63	2
	38	19.93	0.65	2
	39	20.02	0.97	2
	40	20.11	0.87	2
	41	20.26	1.45	2
	42	20.4	0.9	2
	43	20.51	0.91	2
	44	20.63	1.21	2
	45	20.76	1.13	2
	46	20.87	1.26	2
	47	20.98	1.2	2
	48	21.06	1.11	2
	49	21.14	1.27	2
	50	21.21	0.8	2
	51	21.26	0.59	2
	52	21.32	0.43	2
	53	21.37	0.64	2
	54	21.49	1.31	2
	55	21.65	1	2
	56	21.83	1.91	2
	57	21.92	0.57	2
	58	21.97	0.46	2
	59	22.02	0.5	2
	60	22.07	0.51	2
	61	22.12	0.49	2
	62	22.17	0.42	2
	63	22.22	0.55	2
	64	22.26	0.55	2
	65	22.31	0.51	2
	66	22.35	0.51	2
	67	22.4	0.55	2
	68	22.44	0.58	2
	69	22.5	0.71	2
	70	22.59	1.1	2
	71	22.68	0.85	2
	72	22.77	0.92	2
	73	22.87	0.79	2
	74	22.97	0.93	2
	75	23.06	1.07	2
	76	23.16	1.17	2
	77	23.25	0.96	2
	78	23.34	0.77	2
	79	23.43	0.76	2
	80	23.68	1.58	2
	81	23.97	1.51	2
	82	24.07	0.29	2
	83	24.16	0.62	2
	84	24.21	0.37	2
	85	24.27	0.36	2
	86	24.32	0.43	2
	87	24.38	0.52	2
	88	24.44	0.55	2
	89	24.5	0.52	2
	90	24.56	0.31	2
	91	24.62	0.46	2
	92	24.68	0.54	2
	93	24.75	0.74	2
	94	24.83	0.6	2.4
	95	24.89	0.47	2
	96	24.95	0.35	2
	97	25	0.36	2
	98	25.05	0.37	2
	99	25.1	0.34	2
	100	25.15	0.31	2
	101	25.23	0.48	2
	102	25.31	0.45	2
	103	25.34	0.29	2
	104	25.38	0.3	2
	105	25.43	0.39	2
	106	25.49	0.43	2
	107	25.55	0.37	2
	108	25.6	0.34	2
	109	25.66	0.38	2
	110	25.75	0.57	2
	111	25.84	0.65	2
	112	25.92	0.48	2
	113	25.98	0.34	2
	114	26.04	0.33	2
	115	26.09	0.35	2
	116	26.15	0.36	2
	117	26.25	0.56	2
	118	26.35	0.45	2
	119	26.51	0.87	2
	120	26.79	1.02	2
	121	27.04	0.34	2
	122	27.17	0.97	2
	123	27.27	0.43	2
	124	27.33	0.35	2
	125	27.45	0.52	2
	126	27.5	0.81	2
	127	27.51	0.39	2
	128	27.59	0.57	2
	129	27.68	0.44	2
	130	27.77	0.38	2
	131	27.94	0.91	2
	132	28.1	0.66	2
	133	28.2	0.33	2
	134	28.3	0.35	2
	135	28.38	0.33	2
	136	28.51	0.48	2
	137	28.58	0.3	2
	138	28.64	0.32	2
	139	28.71	0.31	2
	140	28.77	0.31	2
	141	28.84	0.31	2
	142	28.9	0.3	2
	143	28.96	0.28	2
	144	29.02	0.26	2
	145	29.13	0.37	2
	146	29.25	0.47	2
	147	29.32	0.39	2
	148	29.54	0.54	2
	149	29.62	0.25	2
	150	29.7	0.41	2
	151	29.94	0.55	2
	152	30.1	0.46	2
	153	30.21	0.31	2
	154	30.32	0.29	2
	155	30.45	0.37	2
	156	30.56	0.3	2
	157	30.67	0.27	2
	158	30.85	0.44	2
	159	31.14	0.66	2
	160	32	1	2

