File:              	C:\Qtrac\Data\Daniel M Sørensen\MScan multicentre study\Data from centres\Toronto\Processed data\MSCC01120C.QZD
Name:              	CA.TOR.NC.4.2
Protocol:          	MSCAN-R2
Date:              	20/11/20
Start time:        	10:44:50
Age:               	30
Sex:               	M
Temperature:       	29.9
S/R sites:         	TA
NC/disease:        	NC
Operator:          	LP
Comments:
M-SCAN DATA (7.7-1.5m)
Scanpts: 10, 16, 642, 664
Stim. (mA)     	Amp. (mV)
MS.1           	25.5           	8.442
MS.2           	25.5           	8.466
MS.3           	25.5           	8.452
MS.4           	25.5           	8.375
MS.5           	25.5           	8.425
MS.6           	25.5           	8.374
MS.7           	25.5           	8.32
MS.8           	25.5           	8.348
MS.9           	25.5           	8.364
MS.10          	25.5           	8.336
MS.11          	25.5           	8.326
MS.12          	25.5           	8.295
MS.13          	25.5           	8.373
MS.14          	25.5           	8.341
MS.15          	25.5           	8.336
MS.16          	25.5           	8.347
MS.17          	25.5           	8.341
MS.18          	25.5           	8.375
MS.19          	25.5           	8.385
MS.20          	25.5           	8.322
MS.21          	25.5           	8.38
MS.22          	25.5           	8.317
MS.23          	25.5           	8.292
MS.24          	25.397         	8.296
MS.25          	25.347         	8.298
MS.26          	25.297         	8.334
MS.27          	25.245         	8.323
MS.28          	25.195         	8.269
MS.29          	25.145         	8.259
MS.30          	25.095         	8.232
MS.31          	25.045         	8.275
MS.32          	24.995         	8.264
MS.33          	24.945         	8.267
MS.34          	24.895         	8.251
MS.35          	24.845         	8.251
MS.36          	24.795         	8.229
MS.37          	24.747         	8.286
MS.38          	24.698         	8.278
MS.39          	24.647         	8.312
MS.40          	24.597         	8.241
MS.41          	24.55          	8.264
MS.42          	24.5           	8.253
MS.43          	24.45          	8.221
MS.44          	24.403         	8.204
MS.45          	24.352         	8.287
MS.46          	24.305         	8.242
MS.47          	24.257         	8.248
MS.48          	24.207         	8.287
MS.49          	24.16          	8.256
MS.50          	24.11          	8.214
MS.51          	24.062         	8.282
MS.52          	24.015         	8.193
MS.53          	23.967         	8.199
MS.54          	23.92          	8.187
MS.55          	23.87          	8.199
MS.56          	23.823         	8.145
MS.57          	23.775         	8.19
MS.58          	23.727         	8.137
MS.59          	23.68          	8.074
MS.60          	23.632         	8.152
MS.61          	23.587         	8.164
MS.62          	23.54          	8.126
MS.63          	23.493         	8.135
MS.64          	23.445         	8.051
MS.65          	23.397         	8.148
MS.66          	23.352         	8.037
MS.67          	23.305         	8.014
MS.68          	23.257         	8.005
MS.69          	23.212         	7.946
MS.70          	23.165         	8.025
MS.71          	23.12          	7.992
MS.72          	23.073         	8.011
MS.73          	23.028         	7.948
MS.74          	22.98          	7.95
MS.75          	22.935         	7.925
MS.76          	22.89          	7.836
MS.77          	22.842         	7.931
MS.78          	22.797         	7.955
MS.79          	22.752         	7.794
MS.80          	22.707         	7.743
MS.81          	22.663         	7.731
MS.82          	22.618         	7.698
MS.83          	22.57          	7.708
MS.84          	22.525         	7.792
MS.85          	22.48          	7.816
MS.86          	22.435         	7.766
MS.87          	22.392         	7.679
MS.88          	22.347         	7.717
MS.89          	22.302         	7.644
MS.90          	22.257         	7.643
MS.91          	22.212         	7.635
MS.92          	22.167         	7.666
MS.93          	22.125         	7.642
MS.94          	22.08          	7.57
MS.95          	22.035         	7.599
MS.96          	21.993         	7.589
MS.97          	21.948         	7.528
MS.98          	21.905         	7.501
MS.99          	21.86          	7.609
MS.100         	21.817         	7.494
MS.101         	21.772         	7.55
MS.102         	21.73          	7.46
MS.103         	21.685         	7.445
MS.104         	21.642         	7.456
MS.105         	21.6           	7.388
MS.106         	21.557         	7.358
MS.107         	21.512         	7.377
MS.108         	21.47          	7.343
MS.109         	21.427         	7.354
MS.110         	21.385         	7.366
MS.111         	21.342         	7.396
MS.112         	21.3           	7.295
MS.113         	21.257         	7.29
MS.114         	21.215         	7.343
MS.115         	21.172         	7.278
MS.116         	21.13          	7.363
MS.117         	21.087         	7.29
MS.118         	21.045         	7.255
MS.119         	21.002         	7.308
MS.120         	20.96          	7.236
MS.121         	20.92          	7.246
MS.122         	20.877         	7.214
MS.123         	20.835         	7.227
MS.124         	20.795         	7.156
MS.125         	20.752         	7.161
MS.126         	20.71          	7.247
MS.127         	20.67          	7.195
MS.128         	20.627         	7.179
MS.129         	20.587         	7.178
MS.130         	20.545         	7.185
MS.131         	20.505         	7.137
MS.132         	20.465         	7.158
MS.133         	20.422         	7.174
MS.134         	20.382         	7.153
MS.135         	20.342         	7.017
MS.136         	20.3           	7.048
MS.137         	20.26          	7.068
MS.138         	20.22          	6.941
MS.139         	20.18          	6.99
MS.140         	20.14          	7.037
MS.141         	20.1           	7.032
MS.142         	20.06          	6.981
MS.143         	20.02          	6.96
MS.144         	19.98          	6.954
MS.145         	19.94          	7.006
MS.146         	19.9           	6.851
MS.147         	19.86          	6.863
MS.148         	19.82          	6.801
MS.149         	19.78          	6.862
MS.150         	19.74          	6.798
MS.151         	19.7           	6.669
MS.152         	19.663         	6.736
MS.153         	19.622         	6.674
MS.154         	19.583         	6.647
MS.155         	19.545         	6.628
MS.156         	19.505         	6.635
MS.157         	19.465         	6.516
MS.158         	19.427         	6.604
MS.159         	19.387         	6.592
MS.160         	19.35          	6.637
MS.161         	19.31          	6.639
MS.162         	19.272         	6.726
MS.163         	19.235         	6.703
MS.164         	19.195         	6.505
MS.165         	19.157         	6.625
MS.166         	19.12          	6.565
MS.167         	19.08          	6.577
MS.168         	19.042         	6.715
MS.169         	19.005         	6.66
MS.170         	18.967         	6.572
MS.171         	18.927         	6.469
MS.172         	18.89          	6.532
MS.173         	18.852         	6.503
MS.174         	18.815         	6.467
MS.175         	18.778         	6.508
MS.176         	18.74          	6.545
MS.177         	18.702         	6.406
MS.178         	18.665         	6.415
MS.179         	18.628         	6.372
MS.180         	18.59          	6.416
MS.181         	18.555         	6.383
MS.182         	18.517         	6.266
MS.183         	18.48          	6.335
MS.184         	18.442         	6.301
MS.185         	18.405         	6.3
MS.186         	18.37          	6.233
MS.187         	18.333         	6.292
MS.188         	18.295         	6.207
MS.189         	18.26          	6.135
MS.190         	18.222         	6.206
MS.191         	18.188         	6.079
MS.192         	18.15          	6.139
MS.193         	18.115         	6.157
MS.194         	18.077         	6.034
MS.195         	18.042         	6.125
MS.196         	18.005         	5.896
MS.197         	17.97          	5.94
MS.198         	17.932         	5.674
MS.199         	17.897         	5.741
MS.200         	17.862         	5.767
MS.201         	17.827         	5.654
MS.202         	17.79          	5.793
MS.203         	17.755         	5.692
MS.204         	17.72          	5.634
MS.205         	17.685         	5.532
MS.206         	17.65          	5.557
MS.207         	17.612         	5.45
MS.208         	17.577         	5.366
MS.209         	17.542         	5.099
MS.210         	17.507         	5.239
MS.211         	17.472         	5.1
MS.212         	17.438         	5.106
MS.213         	17.403         	5.039
MS.214         	17.37          	4.923
MS.215         	17.335         	4.955
MS.216         	17.3           	4.918
MS.217         	17.265         	4.944
MS.218         	17.23          	4.917
MS.219         	17.195         	4.911
MS.220         	17.163         	4.784
MS.221         	17.128         	4.722
MS.222         	17.092         	4.875
MS.223         	17.06          	4.784
MS.224         	17.025         	4.852
MS.225         	16.99          	4.814
MS.226         	16.958         	4.74
MS.227         	16.922         	4.725
MS.228         	16.89          	4.706
MS.229         	16.855         	4.48
MS.230         	16.823         	4.568
MS.231         	16.788         	4.393
MS.232         	16.755         	4.608
MS.233         	16.72          	4.387
MS.234         	16.688         	4.486
MS.235         	16.655         	4.576
MS.236         	16.62          	4.5
MS.237         	16.587         	4.72
MS.238         	16.555         	4.333
MS.239         	16.522         	4.552
MS.240         	16.487         	4.34
MS.241         	16.455         	4.379
MS.242         	16.422         	4.193
MS.243         	16.39          	4.353
MS.244         	16.358         	4.059
MS.245         	16.325         	4.084
MS.246         	16.292         	4.065
MS.247         	16.26          	4.048
MS.248         	16.227         	4.28
MS.249         	16.195         	3.859
MS.250         	16.163         	3.979
MS.251         	16.13          	4.115
MS.252         	16.097         	3.823
MS.253         	16.065         	3.966
MS.254         	16.032         	3.737
MS.255         	16.003         	3.81
MS.256         	15.97          	3.818
MS.257         	15.938         	3.807
MS.258         	15.905         	3.654
MS.259         	15.875         	3.805
MS.260         	15.842         	3.802
MS.261         	15.81          	3.613
MS.262         	15.78          	3.501
MS.263         	15.747         	3.584
MS.264         	15.715         	3.661
MS.265         	15.685         	3.464
MS.266         	15.652         	3.563
MS.267         	15.622         	3.586
MS.268         	15.59          	3.409
MS.269         	15.56          	3.418
MS.270         	15.527         	3.481
MS.271         	15.497         	3.309
MS.272         	15.467         	3.364
MS.273         	15.435         	3.295
MS.274         	15.405         	3.347
MS.275         	15.375         	3.176
MS.276         	15.342         	3.259
MS.277         	15.312         	3.293
MS.278         	15.282         	3.108
MS.279         	15.252         	3.098
MS.280         	15.22          	3.168
MS.281         	15.19          	3.163
MS.282         	15.16          	2.965
MS.283         	15.13          	3.19
MS.284         	15.1           	2.944
MS.285         	15.07          	2.948
MS.286         	15.04          	3.015
MS.287         	15.01          	2.944
MS.288         	14.98          	2.939
MS.289         	14.95          	2.944
MS.290         	14.92          	2.766
MS.291         	14.89          	2.827
MS.292         	14.86          	2.695
MS.293         	14.83          	2.743
MS.294         	14.8           	2.656
MS.295         	14.77          	2.767
MS.296         	14.742         	2.77
MS.297         	14.712         	2.574
MS.298         	14.682         	2.435
MS.299         	14.652         	2.515
MS.300         	14.625         	2.478
MS.301         	14.595         	2.41
MS.302         	14.565         	2.428
MS.303         	14.537         	2.413
MS.304         	14.507         	2.51
MS.305         	14.477         	2.404
MS.306         	14.45          	2.361
MS.307         	14.42          	2.346
MS.308         	14.392         	2.401
MS.309         	14.362         	2.336
MS.310         	14.335         	2.383
MS.311         	14.305         	2.522
MS.312         	14.278         	2.504
MS.313         	14.25          	2.412
MS.314         	14.22          	2.396
MS.315         	14.193         	2.365
MS.316         	14.162         	2.512
MS.317         	14.135         	2.471
MS.318         	14.108         	2.429
MS.319         	14.08          	2.386
MS.320         	14.05          	2.404
MS.321         	14.023         	2.4
MS.322         	13.995         	2.349
MS.323         	13.967         	2.357
MS.324         	13.94          	2.25
MS.325         	13.91          	2.367
MS.326         	13.882         	2.279
MS.327         	13.855         	2.408
MS.328         	13.827         	2.186
MS.329         	13.8           	2.285
MS.330         	13.773         	2.422
MS.331         	13.745         	2.19
MS.332         	13.717         	2.324
MS.333         	13.69          	2.333
MS.334         	13.662         	2.166
MS.335         	13.635         	2.109
MS.336         	13.608         	2.214
MS.337         	13.58          	2.169
MS.338         	13.555         	2.216
MS.339         	13.528         	2.137
MS.340         	13.5           	2.104
MS.341         	13.472         	2.057
MS.342         	13.445         	2.003
MS.343         	13.42          	1.899
MS.344         	13.392         	1.93
MS.345         	13.365         	2.073
MS.346         	13.34          	1.938
MS.347         	13.312         	2.036
MS.348         	13.285         	1.884
MS.349         	13.26          	1.857
MS.350         	13.233         	1.874
MS.351         	13.205         	2.064
MS.352         	13.18          	1.873
MS.353         	13.153         	1.836
MS.354         	13.127         	1.855
MS.355         	13.1           	1.796
MS.356         	13.075         	1.881
MS.357         	13.047         	1.902
MS.358         	13.023         	2.004
MS.359         	12.997         	1.791
MS.360         	12.97          	1.768
MS.361         	12.945         	1.735
MS.362         	12.917         	1.694
MS.363         	12.892         	1.824
MS.364         	12.867         	1.743
MS.365         	12.842         	1.678
MS.366         	12.815         	1.709
MS.367         	12.79          	1.519
MS.368         	12.765         	1.616
MS.369         	12.74          	1.617
MS.370         	12.712         	1.517
MS.371         	12.688         	1.565
MS.372         	12.662         	1.594
MS.373         	12.637         	1.548
MS.374         	12.613         	1.494
MS.375         	12.587         	1.575
MS.376         	12.562         	1.372
MS.377         	12.537         	1.383
MS.378         	12.512         	1.305
MS.379         	12.488         	1.353
MS.380         	12.462         	1.327
MS.381         	12.438         	1.324
MS.382         	12.412         	1.356
MS.383         	12.387         	1.294
MS.384         	12.363         	1.262
MS.385         	12.337         	1.311
MS.386         	12.312         	1.313
MS.387         	12.287         	1.157
MS.388         	12.265         	1.278
MS.389         	12.24          	1.241
MS.390         	12.215         	1.001
MS.391         	12.19          	1.074
MS.392         	12.167         	0.959
MS.393         	12.142         	1.008
MS.394         	12.117         	1.012
MS.395         	12.092         	1.19
MS.396         	12.07          	1.069
MS.397         	12.045         	1.005
MS.398         	12.02          	1.014
MS.399         	11.997         	0.994
MS.400         	11.972         	0.959
MS.401         	11.95          	0.956
MS.402         	11.925         	0.94
MS.403         	11.903         	0.907
MS.404         	11.877         	0.851
MS.405         	11.855         	1.11
MS.406         	11.83          	0.776
MS.407         	11.807         	0.99
MS.408         	11.782         	0.929
MS.409         	11.76          	0.895
MS.410         	11.735         	0.792
MS.411         	11.712         	0.912
MS.412         	11.69          	0.776
MS.413         	11.665         	0.762
MS.414         	11.642         	0.719
MS.415         	11.62          	0.857
MS.416         	11.595         	0.745
MS.417         	11.572         	0.735
MS.418         	11.55          	0.753
MS.419         	11.528         	0.687
MS.420         	11.505         	0.619
MS.421         	11.48          	0.59
MS.422         	11.457         	0.67
MS.423         	11.435         	0.753
MS.424         	11.412         	0.585
MS.425         	11.39          	0.669
MS.426         	11.367         	0.682
MS.427         	11.345         	0.603
MS.428         	11.32          	0.549
MS.429         	11.297         	0.5
MS.430         	11.275         	0.498
MS.431         	11.252         	0.496
MS.432         	11.23          	0.487
MS.433         	11.207         	0.482
MS.434         	11.185         	0.486
MS.435         	11.165         	0.52
MS.436         	11.142         	0.492
MS.437         	11.12          	0.514
MS.438         	11.097         	0.425
MS.439         	11.075         	0.571
MS.440         	11.052         	0.414
MS.441         	11.03          	0.397
MS.442         	11.007         	0.426
MS.443         	10.988         	0.403
MS.444         	10.965         	0.454
MS.445         	10.943         	0.398
MS.446         	10.92          	0.404
MS.447         	10.9           	0.385
MS.448         	10.877         	0.393
MS.449         	10.855         	0.406
MS.450         	10.835         	0.382
MS.451         	10.812         	0.427
MS.452         	10.79          	0.341
MS.453         	10.77          	0.333
MS.454         	10.747         	0.365
MS.455         	10.725         	0.304
MS.456         	10.705         	0.345
MS.457         	10.682         	0.364
MS.458         	10.662         	0.37
MS.459         	10.64          	0.341
MS.460         	10.62          	0.32
MS.461         	10.597         	0.356
MS.462         	10.577         	0.338
MS.463         	10.555         	0.3
MS.464         	10.535         	0.35
MS.465         	10.512         	0.354
MS.466         	10.492         	0.341
MS.467         	10.472         	0.305
MS.468         	10.45          	0.322
MS.469         	10.43          	0.303
MS.470         	10.41          	0.292
MS.471         	10.387         	0.291
MS.472         	10.367         	0.312
MS.473         	10.347         	0.217
MS.474         	10.325         	0.277
MS.475         	10.305         	0.276
MS.476         	10.285         	0.283
MS.477         	10.265         	0.292
MS.478         	10.245         	0.258
MS.479         	10.222         	0.309
MS.480         	10.202         	0.275
MS.481         	10.182         	0.212
MS.482         	10.162         	0.197
MS.483         	10.142         	0.216
MS.484         	10.122         	0.2
MS.485         	10.102         	0.217
MS.486         	10.08          	0.222
MS.487         	10.06          	0.266
MS.488         	10.04          	0.198
MS.489         	10.02          	0.26
MS.490         	10             	0.216
MS.491         	9.98           	0.208
MS.492         	9.96           	0.212
MS.493         	9.94           	0.222
MS.494         	9.92           	0.21
MS.495         	9.903          	0.206
MS.496         	9.882          	0.199
MS.497         	9.863          	0.212
MS.498         	9.842          	0.201
MS.499         	9.823          	0.2
MS.500         	9.802          	0.194
MS.501         	9.782          	0.193
