File:              	C:\Qtrac\Data\Daniel M Sørensen\MScan multicentre study\Data from centres\Toronto\Processed data\MSCC01118C.QZD
Name:              	CA.TOR.NC.3.1
Protocol:          	MSCAN-R2
Date:              	18/11/20
Start time:        	13:41:11
Age:               	25
Sex:               	M
Temperature:       	29.4
S/R sites:         	TA
NC/disease:        	NC
Operator:          	LP
Comments:
M-SCAN DATA (9.9-2m)
Scanpts: 15, 24, 811, 820
Stim. (mA)     	Amp. (mV)
MS.1           	18             	8.917
MS.2           	18             	8.899
MS.3           	18             	8.981
MS.4           	18             	8.949
MS.5           	18             	8.878
MS.6           	18             	8.888
MS.7           	18             	8.884
MS.8           	18             	8.884
MS.9           	18             	8.882
MS.10          	18             	8.848
MS.11          	18             	8.822
MS.12          	18             	8.844
MS.13          	18             	8.87
MS.14          	18             	8.822
MS.15          	18             	8.79
MS.16          	18             	8.784
MS.17          	18             	8.808
MS.18          	18             	8.846
MS.19          	18             	8.804
MS.20          	18             	8.844
MS.21          	18             	8.82
MS.22          	18             	8.8
MS.23          	18             	8.844
MS.24          	17.927         	8.816
MS.25          	17.892         	8.794
MS.26          	17.858         	8.79
MS.27          	17.82          	8.81
MS.28          	17.785         	8.814
MS.29          	17.75          	8.868
MS.30          	17.715         	8.79
MS.31          	17.68          	8.812
MS.32          	17.642         	8.792
MS.33          	17.608         	8.842
MS.34          	17.573         	8.768
MS.35          	17.538         	8.788
MS.36          	17.503         	8.778
MS.37          	17.467         	8.808
MS.38          	17.432         	8.784
MS.39          	17.397         	8.802
MS.40          	17.362         	8.79
MS.41          	17.33          	8.747
MS.42          	17.295         	8.77
MS.43          	17.26          	8.747
MS.44          	17.225         	8.788
MS.45          	17.19          	8.804
MS.46          	17.157         	8.794
MS.47          	17.122         	8.818
MS.48          	17.087         	8.808
MS.49          	17.052         	8.798
MS.50          	17.02          	8.762
MS.51          	16.985         	8.76
MS.52          	16.952         	8.782
MS.53          	16.917         	8.788
MS.54          	16.885         	8.772
MS.55          	16.85          	8.766
MS.56          	16.817         	8.8
MS.57          	16.782         	8.737
MS.58          	16.75          	8.701
MS.59          	16.715         	8.685
MS.60          	16.682         	8.723
MS.61          	16.65          	8.735
MS.62          	16.615         	8.725
MS.63          	16.583         	8.715
MS.64          	16.55          	8.707
MS.65          	16.517         	8.739
MS.66          	16.483         	8.713
MS.67          	16.45          	8.737
MS.68          	16.417         	8.707
MS.69          	16.385         	8.723
MS.70          	16.352         	8.691
MS.71          	16.32          	8.651
MS.72          	16.288         	8.671
MS.73          	16.255         	8.639
MS.74          	16.222         	8.685
MS.75          	16.19          	8.709
MS.76          	16.157         	8.693
MS.77          	16.125         	8.699
MS.78          	16.092         	8.667
MS.79          	16.06          	8.633
MS.80          	16.028         	8.685
MS.81          	15.997         	8.629
MS.82          	15.965         	8.693
MS.83          	15.932         	8.661
MS.84          	15.9           	8.687
MS.85          	15.87          	8.673
MS.86          	15.837         	8.637
MS.87          	15.805         	8.659
MS.88          	15.775         	8.653
MS.89          	15.742         	8.602
MS.90          	15.71          	8.635
MS.91          	15.68          	8.621
MS.92          	15.648         	8.637
MS.93          	15.617         	8.675
MS.94          	15.585         	8.637
MS.95          	15.555         	8.554
MS.96          	15.523         	8.584
MS.97          	15.492         	8.58
MS.98          	15.462         	8.607
MS.99          	15.43          	8.607
MS.100         	15.4           	8.556
MS.101         	15.37          	8.566
MS.102         	15.337         	8.574
MS.103         	15.307         	8.588
MS.104         	15.277         	8.506
MS.105         	15.247         	8.566
MS.106         	15.217         	8.554
MS.107         	15.185         	8.576
MS.108         	15.155         	8.604
MS.109         	15.125         	8.534
MS.110         	15.095         	8.564
MS.111         	15.065         	8.54
MS.112         	15.035         	8.55
MS.113         	15.005         	8.572
MS.114         	14.975         	8.54
MS.115         	14.945         	8.578
MS.116         	14.915         	8.619
MS.117         	14.885         	8.57
MS.118         	14.855         	8.574
MS.119         	14.825         	8.546
MS.120         	14.795         	8.586
MS.121         	14.767         	8.584
MS.122         	14.737         	8.564
MS.123         	14.707         	8.564
MS.124         	14.677         	8.5
MS.125         	14.65          	8.532
MS.126         	14.62          	8.576
MS.127         	14.59          	8.57
MS.128         	14.562         	8.627
MS.129         	14.532         	8.522
MS.130         	14.502         	8.536
MS.131         	14.475         	8.528
MS.132         	14.445         	8.568
MS.133         	14.417         	8.514
MS.134         	14.387         	8.55
MS.135         	14.36          	8.546
MS.136         	14.33          	8.59
MS.137         	14.302         	8.568
MS.138         	14.273         	8.544
MS.139         	14.245         	8.492
MS.140         	14.215         	8.52
MS.141         	14.188         	8.52
MS.142         	14.16          	8.52
MS.143         	14.13          	8.506
MS.144         	14.102         	8.506
MS.145         	14.075         	8.522
MS.146         	14.047         	8.472
MS.147         	14.017         	8.47
MS.148         	13.99          	8.496
MS.149         	13.962         	8.476
MS.150         	13.935         	8.498
MS.151         	13.907         	8.52
MS.152         	13.88          	8.49
MS.153         	13.85          	8.468
MS.154         	13.822         	8.518
MS.155         	13.795         	8.546
MS.156         	13.767         	8.498
MS.157         	13.74          	8.494
MS.158         	13.712         	8.466
MS.159         	13.685         	8.455
MS.160         	13.657         	8.514
MS.161         	13.632         	8.461
MS.162         	13.605         	8.492
MS.163         	13.577         	8.461
MS.164         	13.55          	8.54
MS.165         	13.523         	8.439
MS.166         	13.495         	8.49
MS.167         	13.467         	8.482
MS.168         	13.443         	8.474
MS.169         	13.415         	8.488
MS.170         	13.387         	8.498
MS.171         	13.362         	8.524
MS.172         	13.335         	8.478
MS.173         	13.307         	8.548
MS.174         	13.282         	8.494
MS.175         	13.255         	8.52
MS.176         	13.227         	8.409
MS.177         	13.202         	8.51
MS.178         	13.175         	8.459
MS.179         	13.15          	8.502
MS.180         	13.122         	8.486
MS.181         	13.097         	8.502
MS.182         	13.07          	8.439
MS.183         	13.045         	8.508
MS.184         	13.017         	8.459
MS.185         	12.992         	8.48
MS.186         	12.967         	8.472
MS.187         	12.94          	8.49
MS.188         	12.915         	8.478
MS.189         	12.89          	8.421
MS.190         	12.862         	8.486
MS.191         	12.837         	8.457
MS.192         	12.812         	8.48
MS.193         	12.785         	8.435
MS.194         	12.76          	8.427
MS.195         	12.735         	8.429
MS.196         	12.71          	8.482
MS.197         	12.685         	8.478
MS.198         	12.66          	8.48
MS.199         	12.632         	8.466
MS.200         	12.608         	8.371
MS.201         	12.582         	8.405
MS.202         	12.557         	8.401
MS.203         	12.532         	8.457
MS.204         	12.507         	8.496
MS.205         	12.483         	8.443
MS.206         	12.457         	8.361
MS.207         	12.432         	8.431
MS.208         	12.407         	8.383
MS.209         	12.382         	8.488
MS.210         	12.36          	8.425
MS.211         	12.335         	8.425
MS.212         	12.31          	8.5
MS.213         	12.285         	8.395
MS.214         	12.26          	8.413
MS.215         	12.235         	8.433
MS.216         	12.212         	8.482
MS.217         	12.188         	8.377
MS.218         	12.162         	8.343
MS.219         	12.137         	8.441
MS.220         	12.115         	8.427
MS.221         	12.09          	8.435
MS.222         	12.065         	8.447
MS.223         	12.042         	8.415
MS.224         	12.017         	8.379
MS.225         	11.992         	8.421
MS.226         	11.97          	8.425
MS.227         	11.945         	8.375
MS.228         	11.922         	8.389
MS.229         	11.898         	8.365
MS.230         	11.875         	8.397
MS.231         	11.85          	8.381
MS.232         	11.827         	8.373
MS.233         	11.802         	8.337
MS.234         	11.78          	8.373
MS.235         	11.755         	8.371
MS.236         	11.733         	8.337
MS.237         	11.71          	8.345
MS.238         	11.685         	8.391
MS.239         	11.662         	8.389
MS.240         	11.64          	8.341
MS.241         	11.615         	8.355
MS.242         	11.592         	8.359
MS.243         	11.57          	8.361
MS.244         	11.547         	8.351
MS.245         	11.523         	8.32
MS.246         	11.5           	8.357
MS.247         	11.477         	8.252
MS.248         	11.455         	8.312
MS.249         	11.432         	8.294
MS.250         	11.407         	8.26
MS.251         	11.385         	8.292
MS.252         	11.363         	8.357
MS.253         	11.34          	8.318
MS.254         	11.318         	8.351
MS.255         	11.295         	8.349
MS.256         	11.273         	8.314
MS.257         	11.25          	8.339
MS.258         	11.227         	8.318
MS.259         	11.205         	8.284
MS.260         	11.182         	8.3
MS.261         	11.16          	8.298
MS.262         	11.137         	8.32
MS.263         	11.115         	8.329
MS.264         	11.092         	8.335
MS.265         	11.073         	8.296
MS.266         	11.05          	8.32
MS.267         	11.028         	8.347
MS.268         	11.005         	8.294
MS.269         	10.983         	8.28
MS.270         	10.962         	8.318
MS.271         	10.94          	8.284
MS.272         	10.917         	8.292
MS.273         	10.895         	8.339
MS.274         	10.875         	8.304
MS.275         	10.852         	8.331
MS.276         	10.83          	8.268
MS.277         	10.81          	8.26
MS.278         	10.787         	8.264
MS.279         	10.765         	8.29
MS.280         	10.745         	8.343
MS.281         	10.722         	8.29
MS.282         	10.702         	8.296
MS.283         	10.68          	8.288
MS.284         	10.657         	8.268
MS.285         	10.637         	8.3
MS.286         	10.615         	8.306
MS.287         	10.595         	8.308
MS.288         	10.573         	8.282
MS.289         	10.552         	8.27
MS.290         	10.532         	8.276
MS.291         	10.51          	8.272
MS.292         	10.49          	8.262
MS.293         	10.467         	8.268
MS.294         	10.448         	8.302
MS.295         	10.427         	8.329
MS.296         	10.405         	8.3
MS.297         	10.385         	8.238
MS.298         	10.365         	8.258
MS.299         	10.342         	8.282
MS.300         	10.323         	8.327
MS.301         	10.302         	8.272
MS.302         	10.282         	8.226
MS.303         	10.26          	8.252
MS.304         	10.24          	8.26
MS.305         	10.22          	8.296
MS.306         	10.2           	8.252
MS.307         	10.18          	8.145
MS.308         	10.16          	8.304
MS.309         	10.14          	8.256
MS.310         	10.117         	8.294
MS.311         	10.097         	8.266
MS.312         	10.077         	8.256
MS.313         	10.057         	8.31
MS.314         	10.037         	8.3
MS.315         	10.017         	8.206
MS.316         	9.997          	8.258
MS.317         	9.977          	8.252
MS.318         	9.957          	8.304
MS.319         	9.938          	8.222
MS.320         	9.917          	8.23
MS.321         	9.898          	8.069
MS.322         	9.877          	8.167
MS.323         	9.86           	8.228
MS.324         	9.84           	8.093
MS.325         	9.82           	8.163
MS.326         	9.8            	8.117
MS.327         	9.78           	8.095
MS.328         	9.76           	8.141
MS.329         	9.74           	8.061
MS.330         	9.722          	8.105
MS.331         	9.702          	8.061
MS.332         	9.682          	8.091
MS.333         	9.662          	8.067
MS.334         	9.645          	8.147
MS.335         	9.625          	8.039
MS.336         	9.605          	8.049
MS.337         	9.587          	8.02
MS.338         	9.568          	8.097
MS.339         	9.547          	8.133
MS.340         	9.53           	8.083
MS.341         	9.51           	8.039
MS.342         	9.49           	8.19
MS.343         	9.472          	8.097
MS.344         	9.452          	8
MS.345         	9.435          	7.996
MS.346         	9.415          	8.016
MS.347         	9.398          	8.008
MS.348         	9.377          	7.968
MS.349         	9.36           	8.055
MS.350         	9.34           	7.926
MS.351         	9.323          	7.962
MS.352         	9.302          	7.877
MS.353         	9.285          	7.974
MS.354         	9.265          	7.833
MS.355         	9.247          	7.932
MS.356         	9.23           	7.936
MS.357         	9.21           	7.9
MS.358         	9.193          	7.891
MS.359         	9.175          	7.912
MS.360         	9.155          	7.871
MS.361         	9.137          	7.98
MS.362         	9.12           	7.898
MS.363         	9.1            	7.757
MS.364         	9.082          	7.807
MS.365         	9.065          	7.889
MS.366         	9.047          	7.879
MS.367         	9.028          	7.859
MS.368         	9.01           	7.896
MS.369         	8.992          	7.926
MS.370         	8.975          	7.795
MS.371         	8.957          	7.791
MS.372         	8.938          	7.742
MS.373         	8.92           	7.833
MS.374         	8.903          	7.702
MS.375         	8.885          	7.803
MS.376         	8.867          	7.807
MS.377         	8.85           	7.787
MS.378         	8.832          	7.831
MS.379         	8.815          	7.69
MS.380         	8.797          	7.805
MS.381         	8.78           	7.769
MS.382         	8.762          	7.678
MS.383         	8.745          	7.579
MS.384         	8.727          	7.563
MS.385         	8.71           	7.575
MS.386         	8.693          	7.654
MS.387         	8.675          	7.545
MS.388         	8.658          	7.607
MS.389         	8.64           	7.634
MS.390         	8.622          	7.666
MS.391         	8.605          	7.523
MS.392         	8.587          	7.599
MS.393         	8.57           	7.471
MS.394         	8.552          	7.505
MS.395         	8.537          	7.583
MS.396         	8.52           	7.458
MS.397         	8.502          	7.378
MS.398         	8.485          	7.42
MS.399         	8.467          	7.527
MS.400         	8.452          	7.458
MS.401         	8.435          	7.434
MS.402         	8.417          	7.404
MS.403         	8.4            	7.38
MS.404         	8.385          	7.414
MS.405         	8.367          	7.342
MS.406         	8.35           	7.319
MS.407         	8.335          	7.243
MS.408         	8.318          	7.323
MS.409         	8.3            	7.182
MS.410         	8.285          	7.213
MS.411         	8.267          	7.058
MS.412         	8.252          	7.033
MS.413         	8.235          	7.178
MS.414         	8.217          	7.072
MS.415         	8.202          	7.017
MS.416         	8.185          	7.09
MS.417         	8.17           	7.001
MS.418         	8.153          	6.892
MS.419         	8.137          	7.096
MS.420         	8.12           	7.001
MS.421         	8.105          	6.804
MS.422         	8.087          	6.89
MS.423         	8.073          	6.89
MS.424         	8.055          	6.824
MS.425         	8.04           	6.707
MS.426         	8.023          	6.536
MS.427         	8.007          	6.667
MS.428         	7.992          	6.691
MS.429         	7.975          	6.476
MS.430         	7.96           	6.717
MS.431         	7.942          	6.504
MS.432         	7.927          	6.56
MS.433         	7.912          	6.427
MS.434         	7.895          	6.564
MS.435         	7.88           	6.606
MS.436         	7.865          	6.439
MS.437         	7.85           	6.538
MS.438         	7.832          	6.433
MS.439         	7.817          	6.486
MS.440         	7.802          	6.276
MS.441         	7.787          	6.502
MS.442         	7.77           	6.169
MS.443         	7.755          	6.065
MS.444         	7.74           	6.155
MS.445         	7.725          	6.111
MS.446         	7.71           	6.075
MS.447         	7.692          	6.077
MS.448         	7.677          	5.984
MS.449         	7.662          	6.109
MS.450         	7.648          	6.071
MS.451         	7.632          	5.644
MS.452         	7.617          	5.817
MS.453         	7.602          	5.883
MS.454         	7.587          	5.901
MS.455         	7.572          	6.069
MS.456         	7.555          	5.946
MS.457         	7.54           	5.956
MS.458         	7.525          	5.797
MS.459         	7.51           	5.754
MS.460         	7.495          	5.728
MS.461         	7.48           	5.841
MS.462         	7.465          	5.781
MS.463         	7.45           	5.754
MS.464         	7.438          	5.781
MS.465         	7.422          	5.845
MS.466         	7.407          	5.69
MS.467         	7.392          	5.771
MS.468         	7.378          	5.605
MS.469         	7.362          	5.706
MS.470         	7.347          	5.962
MS.471         	7.332          	5.746
MS.472         	7.317          	5.672
MS.473         	7.302          	5.821
MS.474         	7.29           	5.571
MS.475         	7.275          	5.865
MS.476         	7.26           	5.74
MS.477         	7.245          	5.47
MS.478         	7.23           	5.73
MS.479         	7.217          	5.493
MS.480         	7.202          	5.662
MS.481         	7.188          	5.42
MS.482         	7.172          	5.692
MS.483         	7.16           	5.493
MS.484         	7.145          	5.537
MS.485         	7.13           	5.388
MS.486         	7.115          	5.531
MS.487         	7.102          	5.539
MS.488         	7.087          	5.305
MS.489         	7.072          	5.205
MS.490         	7.06           	5.138
MS.491         	7.045          	5.333
MS.492         	7.032          	5.229
MS.493         	7.017          	5.372
MS.494         	7.003          	5.42
MS.495         	6.99           	5.448
MS.496         	6.975          	5.029
MS.497         	6.962          	5.186
MS.498         	6.947          	5.021
MS.499         	6.932          	5.045
MS.500         	6.92           	5.031
MS.501         	6.905          	4.894
MS.502         	6.892          	4.967
