File:              	C:\Qtrac\Data\Daniel M Sørensen\MScan multicentre study\Data from centres\Toronto\Processed data\MSCC01126F.QZD
Name:              	CA.TOR.NC.6.2
Protocol:          	MSCAN-R2
Date:              	26/11/20
Start time:        	15:58:32
Age:               	42
Sex:               	F
Temperature:       	30.4
S/R sites:         	TA
NC/disease:        	NC
Operator:          	LP
Comments:          	MFF60ON
M-SCAN DATA (7.2-1.2m)
Scanpts: 26, 35, 624, 645
Stim. (mA)     	Amp. (mV)
MS.1           	25             	7.202
MS.2           	25             	7.185
MS.3           	25             	7.217
MS.4           	25             	7.153
MS.5           	25             	7.172
MS.6           	25             	7.162
MS.7           	25             	7.18
MS.8           	25             	7.159
MS.9           	25             	7.151
MS.10          	25             	7.167
MS.11          	25             	7.163
MS.12          	25             	7.168
MS.13          	25             	7.147
MS.14          	25             	7.156
MS.15          	25             	7.158
MS.16          	25             	7.161
MS.17          	25             	7.174
MS.18          	25             	7.161
MS.19          	25             	7.161
MS.20          	25             	7.155
MS.21          	25             	7.156
MS.22          	25             	7.164
MS.23          	25             	7.169
MS.24          	24.9           	7.17
MS.25          	24.85          	7.174
MS.26          	24.8           	7.186
MS.27          	24.75          	7.169
MS.28          	24.702         	7.178
MS.29          	24.653         	7.163
MS.30          	24.602         	7.17
MS.31          	24.555         	7.173
MS.32          	24.505         	7.166
MS.33          	24.455         	7.185
MS.34          	24.407         	7.18
MS.35          	24.358         	7.189
MS.36          	24.31          	7.157
MS.37          	24.26          	7.195
MS.38          	24.212         	7.179
MS.39          	24.165         	7.185
MS.40          	24.115         	7.183
MS.41          	24.067         	7.18
MS.42          	24.02          	7.18
MS.43          	23.972         	7.18
MS.44          	23.925         	7.173
MS.45          	23.875         	7.214
MS.46          	23.827         	7.175
MS.47          	23.78          	7.162
MS.48          	23.733         	7.161
MS.49          	23.685         	7.203
MS.50          	23.637         	7.157
MS.51          	23.59          	7.196
MS.52          	23.545         	7.194
MS.53          	23.497         	7.185
MS.54          	23.45          	7.223
MS.55          	23.403         	7.163
MS.56          	23.358         	7.162
MS.57          	23.31          	7.161
MS.58          	23.262         	7.144
MS.59          	23.217         	7.177
MS.60          	23.17          	7.187
MS.61          	23.125         	7.18
MS.62          	23.077         	7.151
MS.63          	23.032         	7.203
MS.64          	22.985         	7.185
MS.65          	22.94          	7.184
MS.66          	22.895         	7.184
MS.67          	22.847         	7.17
MS.68          	22.802         	7.172
MS.69          	22.757         	7.168
MS.70          	22.712         	7.166
MS.71          	22.665         	7.167
MS.72          	22.62          	7.174
MS.73          	22.575         	7.159
MS.74          	22.53          	7.133
MS.75          	22.485         	7.191
MS.76          	22.44          	7.167
MS.77          	22.395         	7.146
MS.78          	22.35          	7.166
MS.79          	22.307         	7.177
MS.80          	22.262         	7.158
MS.81          	22.217         	7.135
MS.82          	22.172         	7.151
MS.83          	22.127         	7.112
MS.84          	22.085         	7.135
MS.85          	22.04          	7.155
MS.86          	21.995         	7.1
MS.87          	21.952         	7.136
MS.88          	21.907         	7.069
MS.89          	21.865         	7.115
MS.90          	21.82          	7.09
MS.91          	21.778         	7.123
MS.92          	21.735         	7.084
MS.93          	21.69          	7.064
MS.94          	21.647         	7.08
MS.95          	21.605         	7.091
MS.96          	21.56          	7.064
MS.97          	21.517         	7.108
MS.98          	21.475         	7.07
MS.99          	21.432         	7.083
MS.100         	21.39          	7.079
MS.101         	21.345         	7.054
MS.102         	21.302         	7.017
MS.103         	21.26          	7.064
MS.104         	21.217         	7.04
MS.105         	21.175         	7.013
MS.106         	21.135         	7.036
MS.107         	21.092         	7.002
MS.108         	21.05          	7.05
MS.109         	21.007         	7.047
MS.110         	20.965         	7.02
MS.111         	20.922         	7.036
MS.112         	20.882         	7.015
MS.113         	20.84          	7.04
MS.114         	20.797         	6.979
MS.115         	20.757         	6.979
MS.116         	20.715         	6.979
MS.117         	20.675         	7.003
MS.118         	20.632         	6.981
MS.119         	20.592         	7
MS.120         	20.55          	6.976
MS.121         	20.51          	6.981
MS.122         	20.467         	6.986
MS.123         	20.427         	6.946
MS.124         	20.387         	6.941
MS.125         	20.345         	6.949
MS.126         	20.305         	6.971
MS.127         	20.265         	6.948
MS.128         	20.225         	6.923
MS.129         	20.182         	6.915
MS.130         	20.142         	6.924
MS.131         	20.102         	6.953
MS.132         	20.062         	6.938
MS.133         	20.022         	6.854
MS.134         	19.983         	6.914
MS.135         	19.942         	6.915
MS.136         	19.903         	6.914
MS.137         	19.862         	6.912
MS.138         	19.823         	6.904
MS.139         	19.785         	6.898
MS.140         	19.745         	6.903
MS.141         	19.705         	6.881
MS.142         	19.665         	6.893
MS.143         	19.627         	6.884
MS.144         	19.587         	6.83
MS.145         	19.547         	6.807
MS.146         	19.51          	6.877
MS.147         	19.47          	6.842
MS.148         	19.43          	6.827
MS.149         	19.392         	6.803
MS.150         	19.352         	6.777
MS.151         	19.315         	6.802
MS.152         	19.275         	6.792
MS.153         	19.237         	6.793
MS.154         	19.2           	6.771
MS.155         	19.16          	6.76
MS.156         	19.122         	6.729
MS.157         	19.085         	6.741
MS.158         	19.047         	6.774
MS.159         	19.007         	6.736
MS.160         	18.97          	6.743
MS.161         	18.932         	6.755
MS.162         	18.895         	6.73
MS.163         	18.858         	6.709
MS.164         	18.82          	6.747
MS.165         	18.782         	6.691
MS.166         	18.745         	6.688
MS.167         	18.708         	6.692
MS.168         	18.67          	6.664
MS.169         	18.632         	6.661
MS.170         	18.595         	6.638
MS.171         	18.557         	6.6
MS.172         	18.52          	6.582
MS.173         	18.483         	6.591
MS.174         	18.448         	6.594
MS.175         	18.41          	6.614
MS.176         	18.372         	6.615
MS.177         	18.335         	6.538
MS.178         	18.3           	6.556
MS.179         	18.262         	6.522
MS.180         	18.227         	6.506
MS.181         	18.19          	6.554
MS.182         	18.153         	6.497
MS.183         	18.118         	6.442
MS.184         	18.08          	6.406
MS.185         	18.045         	6.367
MS.186         	18.01          	6.395
MS.187         	17.972         	6.443
MS.188         	17.938         	6.327
MS.189         	17.903         	6.337
MS.190         	17.865         	6.382
MS.191         	17.83          	6.305
MS.192         	17.795         	6.299
MS.193         	17.757         	6.227
MS.194         	17.722         	6.315
MS.195         	17.688         	6.339
MS.196         	17.653         	6.141
MS.197         	17.618         	6.177
MS.198         	17.583         	6.239
MS.199         	17.547         	6.213
MS.200         	17.512         	6.201
MS.201         	17.477         	6.056
MS.202         	17.442         	6.125
MS.203         	17.407         	6.134
MS.204         	17.372         	6.135
MS.205         	17.337         	6.031
MS.206         	17.302         	6.123
MS.207         	17.267         	6.069
MS.208         	17.235         	6.09
MS.209         	17.2           	6.055
MS.210         	17.165         	5.994
MS.211         	17.13          	6.017
MS.212         	17.097         	5.994
MS.213         	17.062         	5.968
MS.214         	17.028         	5.937
MS.215         	16.995         	5.968
MS.216         	16.96          	5.901
MS.217         	16.927         	5.996
MS.218         	16.892         	5.933
MS.219         	16.86          	5.869
MS.220         	16.825         	5.937
MS.221         	16.792         	5.883
MS.222         	16.757         	5.82
MS.223         	16.725         	5.826
MS.224         	16.69          	5.818
MS.225         	16.657         	5.839
MS.226         	16.625         	5.781
MS.227         	16.59          	5.765
MS.228         	16.557         	5.763
MS.229         	16.525         	5.789
MS.230         	16.493         	5.82
MS.231         	16.46          	5.732
MS.232         	16.425         	5.751
MS.233         	16.392         	5.619
MS.234         	16.36          	5.529
MS.235         	16.327         	5.533
MS.236         	16.295         	5.613
MS.237         	16.262         	5.597
MS.238         	16.23          	5.525
MS.239         	16.198         	5.485
MS.240         	16.165         	5.558
MS.241         	16.132         	5.559
MS.242         	16.1           	5.309
MS.243         	16.067         	5.386
MS.244         	16.038         	5.41
MS.245         	16.005         	5.461
MS.246         	15.972         	5.428
MS.247         	15.94          	5.375
MS.248         	15.91          	5.284
MS.249         	15.877         	5.25
MS.250         	15.845         	5.298
MS.251         	15.812         	5.305
MS.252         	15.782         	5.229
MS.253         	15.75          	5.195
MS.254         	15.72          	5.21
MS.255         	15.688         	5.073
MS.256         	15.657         	5.182
MS.257         	15.625         	5.118
MS.258         	15.595         	5.183
MS.259         	15.562         	5.078
MS.260         	15.532         	5.093
MS.261         	15.5           	5.017
MS.262         	15.47          	4.965
MS.263         	15.438         	4.935
MS.264         	15.407         	5
MS.265         	15.377         	4.995
MS.266         	15.347         	4.995
MS.267         	15.315         	4.946
MS.268         	15.285         	4.945
MS.269         	15.255         	4.785
MS.270         	15.225         	4.893
MS.271         	15.193         	4.827
MS.272         	15.162         	4.808
MS.273         	15.132         	4.829
MS.274         	15.102         	4.757
MS.275         	15.072         	4.778
MS.276         	15.042         	4.669
MS.277         	15.012         	4.677
MS.278         	14.983         	4.64
MS.279         	14.952         	4.613
MS.280         	14.922         	4.529
MS.281         	14.892         	4.502
MS.282         	14.862         	4.548
MS.283         	14.832         	4.501
MS.284         	14.802         	4.459
MS.285         	14.775         	4.396
MS.286         	14.745         	4.445
MS.287         	14.715         	4.421
MS.288         	14.685         	4.403
MS.289         	14.657         	4.338
MS.290         	14.627         	4.31
MS.291         	14.597         	4.399
MS.292         	14.568         	4.377
MS.293         	14.54          	4.291
MS.294         	14.51          	4.288
MS.295         	14.483         	4.31
MS.296         	14.452         	4.275
MS.297         	14.422         	4.183
MS.298         	14.395         	4.163
MS.299         	14.365         	4.205
MS.300         	14.337         	4.15
MS.301         	14.31          	4.073
MS.302         	14.28          	4.127
MS.303         	14.252         	4.117
MS.304         	14.222         	3.987
MS.305         	14.195         	4.005
MS.306         	14.167         	3.944
MS.307         	14.137         	3.927
MS.308         	14.11          	3.955
MS.309         	14.082         	3.894
MS.310         	14.052         	3.916
MS.311         	14.025         	3.87
MS.312         	13.997         	3.882
MS.313         	13.97          	3.898
MS.314         	13.943         	3.821
MS.315         	13.912         	3.828
MS.316         	13.885         	3.669
MS.317         	13.858         	3.677
MS.318         	13.83          	3.605
MS.319         	13.802         	3.68
MS.320         	13.775         	3.649
MS.321         	13.747         	3.517
MS.322         	13.72          	3.584
MS.323         	13.693         	3.608
MS.324         	13.665         	3.518
MS.325         	13.637         	3.442
MS.326         	13.61          	3.436
MS.327         	13.582         	3.556
MS.328         	13.557         	3.351
MS.329         	13.53          	3.37
MS.330         	13.502         	3.37
MS.331         	13.475         	3.38
MS.332         	13.447         	3.289
MS.333         	13.422         	3.247
MS.334         	13.395         	3.247
MS.335         	13.367         	3.289
MS.336         	13.342         	3.147
MS.337         	13.315         	3.135
MS.338         	13.287         	3.082
MS.339         	13.262         	3.101
MS.340         	13.235         	3.114
MS.341         	13.207         	2.977
MS.342         	13.182         	3.029
MS.343         	13.155         	2.977
MS.344         	13.13          	2.947
MS.345         	13.102         	2.878
MS.346         	13.077         	2.86
MS.347         	13.05          	2.781
MS.348         	13.025         	2.798
MS.349         	13             	2.791
MS.350         	12.972         	2.765
MS.351         	12.947         	2.722
MS.352         	12.92          	2.753
MS.353         	12.895         	2.601
MS.354         	12.87          	2.639
MS.355         	12.845         	2.51
MS.356         	12.818         	2.533
MS.357         	12.792         	2.54
MS.358         	12.767         	2.562
MS.359         	12.742         	2.437
MS.360         	12.715         	2.467
MS.361         	12.69          	2.432
MS.362         	12.665         	2.325
MS.363         	12.64          	2.344
MS.364         	12.615         	2.349
MS.365         	12.59          	2.365
MS.366         	12.565         	2.362
MS.367         	12.54          	2.285
MS.368         	12.515         	2.261
MS.369         	12.49          	2.294
MS.370         	12.465         	2.246
MS.371         	12.44          	2.211
MS.372         	12.415         	2.174
MS.373         	12.39          	2.134
MS.374         	12.365         	2.128
MS.375         	12.34          	2.145
MS.376         	12.315         	2.092
MS.377         	12.29          	1.996
MS.378         	12.267         	2.114
MS.379         	12.242         	2.034
MS.380         	12.217         	2.068
MS.381         	12.193         	1.976
MS.382         	12.17          	1.91
MS.383         	12.145         	1.958
MS.384         	12.12          	1.91
MS.385         	12.095         	1.921
MS.386         	12.072         	1.836
MS.387         	12.047         	1.823
MS.388         	12.023         	1.823
MS.389         	12             	1.761
MS.390         	11.975         	1.768
MS.391         	11.952         	1.743
MS.392         	11.927         	1.66
MS.393         	11.905         	1.693
MS.394         	11.88          	1.622
MS.395         	11.858         	1.691
MS.396         	11.832         	1.65
MS.397         	11.81          	1.687
MS.398         	11.785         	1.591
MS.399         	11.762         	1.62
MS.400         	11.738         	1.519
MS.401         	11.715         	1.548
MS.402         	11.693         	1.539
MS.403         	11.667         	1.459
MS.404         	11.645         	1.438
MS.405         	11.622         	1.47
MS.406         	11.597         	1.434
MS.407         	11.575         	1.377
MS.408         	11.552         	1.427
MS.409         	11.53          	1.387
MS.410         	11.505         	1.361
MS.411         	11.483         	1.335
MS.412         	11.46          	1.306
MS.413         	11.438         	1.309
MS.414         	11.415         	1.267
MS.415         	11.392         	1.271
MS.416         	11.37          	1.306
MS.417         	11.345         	1.173
MS.418         	11.322         	1.311
MS.419         	11.3           	1.222
MS.420         	11.278         	1.189
MS.421         	11.255         	1.228
MS.422         	11.233         	1.179
MS.423         	11.21          	1.108
MS.424         	11.188         	1.154
MS.425         	11.165         	1.154
MS.426         	11.142         	1.058
MS.427         	11.122         	1.088
MS.428         	11.1           	1.099
MS.429         	11.077         	1.008
MS.430         	11.055         	1.001
MS.431         	11.032         	1.011
MS.432         	11.01          	0.973
MS.433         	10.988         	0.997
MS.434         	10.967         	1.044
MS.435         	10.945         	0.958
MS.436         	10.922         	0.989
MS.437         	10.9           	0.934
MS.438         	10.88          	0.916
MS.439         	10.858         	0.93
MS.440         	10.835         	0.95
MS.441         	10.815         	0.896
MS.442         	10.792         	0.93
MS.443         	10.77          	0.88
MS.444         	10.75          	0.839
MS.445         	10.727         	0.82
MS.446         	10.707         	0.842
MS.447         	10.685         	0.861
MS.448         	10.665         	0.815
MS.449         	10.642         	0.807
MS.450         	10.622         	0.786
MS.451         	10.6           	0.801
MS.452         	10.58          	0.792
MS.453         	10.557         	0.853
MS.454         	10.537         	0.842
MS.455         	10.515         	0.806
MS.456         	10.495         	0.687
MS.457         	10.472         	0.708
MS.458         	10.452         	0.626
MS.459         	10.432         	0.721
MS.460         	10.41          	0.669
MS.461         	10.39          	0.668
MS.462         	10.37          	0.588
MS.463         	10.35          	0.535
MS.464         	10.327         	0.603
MS.465         	10.307         	0.525
MS.466         	10.287         	0.502
MS.467         	10.267         	0.509
MS.468         	10.245         	0.531
MS.469         	10.225         	0.516
MS.470         	10.205         	0.458
MS.471         	10.185         	0.492
MS.472         	10.165         	0.492
MS.473         	10.145         	0.416
MS.474         	10.122         	0.413
MS.475         	10.102         	0.408
MS.476         	10.082         	0.4
MS.477         	10.062         	0.378
MS.478         	10.042         	0.367
MS.479         	10.023         	0.354
MS.480         	10.002         	0.381
MS.481         	9.983          	0.371
MS.482         	9.962          	0.382
MS.483         	9.943          	0.386
MS.484         	9.922          	0.326
MS.485         	9.903          	0.31
MS.486         	9.882          	0.396
MS.487         	9.865          	0.317
MS.488         	9.845          	0.333
MS.489         	9.825          	0.328
MS.490         	9.805          	0.295
MS.491         	9.785          	0.264
MS.492         	9.765          	0.267
MS.493         	9.745          	0.27
MS.494         	9.727          	0.275
MS.495         	9.707          	0.27
MS.496         	9.688          	0.227
MS.497         	9.667          	0.284
MS.498         	9.65           	0.271
MS.499         	9.63           	0.256
MS.500         	9.61           	0.247
MS.501         	9.592          	0.236
