File:              	C:\Qtrac\Data\Daniel M Sørensen\MScan multicentre study\Data from centres\Toronto\Processed data\MSCC01203C.QZD
Name:              	CA.TOR.NC.8.1
Protocol:          	MSCAN-R2
Date:              	3/12/20
Start time:        	15:26:38
Age:               	29
Sex:               	F
Temperature:       	30.4
S/R sites:         	TA
NC/disease:        	NC
Operator:          	LP
Comments:          	MFF60ON
M-SCAN DATA (7.8-2.2m)
Scanpts: 18, 23, 554, 574
Stim. (mA)     	Amp. (mV)
MS.1           	22             	6.277
MS.2           	22             	6.276
MS.3           	22             	6.257
MS.4           	22             	6.24
MS.5           	22             	6.237
MS.6           	22             	6.255
MS.7           	22             	6.243
MS.8           	22             	6.228
MS.9           	22             	6.246
MS.10          	22             	6.219
MS.11          	22             	6.232
MS.12          	22             	6.212
MS.13          	22             	6.237
MS.14          	22             	6.223
MS.15          	22             	6.206
MS.16          	22             	6.207
MS.17          	22             	6.21
MS.18          	22             	6.195
MS.19          	22             	6.202
MS.20          	22             	6.205
MS.21          	22             	6.205
MS.22          	22             	6.198
MS.23          	22             	6.205
MS.24          	21.913         	6.202
MS.25          	21.868         	6.189
MS.26          	21.825         	6.185
MS.27          	21.78          	6.185
MS.28          	21.737         	6.198
MS.29          	21.695         	6.179
MS.30          	21.65          	6.19
MS.31          	21.608         	6.194
MS.32          	21.565         	6.183
MS.33          	21.52          	6.206
MS.34          	21.477         	6.177
MS.35          	21.435         	6.193
MS.36          	21.392         	6.188
MS.37          	21.35          	6.179
MS.38          	21.307         	6.179
MS.39          	21.265         	6.174
MS.40          	21.222         	6.179
MS.41          	21.18          	6.156
MS.42          	21.137         	6.171
MS.43          	21.095         	6.169
MS.44          	21.052         	6.172
MS.45          	21.01          	6.169
MS.46          	20.97          	6.18
MS.47          	20.927         	6.168
MS.48          	20.885         	6.134
MS.49          	20.842         	6.147
MS.50          	20.802         	6.13
MS.51          	20.76          	6.145
MS.52          	20.717         	6.138
MS.53          	20.677         	6.096
MS.54          	20.635         	6.119
MS.55          	20.595         	6.135
MS.56          	20.552         	6.116
MS.57          	20.512         	6.145
MS.58          	20.472         	6.094
MS.59          	20.43          	6.108
MS.60          	20.39          	6.13
MS.61          	20.35          	6.104
MS.62          	20.307         	6.13
MS.63          	20.267         	6.124
MS.64          	20.227         	6.105
MS.65          	20.188         	6.071
MS.66          	20.147         	6.122
MS.67          	20.108         	6.129
MS.68          	20.065         	6.108
MS.69          	20.025         	6.106
MS.70          	19.985         	6.091
MS.71          	19.945         	6.113
MS.72          	19.907         	6.084
MS.73          	19.868         	6.086
MS.74          	19.827         	6.102
MS.75          	19.788         	6.117
MS.76          	19.747         	6.094
MS.77          	19.708         	6.107
MS.78          	19.67          	6.084
MS.79          	19.63          	6.075
MS.80          	19.59          	6.072
MS.81          	19.55          	6.104
MS.82          	19.512         	6.083
MS.83          	19.472         	6.091
MS.84          	19.435         	6.088
MS.85          	19.395         	6.064
MS.86          	19.358         	6.085
MS.87          	19.317         	6.078
MS.88          	19.28          	6.099
MS.89          	19.24          	6.094
MS.90          	19.202         	6.012
MS.91          	19.165         	6.06
MS.92          	19.125         	6.056
MS.93          	19.087         	6.075
MS.94          	19.05          	6.028
MS.95          	19.012         	6.055
MS.96          	18.972         	6.007
MS.97          	18.935         	5.999
MS.98          	18.897         	6.038
MS.99          	18.86          	5.986
MS.100         	18.823         	6.012
MS.101         	18.785         	5.997
MS.102         	18.747         	6.019
MS.103         	18.71          	5.972
MS.104         	18.672         	5.996
MS.105         	18.635         	5.975
MS.106         	18.597         	5.983
MS.107         	18.56          	5.995
MS.108         	18.522         	5.98
MS.109         	18.487         	5.937
MS.110         	18.45          	5.978
MS.111         	18.413         	5.953
MS.112         	18.375         	5.959
MS.113         	18.34          	5.941
MS.114         	18.302         	5.911
MS.115         	18.265         	5.944
MS.116         	18.23          	5.955
MS.117         	18.192         	5.886
MS.118         	18.157         	5.933
MS.119         	18.12          	5.896
MS.120         	18.085         	5.879
MS.121         	18.047         	5.897
MS.122         	18.012         	5.85
MS.123         	17.975         	5.879
MS.124         	17.94          	5.879
MS.125         	17.905         	5.887
MS.126         	17.868         	5.856
MS.127         	17.833         	5.813
MS.128         	17.797         	5.818
MS.129         	17.762         	5.819
MS.130         	17.725         	5.841
MS.131         	17.69          	5.785
MS.132         	17.655         	5.802
MS.133         	17.62          	5.751
MS.134         	17.585         	5.765
MS.135         	17.55          	5.773
MS.136         	17.515         	5.736
MS.137         	17.48          	5.731
MS.138         	17.445         	5.74
MS.139         	17.41          	5.723
MS.140         	17.375         	5.702
MS.141         	17.34          	5.736
MS.142         	17.305         	5.709
MS.143         	17.27          	5.693
MS.144         	17.237         	5.673
MS.145         	17.202         	5.704
MS.146         	17.167         	5.693
MS.147         	17.132         	5.656
MS.148         	17.1           	5.723
MS.149         	17.065         	5.671
MS.150         	17.03          	5.651
MS.151         	16.997         	5.675
MS.152         	16.962         	5.626
MS.153         	16.93          	5.619
MS.154         	16.895         	5.588
MS.155         	16.862         	5.625
MS.156         	16.827         	5.612
MS.157         	16.795         	5.637
MS.158         	16.76          	5.614
MS.159         	16.727         	5.574
MS.160         	16.695         	5.612
MS.161         	16.66          	5.592
MS.162         	16.628         	5.574
MS.163         	16.595         	5.504
MS.164         	16.56          	5.546
MS.165         	16.528         	5.54
MS.166         	16.495         	5.465
MS.167         	16.462         	5.52
MS.168         	16.43          	5.526
MS.169         	16.395         	5.464
MS.170         	16.362         	5.459
MS.171         	16.33          	5.402
MS.172         	16.297         	5.461
MS.173         	16.265         	5.47
MS.174         	16.233         	5.38
MS.175         	16.2           	5.408
MS.176         	16.167         	5.333
MS.177         	16.135         	5.358
MS.178         	16.102         	5.332
MS.179         	16.073         	5.286
MS.180         	16.04          	5.35
MS.181         	16.007         	5.314
MS.182         	15.975         	5.248
MS.183         	15.943         	5.245
MS.184         	15.912         	5.205
MS.185         	15.88          	5.256
MS.186         	15.847         	5.216
MS.187         	15.818         	5.179
MS.188         	15.785         	5.103
MS.189         	15.752         	5.17
MS.190         	15.722         	5.009
MS.191         	15.69          	5.101
MS.192         	15.66          	5.049
MS.193         	15.627         	5.029
MS.194         	15.597         	5.028
MS.195         	15.565         	5
MS.196         	15.535         	4.98
MS.197         	15.502         	4.976
MS.198         	15.472         	4.938
MS.199         	15.44          	4.995
MS.200         	15.41          	4.832
MS.201         	15.38          	4.884
MS.202         	15.35          	4.821
MS.203         	15.318         	4.828
MS.204         	15.287         	4.855
MS.205         	15.257         	4.836
MS.206         	15.227         	4.81
MS.207         	15.195         	4.76
MS.208         	15.165         	4.709
MS.209         	15.135         	4.736
MS.210         	15.105         	4.69
MS.211         	15.075         	4.756
MS.212         	15.045         	4.736
MS.213         	15.015         	4.626
MS.214         	14.985         	4.644
MS.215         	14.955         	4.64
MS.216         	14.925         	4.604
MS.217         	14.895         	4.607
MS.218         	14.865         	4.609
MS.219         	14.835         	4.558
MS.220         	14.805         	4.467
MS.221         	14.777         	4.486
MS.222         	14.747         	4.54
MS.223         	14.717         	4.464
MS.224         	14.688         	4.424
MS.225         	14.66          	4.363
MS.226         	14.63          	4.387
MS.227         	14.6           	4.386
MS.228         	14.57          	4.349
MS.229         	14.542         	4.266
MS.230         	14.512         	4.265
MS.231         	14.485         	4.231
MS.232         	14.455         	4.248
MS.233         	14.425         	4.24
MS.234         	14.398         	4.209
MS.235         	14.367         	4.159
MS.236         	14.34          	4.139
MS.237         	14.31          	4
MS.238         	14.282         	3.964
MS.239         	14.255         	3.989
MS.240         	14.225         	3.916
MS.241         	14.197         	3.915
MS.242         	14.167         	3.833
MS.243         	14.14          	3.87
MS.244         	14.112         	3.801
MS.245         	14.085         	3.773
MS.246         	14.055         	3.767
MS.247         	14.028         	3.7
MS.248         	14             	3.673
MS.249         	13.972         	3.706
MS.250         	13.945         	3.641
MS.251         	13.915         	3.619
MS.252         	13.887         	3.654
MS.253         	13.86          	3.572
MS.254         	13.832         	3.539
MS.255         	13.805         	3.534
MS.256         	13.778         	3.473
MS.257         	13.75          	3.505
MS.258         	13.722         	3.434
MS.259         	13.695         	3.418
MS.260         	13.667         	3.419
MS.261         	13.64          	3.369
MS.262         	13.612         	3.319
MS.263         	13.585         	3.341
MS.264         	13.56          	3.311
MS.265         	13.532         	3.259
MS.266         	13.505         	3.325
MS.267         	13.477         	3.315
MS.268         	13.45          	3.243
MS.269         	13.425         	3.22
MS.270         	13.398         	3.224
MS.271         	13.37          	3.131
MS.272         	13.342         	3.195
MS.273         	13.318         	3.105
MS.274         	13.29          	3.115
MS.275         	13.265         	3.124
MS.276         	13.237         	3.097
MS.277         	13.21          	3.059
MS.278         	13.185         	2.955
MS.279         	13.157         	2.977
MS.280         	13.132         	2.921
MS.281         	13.105         	2.91
MS.282         	13.08          	2.914
MS.283         	13.052         	2.91
MS.284         	13.028         	2.842
MS.285         	13             	2.861
MS.286         	12.975         	2.792
MS.287         	12.95          	2.775
MS.288         	12.922         	2.711
MS.289         	12.898         	2.722
MS.290         	12.872         	2.775
MS.291         	12.845         	2.711
MS.292         	12.82          	2.681
MS.293         	12.795         	2.665
MS.294         	12.77          	2.609
MS.295         	12.742         	2.639
MS.296         	12.717         	2.556
MS.297         	12.693         	2.561
MS.298         	12.667         	2.554
MS.299         	12.642         	2.507
MS.300         	12.617         	2.494
MS.301         	12.592         	2.451
MS.302         	12.568         	2.435
MS.303         	12.542         	2.428
MS.304         	12.517         	2.394
MS.305         	12.492         	2.374
MS.306         	12.467         	2.313
MS.307         	12.443         	2.214
MS.308         	12.417         	2.209
MS.309         	12.392         	2.23
MS.310         	12.367         	2.168
MS.311         	12.342         	2.052
MS.312         	12.318         	2.043
MS.313         	12.292         	2.079
MS.314         	12.267         	2
MS.315         	12.245         	1.989
MS.316         	12.22          	1.932
MS.317         	12.195         	1.891
MS.318         	12.17          	1.91
MS.319         	12.148         	1.903
MS.320         	12.122         	1.816
MS.321         	12.097         	1.747
MS.322         	12.075         	1.769
MS.323         	12.05          	1.667
MS.324         	12.025         	1.65
MS.325         	12.002         	1.708
MS.326         	11.977         	1.641
MS.327         	11.952         	1.591
MS.328         	11.93          	1.603
MS.329         	11.905         	1.602
MS.330         	11.882         	1.515
MS.331         	11.858         	1.494
MS.332         	11.835         	1.427
MS.333         	11.81          	1.451
MS.334         	11.787         	1.379
MS.335         	11.765         	1.389
MS.336         	11.74          	1.357
MS.337         	11.717         	1.382
MS.338         	11.693         	1.31
MS.339         	11.67          	1.262
MS.340         	11.648         	1.292
MS.341         	11.622         	1.312
MS.342         	11.6           	1.263
MS.343         	11.577         	1.322
MS.344         	11.555         	1.301
MS.345         	11.53          	1.24
MS.346         	11.507         	1.168
MS.347         	11.485         	1.295
MS.348         	11.462         	1.165
MS.349         	11.44          	1.219
MS.350         	11.415         	1.094
MS.351         	11.392         	1.069
MS.352         	11.37          	1.064
MS.353         	11.347         	0.98
MS.354         	11.325         	1.082
MS.355         	11.302         	1.028
MS.356         	11.28          	0.967
MS.357         	11.257         	0.983
MS.358         	11.235         	0.883
MS.359         	11.212         	0.946
MS.360         	11.19          	0.905
MS.361         	11.167         	0.929
MS.362         	11.145         	0.924
MS.363         	11.122         	0.896
MS.364         	11.1           	0.847
MS.365         	11.08          	0.808
MS.366         	11.057         	0.798
MS.367         	11.035         	0.833
MS.368         	11.012         	0.752
MS.369         	10.99          	0.73
MS.370         	10.967         	0.667
MS.371         	10.948         	0.695
MS.372         	10.925         	0.773
MS.373         	10.903         	0.751
MS.374         	10.88          	0.765
MS.375         	10.86          	0.707
MS.376         	10.837         	0.712
MS.377         	10.815         	0.698
MS.378         	10.795         	0.665
MS.379         	10.773         	0.686
MS.380         	10.752         	0.577
MS.381         	10.73          	0.591
MS.382         	10.707         	0.604
MS.383         	10.688         	0.554
MS.384         	10.665         	0.619
MS.385         	10.645         	0.602
MS.386         	10.622         	0.563
MS.387         	10.602         	0.581
MS.388         	10.58          	0.502
MS.389         	10.56          	0.481
MS.390         	10.537         	0.498
MS.391         	10.517         	0.498
MS.392         	10.497         	0.496
MS.393         	10.475         	0.49
MS.394         	10.455         	0.435
MS.395         	10.432         	0.487
MS.396         	10.412         	0.416
MS.397         	10.392         	0.42
MS.398         	10.372         	0.411
MS.399         	10.35          	0.377
MS.400         	10.33          	0.41
MS.401         	10.31          	0.359
MS.402         	10.287         	0.375
MS.403         	10.267         	0.333
MS.404         	10.247         	0.371
MS.405         	10.227         	0.314
MS.406         	10.207         	0.363
MS.407         	10.185         	0.328
MS.408         	10.165         	0.333
MS.409         	10.145         	0.333
MS.410         	10.125         	0.304
MS.411         	10.105         	0.345
MS.412         	10.085         	0.323
MS.413         	10.065         	0.35
MS.414         	10.045         	0.302
MS.415         	10.025         	0.304
MS.416         	10.005         	0.269
MS.417         	9.985          	0.295
MS.418         	9.965          	0.288
MS.419         	9.945          	0.262
MS.420         	9.925          	0.258
MS.421         	9.905          	0.249
MS.422         	9.885          	0.243
MS.423         	9.865          	0.193
MS.424         	9.845          	0.228
MS.425         	9.825          	0.232
MS.426         	9.807          	0.208
MS.427         	9.787          	0.204
MS.428         	9.767          	0.205
MS.429         	9.747          	0.201
MS.430         	9.727          	0.19
MS.431         	9.71           	0.195
MS.432         	9.69           	0.225
MS.433         	9.67           	0.171
MS.434         	9.65           	0.188
MS.435         	9.632          	0.165
MS.436         	9.613          	0.175
MS.437         	9.592          	0.187
MS.438         	9.575          	0.168
MS.439         	9.555          	0.153
MS.440         	9.535          	0.151
MS.441         	9.517          	0.128
MS.442         	9.497          	0.184
MS.443         	9.477          	0.118
MS.444         	9.46           	0.164
MS.445         	9.44           	0.144
MS.446         	9.422          	0.125
MS.447         	9.403          	0.11
MS.448         	9.385          	0.127
MS.449         	9.365          	0.125
MS.450         	9.347          	0.111
MS.451         	9.327          	0.117
MS.452         	9.31           	0.137
MS.453         	9.29           	0.121
MS.454         	9.273          	0.128
MS.455         	9.255          	0.135
MS.456         	9.235          	0.146
MS.457         	9.217          	0.095
MS.458         	9.198          	0.12
MS.459         	9.18           	0.121
MS.460         	9.162          	0.144
MS.461         	9.142          	0.099
MS.462         	9.125          	0.089
MS.463         	9.108          	0.109
MS.464         	9.09           	0.096
MS.465         	9.07           	0.095
MS.466         	9.052          	0.085
MS.467         	9.035          	0.085
MS.468         	9.017          	0.103
MS.469         	8.997          	0.07
MS.470         	8.98           	0.106
MS.471         	8.962          	0.109
MS.472         	8.945          	0.085
MS.473         	8.927          	0.111
MS.474         	8.91           	0.085
MS.475         	8.89           	0.072
MS.476         	8.872          	0.081
MS.477         	8.855          	0.079
MS.478         	8.837          	0.081
MS.479         	8.82           	0.062
MS.480         	8.802          	0.084
MS.481         	8.785          	0.067
MS.482         	8.767          	0.068
MS.483         	8.75           	0.084
MS.484         	8.733          	0.052
MS.485         	8.715          	0.104
MS.486         	8.698          	0.083
MS.487         	8.68           	0.055
MS.488         	8.662          	0.066
MS.489         	8.645          	0.1
MS.490         	8.627          	0.056
MS.491         	8.61           	0.067
MS.492         	8.595          	0.098
MS.493         	8.577          	0.042
MS.494         	8.56           	0.042
MS.495         	8.542          	0.063
MS.496         	8.525          	0.038
MS.497         	8.507          	0.029
MS.498         	8.492          	0.034
MS.499         	8.475          	0.043
MS.500         	8.457          	0.044
MS.501         	8.44           	0.043
