File:              	C:\Qtrac\Data\Daniel M Sørensen\MScan multicentre study\Data from centres\Oulu\Processed data\OUHC01125C.QZD
Name:              	FL.OUL.NC.6.1
Protocol:          	MSCAN-R2
Date:              	25/11/20
Start time:        	09:48:32
Age:               	34
Sex:               	M
Temperature:       	32,8
S/R sites:         	TA
NC/disease:        	NC
Operator:          	MK
Comments:
M-SCAN DATA (2.8-0.0m)
Scanpts: 5, 11, 587, 597
Stim. (mA)     	Amp. (mV)
MS.1           	24.5           	6.403
MS.2           	24.5           	6.405
MS.3           	24.45          	6.328
MS.4           	24.403         	6.415
MS.5           	24.352         	6.32
MS.6           	24.305         	6.351
MS.7           	24.255         	6.339
MS.8           	24.207         	6.278
MS.9           	24.16          	6.308
MS.10          	24.11          	6.262
MS.11          	24.062         	6.254
MS.12          	24.015         	6.204
MS.13          	23.967         	6.248
MS.14          	23.92          	6.248
MS.15          	23.87          	6.21
MS.16          	23.823         	6.185
MS.17          	23.775         	6.175
MS.18          	23.727         	6.111
MS.19          	23.68          	6.113
MS.20          	23.632         	6.006
MS.21          	23.587         	6.097
MS.22          	23.54          	6.077
MS.23          	23.493         	6.063
MS.24          	23.445         	6.057
MS.25          	23.397         	6.101
MS.26          	23.352         	6.053
MS.27          	23.305         	5.976
MS.28          	23.257         	5.98
MS.29          	23.212         	5.994
MS.30          	23.165         	5.96
MS.31          	23.12          	6.014
MS.32          	23.073         	6.01
MS.33          	23.028         	5.98
MS.34          	22.98          	5.924
MS.35          	22.935         	5.863
MS.36          	22.89          	5.893
MS.37          	22.842         	5.885
MS.38          	22.797         	5.901
MS.39          	22.752         	5.815
MS.40          	22.707         	5.789
MS.41          	22.663         	5.763
MS.42          	22.618         	5.742
MS.43          	22.57          	5.785
MS.44          	22.525         	5.742
MS.45          	22.48          	5.734
MS.46          	22.435         	5.64
MS.47          	22.392         	5.752
MS.48          	22.347         	5.615
MS.49          	22.302         	5.615
MS.50          	22.257         	5.63
MS.51          	22.212         	5.644
MS.52          	22.167         	5.571
MS.53          	22.125         	5.567
MS.54          	22.08          	5.624
MS.55          	22.035         	5.533
MS.56          	21.993         	5.485
MS.57          	21.948         	5.529
MS.58          	21.905         	5.523
MS.59          	21.86          	5.458
MS.60          	21.817         	5.513
MS.61          	21.772         	5.458
MS.62          	21.73          	5.456
MS.63          	21.685         	5.485
MS.64          	21.642         	5.436
MS.65          	21.6           	5.444
MS.66          	21.557         	5.438
MS.67          	21.512         	5.392
MS.68          	21.47          	5.436
MS.69          	21.427         	5.356
MS.70          	21.385         	5.38
MS.71          	21.342         	5.354
MS.72          	21.3           	5.37
MS.73          	21.257         	5.406
MS.74          	21.215         	5.35
MS.75          	21.172         	5.354
MS.76          	21.13          	5.376
MS.77          	21.087         	5.289
MS.78          	21.045         	5.38
MS.79          	21.002         	5.41
MS.80          	20.96          	5.275
MS.81          	20.92          	5.291
MS.82          	20.877         	5.251
MS.83          	20.835         	5.273
MS.84          	20.795         	5.329
MS.85          	20.752         	5.287
MS.86          	20.71          	5.195
MS.87          	20.67          	5.17
MS.88          	20.627         	5.197
MS.89          	20.587         	5.237
MS.90          	20.545         	5.14
MS.91          	20.505         	5.219
MS.92          	20.465         	5.08
MS.93          	20.422         	5.17
MS.94          	20.382         	5.168
MS.95          	20.342         	5.14
MS.96          	20.3           	5.118
MS.97          	20.26          	5.086
MS.98          	20.22          	5.108
MS.99          	20.18          	5.045
MS.100         	20.14          	5.074
MS.101         	20.1           	5.045
MS.102         	20.06          	5.037
MS.103         	20.02          	5.052
MS.104         	19.98          	5.021
MS.105         	19.94          	5.011
MS.106         	19.9           	4.864
MS.107         	19.86          	5.013
MS.108         	19.82          	4.955
MS.109         	19.78          	4.868
MS.110         	19.74          	4.878
MS.111         	19.7           	4.749
MS.112         	19.663         	4.848
MS.113         	19.622         	4.931
MS.114         	19.583         	4.735
MS.115         	19.545         	4.794
MS.116         	19.505         	4.745
MS.117         	19.465         	4.776
MS.118         	19.427         	4.854
MS.119         	19.387         	4.778
MS.120         	19.35          	4.645
MS.121         	19.31          	4.721
MS.122         	19.272         	4.685
MS.123         	19.235         	4.772
MS.124         	19.195         	4.649
MS.125         	19.157         	4.733
MS.126         	19.12          	4.53
MS.127         	19.08          	4.647
MS.128         	19.042         	4.635
MS.129         	19.005         	4.614
MS.130         	18.967         	4.554
MS.131         	18.927         	4.445
MS.132         	18.89          	4.437
MS.133         	18.852         	4.471
MS.134         	18.815         	4.512
MS.135         	18.778         	4.417
MS.136         	18.74          	4.467
MS.137         	18.702         	4.443
MS.138         	18.665         	4.455
MS.139         	18.628         	4.401
MS.140         	18.59          	4.312
MS.141         	18.555         	4.391
MS.142         	18.517         	4.339
MS.143         	18.48          	4.266
MS.144         	18.442         	4.212
MS.145         	18.405         	4.288
MS.146         	18.37          	4.226
MS.147         	18.333         	4.296
MS.148         	18.295         	4.268
MS.149         	18.26          	4.216
MS.150         	18.222         	4.163
MS.151         	18.188         	4.127
MS.152         	18.15          	4.125
MS.153         	18.115         	4.099
MS.154         	18.077         	4.155
MS.155         	18.042         	4.125
MS.156         	18.005         	4.153
MS.157         	17.97          	4.109
MS.158         	17.932         	4.139
MS.159         	17.897         	4.03
MS.160         	17.862         	4.103
MS.161         	17.827         	4.055
MS.162         	17.79          	4.03
MS.163         	17.755         	4.01
MS.164         	17.72          	4.012
MS.165         	17.685         	4.05
MS.166         	17.65          	3.956
MS.167         	17.612         	3.98
MS.168         	17.577         	3.962
MS.169         	17.542         	3.954
MS.170         	17.507         	3.871
MS.171         	17.472         	3.897
MS.172         	17.438         	3.819
MS.173         	17.403         	3.634
MS.174         	17.37          	3.853
MS.175         	17.335         	3.809
MS.176         	17.3           	3.855
MS.177         	17.265         	3.777
MS.178         	17.23          	3.787
MS.179         	17.195         	3.771
MS.180         	17.163         	3.545
MS.181         	17.128         	3.422
MS.182         	17.092         	3.513
MS.183         	17.06          	3.571
MS.184         	17.025         	3.487
MS.185         	16.99          	3.501
MS.186         	16.958         	3.529
MS.187         	16.922         	3.484
MS.188         	16.89          	3.442
MS.189         	16.855         	3.36
MS.190         	16.823         	3.36
MS.191         	16.788         	3.243
MS.192         	16.755         	3.225
MS.193         	16.72          	3.112
MS.194         	16.688         	3.291
MS.195         	16.655         	3.092
MS.196         	16.62          	3.112
MS.197         	16.587         	3.043
MS.198         	16.555         	3.12
MS.199         	16.522         	2.941
MS.200         	16.487         	2.963
MS.201         	16.455         	3.07
MS.202         	16.422         	2.941
MS.203         	16.39          	2.902
MS.204         	16.358         	3.146
MS.205         	16.325         	2.892
MS.206         	16.292         	2.888
MS.207         	16.26          	2.816
MS.208         	16.227         	2.925
MS.209         	16.195         	2.798
MS.210         	16.163         	2.796
MS.211         	16.13          	2.717
MS.212         	16.097         	2.739
MS.213         	16.065         	2.695
MS.214         	16.032         	2.769
MS.215         	16.003         	2.701
MS.216         	15.97          	2.536
MS.217         	15.938         	2.626
MS.218         	15.905         	2.562
MS.219         	15.875         	2.53
MS.220         	15.842         	2.469
MS.221         	15.81          	2.608
MS.222         	15.78          	2.504
MS.223         	15.747         	2.582
MS.224         	15.715         	2.391
MS.225         	15.685         	2.542
MS.226         	15.652         	2.512
MS.227         	15.622         	2.403
MS.228         	15.59          	2.514
MS.229         	15.56          	2.435
MS.230         	15.527         	2.28
MS.231         	15.497         	2.411
MS.232         	15.467         	2.383
MS.233         	15.435         	2.222
MS.234         	15.405         	2.206
MS.235         	15.375         	2.278
MS.236         	15.342         	2.024
MS.237         	15.312         	2.062
MS.238         	15.282         	2.258
MS.239         	15.252         	2.073
MS.240         	15.22          	2.248
MS.241         	15.19          	2.06
MS.242         	15.16          	2.008
MS.243         	15.13          	2.067
MS.244         	15.1           	2.103
MS.245         	15.07          	1.938
MS.246         	15.04          	1.871
MS.247         	15.01          	2.054
MS.248         	14.98          	2.05
MS.249         	14.95          	1.748
MS.250         	14.92          	1.819
MS.251         	14.89          	2.02
MS.252         	14.86          	1.909
MS.253         	14.83          	1.768
MS.254         	14.8           	1.817
MS.255         	14.77          	2.163
MS.256         	14.742         	1.843
MS.257         	14.712         	1.859
MS.258         	14.682         	1.821
MS.259         	14.652         	1.752
MS.260         	14.625         	1.799
MS.261         	14.595         	1.76
MS.262         	14.565         	1.752
MS.263         	14.537         	1.644
MS.264         	14.507         	1.577
MS.265         	14.477         	1.668
MS.266         	14.45          	1.672
MS.267         	14.42          	1.762
MS.268         	14.392         	1.625
MS.269         	14.362         	1.732
MS.270         	14.335         	1.684
MS.271         	14.305         	1.589
MS.272         	14.278         	1.664
MS.273         	14.25          	1.593
MS.274         	14.22          	1.631
MS.275         	14.193         	1.563
MS.276         	14.162         	1.567
MS.277         	14.135         	1.521
MS.278         	14.108         	1.503
MS.279         	14.08          	1.492
MS.280         	14.05          	1.541
MS.281         	14.023         	1.49
MS.282         	13.995         	1.585
MS.283         	13.967         	1.505
MS.284         	13.94          	1.499
MS.285         	13.91          	1.44
MS.286         	13.882         	1.551
MS.287         	13.855         	1.472
MS.288         	13.827         	1.39
MS.289         	13.8           	1.378
MS.290         	13.773         	1.48
MS.291         	13.745         	1.384
MS.292         	13.717         	1.426
MS.293         	13.69          	1.317
MS.294         	13.662         	1.319
MS.295         	13.635         	1.472
MS.296         	13.608         	1.462
MS.297         	13.58          	1.414
MS.298         	13.555         	1.281
MS.299         	13.528         	1.255
MS.300         	13.5           	1.384
MS.301         	13.472         	1.285
MS.302         	13.445         	1.233
MS.303         	13.42          	1.257
MS.304         	13.392         	1.204
MS.305         	13.365         	1.219
MS.306         	13.337         	1.154
MS.307         	13.312         	1.12
MS.308         	13.285         	1.164
MS.309         	13.26          	1.182
MS.310         	13.233         	1.116
MS.311         	13.205         	1.098
MS.312         	13.18          	1.168
MS.313         	13.153         	1.096
MS.314         	13.127         	1.1
MS.315         	13.1           	1.104
MS.316         	13.075         	1.072
MS.317         	13.047         	1.102
MS.318         	13.023         	1.076
MS.319         	12.997         	0.987
MS.320         	12.97          	1.031
MS.321         	12.945         	1.053
MS.322         	12.917         	1.061
MS.323         	12.892         	1.001
MS.324         	12.867         	1.061
MS.325         	12.842         	0.995
MS.326         	12.815         	1.019
MS.327         	12.79          	1.013
MS.328         	12.765         	0.975
MS.329         	12.74          	0.991
MS.330         	12.712         	1.003
MS.331         	12.688         	0.904
MS.332         	12.662         	0.927
MS.333         	12.637         	0.957
MS.334         	12.613         	0.943
MS.335         	12.587         	0.951
MS.336         	12.562         	0.927
MS.337         	12.537         	0.86
MS.338         	12.512         	0.945
MS.339         	12.488         	0.914
MS.340         	12.462         	0.832
MS.341         	12.438         	0.82
MS.342         	12.412         	0.816
MS.343         	12.387         	0.826
MS.344         	12.363         	0.814
MS.345         	12.337         	0.826
MS.346         	12.312         	0.804
MS.347         	12.287         	0.786
MS.348         	12.265         	0.767
MS.349         	12.24          	0.743
MS.350         	12.215         	0.755
MS.351         	12.19          	0.737
MS.352         	12.167         	0.737
MS.353         	12.142         	0.786
MS.354         	12.117         	0.691
MS.355         	12.092         	0.765
MS.356         	12.07          	0.707
MS.357         	12.045         	0.679
MS.358         	12.02          	0.687
MS.359         	11.997         	0.624
MS.360         	11.972         	0.657
MS.361         	11.95          	0.647
MS.362         	11.925         	0.632
MS.363         	11.903         	0.663
MS.364         	11.877         	0.653
MS.365         	11.855         	0.659
MS.366         	11.83          	0.604
MS.367         	11.807         	0.57
MS.368         	11.782         	0.524
MS.369         	11.76          	0.52
MS.370         	11.735         	0.538
MS.371         	11.712         	0.518
MS.372         	11.69          	0.528
MS.373         	11.665         	0.528
MS.374         	11.642         	0.574
MS.375         	11.62          	0.491
MS.376         	11.595         	0.508
MS.377         	11.572         	0.518
MS.378         	11.55          	0.487
MS.379         	11.528         	0.516
MS.380         	11.505         	0.481
MS.381         	11.48          	0.504
MS.382         	11.457         	0.483
MS.383         	11.435         	0.445
MS.384         	11.412         	0.473
MS.385         	11.39          	0.479
MS.386         	11.367         	0.459
MS.387         	11.345         	0.473
MS.388         	11.32          	0.461
MS.389         	11.297         	0.443
MS.390         	11.275         	0.447
MS.391         	11.252         	0.443
MS.392         	11.23          	0.445
MS.393         	11.207         	0.449
MS.394         	11.185         	0.447
MS.395         	11.165         	0.431
MS.396         	11.142         	0.433
MS.397         	11.12          	0.435
MS.398         	11.097         	0.435
MS.399         	11.075         	0.453
MS.400         	11.052         	0.433
MS.401         	11.03          	0.427
MS.402         	11.007         	0.425
MS.403         	10.988         	0.421
MS.404         	10.965         	0.427
MS.405         	10.943         	0.429
MS.406         	10.92          	0.411
MS.407         	10.9           	0.413
MS.408         	10.877         	0.405
MS.409         	10.855         	0.409
MS.410         	10.835         	0.407
MS.411         	10.812         	0.403
MS.412         	10.79          	0.401
MS.413         	10.77          	0.393
MS.414         	10.747         	0.401
MS.415         	10.725         	0.393
MS.416         	10.705         	0.385
MS.417         	10.682         	0.379
MS.418         	10.662         	0.393
MS.419         	10.64          	0.385
MS.420         	10.62          	0.383
MS.421         	10.597         	0.373
MS.422         	10.577         	0.377
MS.423         	10.555         	0.352
MS.424         	10.535         	0.361
MS.425         	10.512         	0.367
MS.426         	10.492         	0.344
MS.427         	10.472         	0.361
MS.428         	10.45          	0.324
MS.429         	10.43          	0.35
MS.430         	10.41          	0.35
MS.431         	10.387         	0.318
MS.432         	10.367         	0.336
MS.433         	10.347         	0.365
MS.434         	10.325         	0.344
MS.435         	10.305         	0.312
MS.436         	10.285         	0.336
MS.437         	10.265         	0.306
MS.438         	10.245         	0.31
MS.439         	10.222         	0.288
MS.440         	10.202         	0.31
MS.441         	10.182         	0.28
MS.442         	10.162         	0.292
MS.443         	10.142         	0.316
MS.444         	10.122         	0.272
MS.445         	10.102         	0.284
MS.446         	10.08          	0.28
MS.447         	10.06          	0.282
MS.448         	10.04          	0.258
MS.449         	10.02          	0.27
MS.450         	10             	0.282
MS.451         	9.98           	0.274
MS.452         	9.96           	0.262
MS.453         	9.94           	0.28
MS.454         	9.92           	0.258
MS.455         	9.903          	0.266
MS.456         	9.882          	0.252
MS.457         	9.863          	0.252
MS.458         	9.842          	0.238
MS.459         	9.823          	0.256
MS.460         	9.802          	0.246
MS.461         	9.782          	0.256
MS.462         	9.762          	0.248
MS.463         	9.745          	0.25
MS.464         	9.725          	0.246
MS.465         	9.705          	0.252
MS.466         	9.685          	0.242
MS.467         	9.667          	0.232
MS.468         	9.648          	0.228
MS.469         	9.627          	0.246
MS.470         	9.608          	0.232
MS.471         	9.59           	0.244
MS.472         	9.57           	0.226
MS.473         	9.552          	0.244
MS.474         	9.532          	0.226
MS.475         	9.512          	0.224
MS.476         	9.495          	0.224
MS.477         	9.475          	0.228
MS.478         	9.455          	0.226
MS.479         	9.438          	0.224
MS.480         	9.417          	0.222
MS.481         	9.4            	0.22
MS.482         	9.38           	0.226
MS.483         	9.363          	0.224
MS.484         	9.342          	0.224
MS.485         	9.325          	0.218
MS.486         	9.305          	0.232
MS.487         	9.287          	0.222
MS.488         	9.27           	0.218
MS.489         	9.25           	0.218
MS.490         	9.233          	0.222
MS.491         	9.212          	0.203
MS.492         	9.195          	0.218
MS.493         	9.177          	0.22
MS.494         	9.158          	0.22
MS.495         	9.14           	0.222
MS.496         	9.122          	0.201
MS.497         	9.102          	0.22
MS.498         	9.085          	0.197
MS.499         	9.068          	0.216
MS.500         	9.05           	0.216
MS.501         	9.03           	0.205
