File:              	C:\Qtrac\Data\Daniel M Sørensen\MScan multicentre study\Data from centres\Oulu\Processed data\OUHC01117C.QZD
Name:              	FL.OUL.NC.5.2
Protocol:          	MSCAN-R2
Date:              	17/11/20
Start time:        	10:45:30
Age:               	61
Sex:               	M
Temperature:       	61
S/R sites:         	TA
NC/disease:        	NC
Operator:          	MK
Comments:
M-SCAN DATA (2.6-0.0m)
Scanpts: 99, 107, 723, 738
Stim. (mA)     	Amp. (mV)
MS.1           	19             	6.2
MS.2           	18.962         	6.159
MS.3           	18.925         	6.177
MS.4           	18.887         	6.179
MS.5           	18.847         	6.198
MS.6           	18.81          	6.185
MS.7           	18.772         	6.157
MS.8           	18.735         	6.192
MS.9           	18.698         	6.222
MS.10          	18.66          	6.196
MS.11          	18.625         	6.274
MS.12          	18.587         	6.192
MS.13          	18.55          	6.206
MS.14          	18.512         	6.179
MS.15          	18.475         	6.224
MS.16          	18.438         	6.188
MS.17          	18.403         	6.232
MS.18          	18.365         	6.232
MS.19          	18.327         	6.214
MS.20          	18.292         	6.212
MS.21          	18.255         	6.234
MS.22          	18.217         	6.19
MS.23          	18.182         	6.21
MS.24          	18.145         	6.228
MS.25          	18.11          	6.246
MS.26          	18.073         	6.234
MS.27          	18.038         	6.204
MS.28          	18             	6.266
MS.29          	17.965         	6.21
MS.30          	17.93          	6.274
MS.31          	17.892         	6.19
MS.32          	17.858         	6.244
MS.33          	17.823         	6.274
MS.34          	17.788         	6.244
MS.35          	17.75          	6.218
MS.36          	17.715         	6.224
MS.37          	17.68          	6.218
MS.38          	17.645         	6.22
MS.39          	17.61          	6.208
MS.40          	17.575         	6.194
MS.41          	17.54          	6.192
MS.42          	17.505         	6.181
MS.43          	17.47          	6.169
MS.44          	17.435         	6.181
MS.45          	17.4           	6.192
MS.46          	17.365         	6.161
MS.47          	17.33          	6.194
MS.48          	17.295         	6.22
MS.49          	17.26          	6.202
MS.50          	17.227         	6.165
MS.51          	17.192         	6.179
MS.52          	17.157         	6.179
MS.53          	17.122         	6.161
MS.54          	17.09          	6.198
MS.55          	17.055         	6.19
MS.56          	17.02          	6.169
MS.57          	16.987         	6.208
MS.58          	16.952         	6.179
MS.59          	16.92          	6.19
MS.60          	16.885         	6.192
MS.61          	16.852         	6.214
MS.62          	16.817         	6.183
MS.63          	16.785         	6.208
MS.64          	16.75          	6.202
MS.65          	16.717         	6.153
MS.66          	16.685         	6.224
MS.67          	16.65          	6.232
MS.68          	16.618         	6.216
MS.69          	16.585         	6.163
MS.70          	16.55          	6.224
MS.71          	16.517         	6.214
MS.72          	16.485         	6.192
MS.73          	16.452         	6.157
MS.74          	16.42          	6.155
MS.75          	16.385         	6.218
MS.76          	16.352         	6.173
MS.77          	16.32          	6.173
MS.78          	16.288         	6.188
MS.79          	16.255         	6.194
MS.80          	16.222         	6.2
MS.81          	16.19          	6.21
MS.82          	16.157         	6.216
MS.83          	16.125         	6.194
MS.84          	16.095         	6.192
MS.85          	16.062         	6.262
MS.86          	16.03          	6.252
MS.87          	15.997         	6.216
MS.88          	15.965         	6.244
MS.89          	15.932         	6.224
MS.90          	15.902         	6.302
MS.91          	15.87          	6.218
MS.92          	15.837         	6.22
MS.93          	15.807         	6.157
MS.94          	15.775         	6.198
MS.95          	15.742         	6.272
MS.96          	15.712         	6.212
MS.97          	15.68          	6.246
MS.98          	15.65          	6.224
MS.99          	15.617         	6.224
MS.100         	15.587         	6.26
MS.101         	15.555         	6.27
MS.102         	15.525         	6.179
MS.103         	15.495         	6.196
MS.104         	15.462         	6.22
MS.105         	15.432         	6.206
MS.106         	15.4           	6.252
MS.107         	15.37          	6.242
MS.108         	15.34          	6.165
MS.109         	15.31          	6.159
MS.110         	15.277         	6.242
MS.111         	15.247         	6.2
MS.112         	15.217         	6.256
MS.113         	15.188         	6.24
MS.114         	15.157         	6.254
MS.115         	15.127         	6.226
MS.116         	15.095         	6.252
MS.117         	15.065         	6.181
MS.118         	15.035         	6.238
MS.119         	15.005         	6.206
MS.120         	14.975         	6.238
MS.121         	14.945         	6.204
MS.122         	14.915         	6.173
MS.123         	14.887         	6.173
MS.124         	14.858         	6.185
MS.125         	14.827         	6.236
MS.126         	14.797         	6.113
MS.127         	14.767         	6.192
MS.128         	14.737         	6.143
MS.129         	14.707         	6.105
MS.130         	14.68          	6.121
MS.131         	14.65          	6.123
MS.132         	14.62          	6.149
MS.133         	14.592         	6.151
MS.134         	14.562         	6.105
MS.135         	14.532         	6.093
MS.136         	14.505         	6.105
MS.137         	14.475         	6.091
MS.138         	14.447         	6.151
MS.139         	14.417         	6.147
MS.140         	14.387         	6.071
MS.141         	14.36          	6.091
MS.142         	14.33          	6.065
MS.143         	14.302         	6.018
MS.144         	14.275         	6.018
MS.145         	14.245         	6.093
MS.146         	14.217         	6.081
MS.147         	14.188         	5.998
MS.148         	14.16          	6.049
MS.149         	14.132         	6.008
MS.150         	14.102         	6.047
MS.151         	14.075         	6.02
MS.152         	14.047         	6.081
MS.153         	14.02          	6
MS.154         	13.992         	6.016
MS.155         	13.962         	6.004
MS.156         	13.935         	5.96
MS.157         	13.907         	5.992
MS.158         	13.88          	6.006
MS.159         	13.852         	5.904
MS.160         	13.825         	5.96
MS.161         	13.797         	5.986
MS.162         	13.77          	6
MS.163         	13.742         	5.97
MS.164         	13.715         	6.006
MS.165         	13.688         	6.03
MS.166         	13.66          	5.982
MS.167         	13.632         	6.03
MS.168         	13.605         	5.94
MS.169         	13.577         	5.92
MS.170         	13.55          	5.829
MS.171         	13.523         	5.897
MS.172         	13.497         	5.889
MS.173         	13.47          	5.914
MS.174         	13.443         	5.895
MS.175         	13.415         	5.946
MS.176         	13.39          	5.904
MS.177         	13.362         	5.861
MS.178         	13.335         	5.879
MS.179         	13.31          	5.877
MS.180         	13.282         	5.895
MS.181         	13.255         	5.897
MS.182         	13.23          	5.893
MS.183         	13.202         	5.835
MS.184         	13.177         	5.857
MS.185         	13.15          	5.813
MS.186         	13.125         	5.865
MS.187         	13.097         	5.871
MS.188         	13.072         	5.811
MS.189         	13.045         	5.823
MS.190         	13.02          	5.829
MS.191         	12.992         	5.843
MS.192         	12.967         	5.823
MS.193         	12.943         	5.817
MS.194         	12.915         	5.833
MS.195         	12.89          	5.843
MS.196         	12.865         	5.851
MS.197         	12.837         	5.904
MS.198         	12.812         	5.861
MS.199         	12.787         	5.827
MS.200         	12.762         	5.801
MS.201         	12.735         	5.839
MS.202         	12.71          	5.851
MS.203         	12.685         	5.831
MS.204         	12.66          	5.763
MS.205         	12.635         	5.726
MS.206         	12.61          	5.811
MS.207         	12.585         	5.861
MS.208         	12.56          	5.787
MS.209         	12.535         	5.763
MS.210         	12.51          	5.797
MS.211         	12.485         	5.837
MS.212         	12.46          	5.777
MS.213         	12.435         	5.734
MS.214         	12.41          	5.754
MS.215         	12.385         	5.738
MS.216         	12.36          	5.758
MS.217         	12.335         	5.752
MS.218         	12.31          	5.777
MS.219         	12.285         	5.742
MS.220         	12.26          	5.829
MS.221         	12.238         	5.724
MS.222         	12.212         	5.748
MS.223         	12.188         	5.732
MS.224         	12.162         	5.779
MS.225         	12.14          	5.76
MS.226         	12.115         	5.767
MS.227         	12.09          	5.716
MS.228         	12.068         	5.736
MS.229         	12.042         	5.742
MS.230         	12.017         	5.785
MS.231         	11.995         	5.736
MS.232         	11.97          	5.783
MS.233         	11.947         	5.724
MS.234         	11.922         	5.74
MS.235         	11.9           	5.789
MS.236         	11.875         	5.734
MS.237         	11.852         	5.831
MS.238         	11.827         	5.769
MS.239         	11.805         	5.789
MS.240         	11.78          	5.769
MS.241         	11.757         	5.754
MS.242         	11.733         	5.714
MS.243         	11.71          	5.752
MS.244         	11.688         	5.742
MS.245         	11.662         	5.756
MS.246         	11.64          	5.746
MS.247         	11.617         	5.775
MS.248         	11.592         	5.775
MS.249         	11.57          	5.767
MS.250         	11.547         	5.777
MS.251         	11.525         	5.718
MS.252         	11.5           	5.767
MS.253         	11.477         	5.797
MS.254         	11.455         	5.785
MS.255         	11.432         	5.756
MS.256         	11.41          	5.827
MS.257         	11.387         	5.781
MS.258         	11.365         	5.843
MS.259         	11.34          	5.746
MS.260         	11.318         	5.799
MS.261         	11.295         	5.777
MS.262         	11.273         	5.732
MS.263         	11.25          	5.732
MS.264         	11.227         	5.827
MS.265         	11.205         	5.734
MS.266         	11.182         	5.748
MS.267         	11.16          	5.758
MS.268         	11.14          	5.742
MS.269         	11.117         	5.694
MS.270         	11.095         	5.728
MS.271         	11.073         	5.748
MS.272         	11.05          	5.72
MS.273         	11.028         	5.684
MS.274         	11.005         	5.708
MS.275         	10.985         	5.781
MS.276         	10.962         	5.704
MS.277         	10.94          	5.692
MS.278         	10.917         	5.732
MS.279         	10.898         	5.756
MS.280         	10.875         	5.686
MS.281         	10.852         	5.664
MS.282         	10.832         	5.779
MS.283         	10.81          	5.769
MS.284         	10.787         	5.724
MS.285         	10.767         	5.722
MS.286         	10.745         	5.664
MS.287         	10.722         	5.577
MS.288         	10.702         	5.696
MS.289         	10.68          	5.682
MS.290         	10.66          	5.676
MS.291         	10.637         	5.71
MS.292         	10.617         	5.65
MS.293         	10.595         	5.656
MS.294         	10.575         	5.646
MS.295         	10.552         	5.769
MS.296         	10.532         	5.676
MS.297         	10.51          	5.662
MS.298         	10.49          	5.666
MS.299         	10.47          	5.74
MS.300         	10.448         	5.656
MS.301         	10.427         	5.67
MS.302         	10.407         	5.674
MS.303         	10.385         	5.736
MS.304         	10.365         	5.658
MS.305         	10.345         	5.666
MS.306         	10.323         	5.573
MS.307         	10.302         	5.587
MS.308         	10.282         	5.617
MS.309         	10.262         	5.68
MS.310         	10.242         	5.624
MS.311         	10.22          	5.656
MS.312         	10.2           	5.585
MS.313         	10.18          	5.648
MS.314         	10.16          	5.688
MS.315         	10.14          	5.678
MS.316         	10.12          	5.579
MS.317         	10.1           	5.656
MS.318         	10.08          	5.553
MS.319         	10.057         	5.477
MS.320         	10.037         	5.499
MS.321         	10.017         	5.529
MS.322         	9.997          	5.414
MS.323         	9.977          	5.519
MS.324         	9.957          	5.569
MS.325         	9.938          	5.388
MS.326         	9.92           	5.515
MS.327         	9.9            	5.462
MS.328         	9.88           	5.321
MS.329         	9.86           	5.446
MS.330         	9.84           	5.472
MS.331         	9.82           	5.499
MS.332         	9.8            	5.442
MS.333         	9.78           	5.44
MS.334         	9.762          	5.396
MS.335         	9.742          	5.378
MS.336         	9.722          	5.456
MS.337         	9.702          	5.424
MS.338         	9.682          	5.336
MS.339         	9.665          	5.39
MS.340         	9.645          	5.36
MS.341         	9.625          	5.418
MS.342         	9.608          	5.41
MS.343         	9.587          	5.36
MS.344         	9.568          	5.396
MS.345         	9.55           	5.348
MS.346         	9.53           	5.265
MS.347         	9.51           	5.245
MS.348         	9.492          	5.209
MS.349         	9.472          	5.277
MS.350         	9.455          	5.309
MS.351         	9.435          	5.376
MS.352         	9.417          	5.336
MS.353         	9.398          	5.213
MS.354         	9.377          	5.336
MS.355         	9.36           	5.215
MS.356         	9.34           	5.297
MS.357         	9.323          	5.182
MS.358         	9.305          	5.207
MS.359         	9.285          	5.249
MS.360         	9.267          	5.289
MS.361         	9.247          	5.17
MS.362         	9.23           	5.271
MS.363         	9.212          	5.217
MS.364         	9.193          	5.122
MS.365         	9.175          	5.253
MS.366         	9.158          	5.188
MS.367         	9.137          	5.166
MS.368         	9.12           	5.118
MS.369         	9.102          	5.108
MS.370         	9.082          	5.138
MS.371         	9.065          	5.237
MS.372         	9.047          	5.186
MS.373         	9.03           	4.999
MS.374         	9.01           	4.977
MS.375         	8.992          	4.836
MS.376         	8.975          	4.987
MS.377         	8.957          	4.868
MS.378         	8.94           	5.003
MS.379         	8.922          	5.068
MS.380         	8.903          	4.997
MS.381         	8.885          	4.723
MS.382         	8.867          	4.83
MS.383         	8.85           	5.019
MS.384         	8.832          	4.6
MS.385         	8.815          	4.848
MS.386         	8.797          	4.735
MS.387         	8.78           	4.592
MS.388         	8.762          	4.602
MS.389         	8.745          	4.691
MS.390         	8.727          	4.633
MS.391         	8.71           	4.81
MS.392         	8.693          	4.753
MS.393         	8.675          	4.55
MS.394         	8.658          	4.616
MS.395         	8.64           	4.806
MS.396         	8.622          	4.502
MS.397         	8.605          	4.449
MS.398         	8.587          	4.554
MS.399         	8.573          	4.467
MS.400         	8.555          	4.528
MS.401         	8.537          	4.433
MS.402         	8.52           	4.379
MS.403         	8.502          	4.27
MS.404         	8.485          	4.234
MS.405         	8.47           	4.482
MS.406         	8.452          	4.266
MS.407         	8.435          	4.308
MS.408         	8.417          	4.298
MS.409         	8.403          	4.103
MS.410         	8.385          	4.187
MS.411         	8.367          	4.246
MS.412         	8.352          	4.296
MS.413         	8.335          	4.135
MS.414         	8.318          	4.254
MS.415         	8.302          	4.2
MS.416         	8.285          	4.121
MS.417         	8.267          	4.147
MS.418         	8.252          	4.139
MS.419         	8.235          	4.175
MS.420         	8.22           	4.151
MS.421         	8.202          	4.131
MS.422         	8.185          	4.304
MS.423         	8.17           	3.998
MS.424         	8.153          	3.871
MS.425         	8.137          	3.918
MS.426         	8.12           	3.899
MS.427         	8.105          	4.008
MS.428         	8.087          	3.839
MS.429         	8.073          	3.803
MS.430         	8.055          	3.897
MS.431         	8.04           	3.875
MS.432         	8.025          	3.789
MS.433         	8.007          	3.756
MS.434         	7.992          	3.764
MS.435         	7.975          	3.758
MS.436         	7.96           	3.803
MS.437         	7.945          	3.825
MS.438         	7.927          	3.698
MS.439         	7.912          	3.65
MS.440         	7.898          	3.642
MS.441         	7.88           	3.787
MS.442         	7.865          	3.65
MS.443         	7.85           	3.581
MS.444         	7.832          	3.603
MS.445         	7.817          	3.547
MS.446         	7.802          	3.555
MS.447         	7.787          	3.478
MS.448         	7.773          	3.37
MS.449         	7.755          	3.525
MS.450         	7.74           	3.402
MS.451         	7.725          	3.402
MS.452         	7.71           	3.476
MS.453         	7.695          	3.398
MS.454         	7.677          	3.315
MS.455         	7.662          	3.36
MS.456         	7.648          	3.327
MS.457         	7.632          	3.418
MS.458         	7.617          	3.293
MS.459         	7.602          	3.271
MS.460         	7.587          	3.265
MS.461         	7.572          	3.297
MS.462         	7.557          	3.221
MS.463         	7.543          	3.245
MS.464         	7.527          	3.188
MS.465         	7.512          	3.194
MS.466         	7.497          	3.086
MS.467         	7.482          	3.136
MS.468         	7.467          	3.194
MS.469         	7.452          	3.102
MS.470         	7.438          	3.178
MS.471         	7.422          	3.027
MS.472         	7.407          	3.009
MS.473         	7.392          	3.057
MS.474         	7.378          	3.114
MS.475         	7.362          	2.961
MS.476         	7.347          	3.207
MS.477         	7.332          	3.049
MS.478         	7.317          	3.108
MS.479         	7.305          	3.074
MS.480         	7.29           	2.995
MS.481         	7.275          	2.977
MS.482         	7.26           	2.87
MS.483         	7.245          	2.943
MS.484         	7.233          	2.935
MS.485         	7.217          	2.894
MS.486         	7.202          	2.874
MS.487         	7.188          	2.939
MS.488         	7.175          	2.854
MS.489         	7.16           	2.832
MS.490         	7.145          	2.687
MS.491         	7.13           	2.719
MS.492         	7.117          	2.878
MS.493         	7.102          	2.439
MS.494         	7.087          	2.536
MS.495         	7.075          	2.508
MS.496         	7.06           	2.745
MS.497         	7.045          	2.429
MS.498         	7.032          	2.455
MS.499         	7.017          	2.459
MS.500         	7.003          	2.302
MS.501         	6.99           	2.326
