File:              	C:\Qtrac\Data\CKMC00909E.QZD
Name:              	RHS02
Protocol:          	MSCAN-R2
Date:              	9/9/20
Start time:        	13:50:28
Age:               	34
Sex:               	F
Temperature:       	35.6
S/R sites:         	RPeron DCF-AT
NC/disease:        	NC
Operator:          	CK
Comments:          	CG
M-SCAN DATA (9-1.3m)
Scanpts: 76, 94, 793, 812
Stim. (mA)     	Amp. (mV)
MS.1           	17             	5.681
MS.2           	17             	5.659
MS.3           	17             	5.652
MS.4           	17             	5.62
MS.5           	17             	5.638
MS.6           	17             	5.639
MS.7           	17             	5.615
MS.8           	17             	5.62
MS.9           	17             	5.602
MS.10          	17             	5.668
MS.11          	17             	5.62
MS.12          	17             	5.596
MS.13          	17             	5.615
MS.14          	17             	5.618
MS.15          	17             	5.626
MS.16          	17             	5.594
MS.17          	17             	5.616
MS.18          	17             	5.618
MS.19          	17             	5.658
MS.20          	17             	5.612
MS.21          	17             	5.594
MS.22          	17             	5.607
MS.23          	17             	5.679
MS.24          	16.93          	5.635
MS.25          	16.9           	5.594
MS.26          	16.865         	5.608
MS.27          	16.83          	5.649
MS.28          	16.795         	5.598
MS.29          	16.765         	5.659
MS.30          	16.73          	5.623
MS.31          	16.695         	5.608
MS.32          	16.665         	5.579
MS.33          	16.63          	5.624
MS.34          	16.595         	5.623
MS.35          	16.565         	5.605
MS.36          	16.53          	5.601
MS.37          	16.5           	5.588
MS.38          	16.465         	5.607
MS.39          	16.43          	5.616
MS.40          	16.4           	5.616
MS.41          	16.365         	5.641
MS.42          	16.335         	5.605
MS.43          	16.3           	5.585
MS.44          	16.27          	5.604
MS.45          	16.235         	5.599
MS.46          	16.205         	5.621
MS.47          	16.17          	5.601
MS.48          	16.14          	5.593
MS.49          	16.105         	5.609
MS.50          	16.075         	5.594
MS.51          	16.04          	5.582
MS.52          	16.01          	5.576
MS.53          	15.98          	5.583
MS.54          	15.945         	5.592
MS.55          	15.915         	5.599
MS.56          	15.88          	5.598
MS.57          	15.85          	5.604
MS.58          	15.82          	5.588
MS.59          	15.785         	5.581
MS.60          	15.755         	5.58
MS.61          	15.725         	5.573
MS.62          	15.695         	5.568
MS.63          	15.66          	5.569
MS.64          	15.63          	5.563
MS.65          	15.6           	5.558
MS.66          	15.57          	5.568
MS.67          	15.535         	5.567
MS.68          	15.505         	5.569
MS.69          	15.475         	5.552
MS.70          	15.445         	5.568
MS.71          	15.415         	5.568
MS.72          	15.38          	5.565
MS.73          	15.35          	5.549
MS.74          	15.32          	5.564
MS.75          	15.29          	5.552
MS.76          	15.26          	5.544
MS.77          	15.23          	5.563
MS.78          	15.2           	5.557
MS.79          	15.17          	5.561
MS.80          	15.14          	5.547
MS.81          	15.11          	5.547
MS.82          	15.08          	5.558
MS.83          	15.045         	5.558
MS.84          	15.015         	5.555
MS.85          	14.985         	5.571
MS.86          	14.955         	5.552
MS.87          	14.93          	5.569
MS.88          	14.9           	5.529
MS.89          	14.87          	5.529
MS.90          	14.84          	5.551
MS.91          	14.81          	5.565
MS.92          	14.78          	5.549
MS.93          	14.75          	5.547
MS.94          	14.72          	5.532
MS.95          	14.69          	5.525
MS.96          	14.66          	5.56
MS.97          	14.63          	5.513
MS.98          	14.605         	5.519
MS.99          	14.575         	5.531
MS.100         	14.545         	5.527
MS.101         	14.515         	5.562
MS.102         	14.485         	5.535
MS.103         	14.455         	5.565
MS.104         	14.43          	5.545
MS.105         	14.4           	5.543
MS.106         	14.37          	5.546
MS.107         	14.34          	5.533
MS.108         	14.315         	5.544
MS.109         	14.285         	5.539
MS.110         	14.255         	5.534
MS.111         	14.23          	5.537
MS.112         	14.2           	5.561
MS.113         	14.17          	5.543
MS.114         	14.145         	5.557
MS.115         	14.115         	5.536
MS.116         	14.085         	5.549
MS.117         	14.06          	5.529
MS.118         	14.03          	5.522
MS.119         	14             	5.529
MS.120         	13.975         	5.533
MS.121         	13.945         	5.53
MS.122         	13.92          	5.522
MS.123         	13.89          	5.526
MS.124         	13.865         	5.543
MS.125         	13.835         	5.541
MS.126         	13.805         	5.527
MS.127         	13.78          	5.525
MS.128         	13.75          	5.527
MS.129         	13.725         	5.536
MS.130         	13.695         	5.54
MS.131         	13.67          	5.524
MS.132         	13.645         	5.535
MS.133         	13.615         	5.544
MS.134         	13.59          	5.53
MS.135         	13.56          	5.532
MS.136         	13.535         	5.525
MS.137         	13.505         	5.524
MS.138         	13.48          	5.543
MS.139         	13.455         	5.528
MS.140         	13.425         	5.532
MS.141         	13.4           	5.515
MS.142         	13.375         	5.524
MS.143         	13.345         	5.519
MS.144         	13.32          	5.541
MS.145         	13.295         	5.529
MS.146         	13.265         	5.534
MS.147         	13.24          	5.532
MS.148         	13.215         	5.521
MS.149         	13.185         	5.527
MS.150         	13.16          	5.523
MS.151         	13.135         	5.532
MS.152         	13.11          	5.527
MS.153         	13.08          	5.512
MS.154         	13.055         	5.524
MS.155         	13.03          	5.507
MS.156         	13.005         	5.496
MS.157         	12.975         	5.533
MS.158         	12.95          	5.527
MS.159         	12.925         	5.513
MS.160         	12.9           	5.505
MS.161         	12.875         	5.528
MS.162         	12.85          	5.526
MS.163         	12.825         	5.532
MS.164         	12.795         	5.521
MS.165         	12.77          	5.52
MS.166         	12.745         	5.52
MS.167         	12.72          	5.511
MS.168         	12.695         	5.51
MS.169         	12.67          	5.522
MS.170         	12.645         	5.491
MS.171         	12.62          	5.516
MS.172         	12.595         	5.516
MS.173         	12.57          	5.515
MS.174         	12.545         	5.511
MS.175         	12.52          	5.479
MS.176         	12.495         	5.514
MS.177         	12.47          	5.502
MS.178         	12.445         	5.521
MS.179         	12.42          	5.505
MS.180         	12.395         	5.49
MS.181         	12.37          	5.514
MS.182         	12.345         	5.521
MS.183         	12.32          	5.493
MS.184         	12.295         	5.493
MS.185         	12.27          	5.502
MS.186         	12.245         	5.494
MS.187         	12.22          	5.516
MS.188         	12.195         	5.482
MS.189         	12.175         	5.496
MS.190         	12.15          	5.509
MS.191         	12.125         	5.508
MS.192         	12.1           	5.517
MS.193         	12.075         	5.488
MS.194         	12.05          	5.48
MS.195         	12.03          	5.496
MS.196         	12.005         	5.499
MS.197         	11.98          	5.492
MS.198         	11.955         	5.469
MS.199         	11.93          	5.499
MS.200         	11.91          	5.482
MS.201         	11.885         	5.474
MS.202         	11.86          	5.492
MS.203         	11.835         	5.496
MS.204         	11.815         	5.486
MS.205         	11.79          	5.448
MS.206         	11.765         	5.486
MS.207         	11.74          	5.493
MS.208         	11.72          	5.484
MS.209         	11.695         	5.47
MS.210         	11.67          	5.476
MS.211         	11.65          	5.483
MS.212         	11.625         	5.461
MS.213         	11.6           	5.488
MS.214         	11.58          	5.495
MS.215         	11.555         	5.457
MS.216         	11.535         	5.475
MS.217         	11.51          	5.459
MS.218         	11.485         	5.45
MS.219         	11.465         	5.434
MS.220         	11.44          	5.436
MS.221         	11.42          	5.447
MS.222         	11.395         	5.443
MS.223         	11.375         	5.45
MS.224         	11.35          	5.455
MS.225         	11.325         	5.424
MS.226         	11.305         	5.427
MS.227         	11.28          	5.405
MS.228         	11.26          	5.441
MS.229         	11.235         	5.417
MS.230         	11.215         	5.413
MS.231         	11.19          	5.425
MS.232         	11.17          	5.422
MS.233         	11.145         	5.429
MS.234         	11.125         	5.43
MS.235         	11.105         	5.396
MS.236         	11.08          	5.394
MS.237         	11.06          	5.366
MS.238         	11.035         	5.372
MS.239         	11.015         	5.419
MS.240         	10.99          	5.415
MS.241         	10.97          	5.403
MS.242         	10.95          	5.372
MS.243         	10.925         	5.354
MS.244         	10.905         	5.379
MS.245         	10.885         	5.407
MS.246         	10.86          	5.4
MS.247         	10.84          	5.355
MS.248         	10.82          	5.364
MS.249         	10.795         	5.315
MS.250         	10.775         	5.339
MS.251         	10.755         	5.341
MS.252         	10.73          	5.325
MS.253         	10.71          	5.308
MS.254         	10.69          	5.303
MS.255         	10.67          	5.342
MS.256         	10.645         	5.346
MS.257         	10.625         	5.323
MS.258         	10.605         	5.307
MS.259         	10.585         	5.308
MS.260         	10.56          	5.288
MS.261         	10.54          	5.306
MS.262         	10.52          	5.302
MS.263         	10.5           	5.306
MS.264         	10.475         	5.275
MS.265         	10.455         	5.294
MS.266         	10.435         	5.262
MS.267         	10.415         	5.287
MS.268         	10.395         	5.255
MS.269         	10.375         	5.27
MS.270         	10.35          	5.272
MS.271         	10.33          	5.258
MS.272         	10.31          	5.267
MS.273         	10.29          	5.279
MS.274         	10.27          	5.281
MS.275         	10.25          	5.244
MS.276         	10.23          	5.281
MS.277         	10.21          	5.217
MS.278         	10.19          	5.258
MS.279         	10.17          	5.274
MS.280         	10.145         	5.217
MS.281         	10.125         	5.225
MS.282         	10.105         	5.223
MS.283         	10.085         	5.246
MS.284         	10.065         	5.249
MS.285         	10.045         	5.237
MS.286         	10.025         	5.272
MS.287         	10.005         	5.212
MS.288         	9.985          	5.243
MS.289         	9.965          	5.202
MS.290         	9.945          	5.215
MS.291         	9.925          	5.206
MS.292         	9.905          	5.193
MS.293         	9.885          	5.192
MS.294         	9.865          	5.189
MS.295         	9.845          	5.239
MS.296         	9.83           	5.239
MS.297         	9.81           	5.21
MS.298         	9.79           	5.186
MS.299         	9.77           	5.208
MS.300         	9.75           	5.212
MS.301         	9.73           	5.195
MS.302         	9.71           	5.165
MS.303         	9.69           	5.196
MS.304         	9.67           	5.179
MS.305         	9.65           	5.182
MS.306         	9.635          	5.186
MS.307         	9.615          	5.223
MS.308         	9.595          	5.204
MS.309         	9.575          	5.187
MS.310         	9.555          	5.152
MS.311         	9.535          	5.203
MS.312         	9.52           	5.193
MS.313         	9.5            	5.145
MS.314         	9.48           	5.173
MS.315         	9.46           	5.149
MS.316         	9.44           	5.184
MS.317         	9.425          	5.162
MS.318         	9.405          	5.172
MS.319         	9.385          	5.149
MS.320         	9.365          	5.184
MS.321         	9.35           	5.118
MS.322         	9.33           	5.123
MS.323         	9.31           	5.07
MS.324         	9.295          	5.101
MS.325         	9.275          	5.118
MS.326         	9.255          	5.124
MS.327         	9.235          	5.062
MS.328         	9.22           	5.069
MS.329         	9.2            	5.06
MS.330         	9.18           	5.024
MS.331         	9.165          	5.048
MS.332         	9.145          	4.995
MS.333         	9.125          	5.071
MS.334         	9.11           	5.001
MS.335         	9.09           	5.005
MS.336         	9.07           	5.003
MS.337         	9.055          	4.949
MS.338         	9.035          	5.002
MS.339         	9.02           	4.881
MS.340         	9              	4.924
MS.341         	8.98           	4.886
MS.342         	8.965          	4.91
MS.343         	8.945          	4.863
MS.344         	8.93           	4.858
MS.345         	8.91           	4.849
MS.346         	8.895          	4.833
MS.347         	8.875          	4.814
MS.348         	8.855          	4.803
MS.349         	8.84           	4.723
MS.350         	8.82           	4.777
MS.351         	8.805          	4.854
MS.352         	8.785          	4.74
MS.353         	8.77           	4.692
MS.354         	8.75           	4.615
MS.355         	8.735          	4.694
MS.356         	8.715          	4.731
MS.357         	8.7            	4.669
MS.358         	8.68           	4.623
MS.359         	8.665          	4.608
MS.360         	8.645          	4.604
MS.361         	8.63           	4.6
MS.362         	8.61           	4.537
MS.363         	8.595          	4.588
MS.364         	8.58           	4.562
MS.365         	8.56           	4.597
MS.366         	8.545          	4.533
MS.367         	8.525          	4.532
MS.368         	8.51           	4.517
MS.369         	8.495          	4.545
MS.370         	8.475          	4.413
MS.371         	8.46           	4.494
MS.372         	8.44           	4.486
MS.373         	8.425          	4.426
MS.374         	8.41           	4.465
MS.375         	8.39           	4.354
MS.376         	8.375          	4.309
MS.377         	8.36           	4.387
MS.378         	8.34           	4.31
MS.379         	8.325          	4.359
MS.380         	8.31           	4.288
MS.381         	8.29           	4.316
MS.382         	8.275          	4.268
MS.383         	8.26           	4.325
MS.384         	8.24           	4.301
MS.385         	8.225          	4.321
MS.386         	8.21           	4.257
MS.387         	8.19           	4.182
MS.388         	8.175          	4.232
MS.389         	8.16           	4.111
MS.390         	8.145          	4.111
MS.391         	8.125          	4.155
MS.392         	8.11           	4.178
MS.393         	8.095          	4.126
MS.394         	8.08           	4.108
MS.395         	8.06           	4.095
MS.396         	8.045          	4.13
MS.397         	8.03           	4.081
MS.398         	8.015          	4.003
MS.399         	8              	4.085
MS.400         	7.98           	3.909
MS.401         	7.965          	4.013
MS.402         	7.95           	4.002
MS.403         	7.935          	3.942
MS.404         	7.92           	3.886
MS.405         	7.905          	3.819
MS.406         	7.885          	3.804
MS.407         	7.87           	3.859
MS.408         	7.855          	3.801
MS.409         	7.84           	3.737
MS.410         	7.825          	3.741
MS.411         	7.81           	3.678
MS.412         	7.795          	3.691
MS.413         	7.775          	3.64
MS.414         	7.76           	3.642
MS.415         	7.745          	3.613
MS.416         	7.73           	3.593
MS.417         	7.715          	3.503
MS.418         	7.7            	3.483
MS.419         	7.685          	3.599
MS.420         	7.67           	3.596
MS.421         	7.655          	3.446
MS.422         	7.64           	3.342
MS.423         	7.625          	3.396
MS.424         	7.61           	3.442
MS.425         	7.595          	3.452
MS.426         	7.58           	3.253
MS.427         	7.565          	3.417
MS.428         	7.545          	3.43
MS.429         	7.53           	3.297
MS.430         	7.515          	3.21
MS.431         	7.5            	3.154
MS.432         	7.485          	3.102
MS.433         	7.47           	3.236
MS.434         	7.455          	3.146
MS.435         	7.445          	3.06
MS.436         	7.43           	3.089
MS.437         	7.415          	3.055
MS.438         	7.4            	3.069
MS.439         	7.385          	2.901
MS.440         	7.37           	3.065
MS.441         	7.355          	2.87
MS.442         	7.34           	2.936
MS.443         	7.325          	2.882
MS.444         	7.31           	2.953
MS.445         	7.295          	2.933
MS.446         	7.28           	2.828
MS.447         	7.265          	2.847
MS.448         	7.25           	2.817
MS.449         	7.235          	2.814
MS.450         	7.225          	2.681
MS.451         	7.21           	2.848
MS.452         	7.195          	2.697
MS.453         	7.18           	2.69
MS.454         	7.165          	2.701
MS.455         	7.15           	2.646
MS.456         	7.135          	2.582
MS.457         	7.12           	2.636
MS.458         	7.11           	2.643
MS.459         	7.095          	2.615
MS.460         	7.08           	2.557
MS.461         	7.065          	2.49
MS.462         	7.05           	2.443
MS.463         	7.035          	2.388
MS.464         	7.025          	2.479
MS.465         	7.01           	2.491
MS.466         	6.995          	2.561
MS.467         	6.98           	2.391
MS.468         	6.965          	2.48
MS.469         	6.955          	2.555
MS.470         	6.94           	2.29
MS.471         	6.925          	2.327
MS.472         	6.91           	2.395
MS.473         	6.9            	2.153
MS.474         	6.885          	2.275
MS.475         	6.87           	2.145
MS.476         	6.855          	2.263
MS.477         	6.845          	2.205
MS.478         	6.83           	2.183
MS.479         	6.815          	2.227
MS.480         	6.8            	2.23
MS.481         	6.79           	2.061
MS.482         	6.775          	2.15
MS.483         	6.76           	2.084
MS.484         	6.75           	2.058
MS.485         	6.735          	2.086
MS.486         	6.72           	1.996
MS.487         	6.705          	2.057
MS.488         	6.695          	1.943
MS.489         	6.68           	1.788
MS.490         	6.665          	2.016
MS.491         	6.655          	1.94
MS.492         	6.64           	1.81
MS.493         	6.625          	1.866
MS.494         	6.615          	1.839
MS.495         	6.6            	1.702
MS.496         	6.59           	1.788
MS.497         	6.575          	1.867
MS.498         	6.56           	1.895
MS.499         	6.55           	1.74
MS.500         	6.535          	1.915
MS.501         	6.52           	1.753
MS.502         	6.51           	1.739
MS.503         	6.495          	1.805
