File:              	C:\Qtrac\Data\CKMC01021C.QZD
Name:              	RHS03
Protocol:          	MSCAN-R2
Date:              	21/10/20
Start time:        	09:41:39
Age:               	56
Sex:               	M
Temperature:       	35.4
S/R sites:         	RPer FH-AT
NC/disease:        	NC
Operator:          	CK
Comments:          	CG
M-SCAN DATA (10.4-1.9m)
Scanpts: 46, 61, 872, 894
Stim. (mA)     	Amp. (mV)
MS.1           	25             	5.585
MS.2           	25             	5.588
MS.3           	25             	5.598
MS.4           	25             	5.576
MS.5           	25             	5.562
MS.6           	25             	5.559
MS.7           	25             	5.58
MS.8           	25             	5.565
MS.9           	25             	5.57
MS.10          	25             	5.578
MS.11          	25             	5.564
MS.12          	25             	5.565
MS.13          	25             	5.563
MS.14          	25             	5.574
MS.15          	25             	5.568
MS.16          	25             	5.581
MS.17          	25             	5.596
MS.18          	25             	5.571
MS.19          	25             	5.579
MS.20          	25             	5.579
MS.21          	25             	5.574
MS.22          	25             	5.577
MS.23          	25             	5.613
MS.24          	24.9           	5.612
MS.25          	24.85          	5.572
MS.26          	24.8           	5.585
MS.27          	24.75          	5.595
MS.28          	24.7           	5.592
MS.29          	24.65          	5.599
MS.30          	24.605         	5.618
MS.31          	24.555         	5.585
MS.32          	24.505         	5.605
MS.33          	24.455         	5.598
MS.34          	24.405         	5.613
MS.35          	24.36          	5.617
MS.36          	24.31          	5.612
MS.37          	24.26          	5.625
MS.38          	24.215         	5.589
MS.39          	24.165         	5.598
MS.40          	24.115         	5.633
MS.41          	24.07          	5.62
MS.42          	24.02          	5.619
MS.43          	23.97          	5.598
MS.44          	23.925         	5.604
MS.45          	23.875         	5.625
MS.46          	23.83          	5.609
MS.47          	23.78          	5.63
MS.48          	23.735         	5.63
MS.49          	23.685         	5.602
MS.50          	23.64          	5.616
MS.51          	23.59          	5.634
MS.52          	23.545         	5.603
MS.53          	23.495         	5.604
MS.54          	23.45          	5.618
MS.55          	23.405         	5.636
MS.56          	23.355         	5.633
MS.57          	23.31          	5.615
MS.58          	23.265         	5.603
MS.59          	23.215         	5.632
MS.60          	23.17          	5.629
MS.61          	23.125         	5.626
MS.62          	23.08          	5.64
MS.63          	23.03          	5.622
MS.64          	22.985         	5.63
MS.65          	22.94          	5.613
MS.66          	22.895         	5.632
MS.67          	22.85          	5.628
MS.68          	22.805         	5.623
MS.69          	22.755         	5.615
MS.70          	22.71          	5.615
MS.71          	22.665         	5.611
MS.72          	22.62          	5.61
MS.73          	22.575         	5.632
MS.74          	22.53          	5.622
MS.75          	22.485         	5.611
MS.76          	22.44          	5.601
MS.77          	22.395         	5.629
MS.78          	22.35          	5.603
MS.79          	22.305         	5.609
MS.80          	22.26          	5.604
MS.81          	22.215         	5.588
MS.82          	22.175         	5.601
MS.83          	22.13          	5.59
MS.84          	22.085         	5.621
MS.85          	22.04          	5.602
MS.86          	21.995         	5.605
MS.87          	21.95          	5.597
MS.88          	21.91          	5.596
MS.89          	21.865         	5.582
MS.90          	21.82          	5.61
MS.91          	21.775         	5.605
MS.92          	21.735         	5.604
MS.93          	21.69          	5.604
MS.94          	21.645         	5.591
MS.95          	21.605         	5.59
MS.96          	21.56          	5.601
MS.97          	21.52          	5.593
MS.98          	21.475         	5.616
MS.99          	21.43          	5.609
MS.100         	21.39          	5.61
MS.101         	21.345         	5.596
MS.102         	21.305         	5.605
MS.103         	21.26          	5.607
MS.104         	21.22          	5.588
MS.105         	21.175         	5.588
MS.106         	21.135         	5.603
MS.107         	21.09          	5.581
MS.108         	21.05          	5.572
MS.109         	21.005         	5.554
MS.110         	20.965         	5.583
MS.111         	20.925         	5.58
MS.112         	20.88          	5.594
MS.113         	20.84          	5.573
MS.114         	20.8           	5.574
MS.115         	20.755         	5.58
MS.116         	20.715         	5.566
MS.117         	20.675         	5.559
MS.118         	20.635         	5.575
MS.119         	20.59          	5.594
MS.120         	20.55          	5.591
MS.121         	20.51          	5.576
MS.122         	20.47          	5.565
MS.123         	20.425         	5.562
MS.124         	20.385         	5.58
MS.125         	20.345         	5.563
MS.126         	20.305         	5.564
MS.127         	20.265         	5.576
MS.128         	20.225         	5.577
MS.129         	20.185         	5.562
MS.130         	20.145         	5.549
MS.131         	20.105         	5.551
MS.132         	20.065         	5.557
MS.133         	20.025         	5.558
MS.134         	19.985         	5.555
MS.135         	19.945         	5.554
MS.136         	19.905         	5.539
MS.137         	19.865         	5.537
MS.138         	19.825         	5.548
MS.139         	19.785         	5.544
MS.140         	19.745         	5.535
MS.141         	19.705         	5.556
MS.142         	19.665         	5.53
MS.143         	19.625         	5.546
MS.144         	19.585         	5.548
MS.145         	19.55          	5.555
MS.146         	19.51          	5.557
MS.147         	19.47          	5.547
MS.148         	19.43          	5.537
MS.149         	19.39          	5.539
MS.150         	19.355         	5.526
MS.151         	19.315         	5.544
MS.152         	19.275         	5.54
MS.153         	19.24          	5.534
MS.154         	19.2           	5.521
MS.155         	19.16          	5.543
MS.156         	19.125         	5.522
MS.157         	19.085         	5.549
MS.158         	19.045         	5.543
MS.159         	19.01          	5.538
MS.160         	18.97          	5.538
MS.161         	18.93          	5.499
MS.162         	18.895         	5.518
MS.163         	18.855         	5.533
MS.164         	18.82          	5.525
MS.165         	18.78          	5.482
MS.166         	18.745         	5.534
MS.167         	18.705         	5.501
MS.168         	18.67          	5.545
MS.169         	18.63          	5.525
MS.170         	18.595         	5.488
MS.171         	18.555         	5.502
MS.172         	18.52          	5.499
MS.173         	18.485         	5.51
MS.174         	18.445         	5.502
MS.175         	18.41          	5.483
MS.176         	18.375         	5.479
MS.177         	18.335         	5.488
MS.178         	18.3           	5.477
MS.179         	18.265         	5.499
MS.180         	18.225         	5.468
MS.181         	18.19          	5.491
MS.182         	18.155         	5.469
MS.183         	18.115         	5.471
MS.184         	18.08          	5.49
MS.185         	18.045         	5.47
MS.186         	18.01          	5.455
MS.187         	17.975         	5.469
MS.188         	17.935         	5.445
MS.189         	17.9           	5.447
MS.190         	17.865         	5.499
MS.191         	17.83          	5.458
MS.192         	17.795         	5.431
MS.193         	17.76          	5.46
MS.194         	17.725         	5.443
MS.195         	17.69          	5.451
MS.196         	17.65          	5.443
MS.197         	17.615         	5.435
MS.198         	17.58          	5.466
MS.199         	17.545         	5.443
MS.200         	17.51          	5.474
MS.201         	17.475         	5.45
MS.202         	17.44          	5.436
MS.203         	17.405         	5.437
MS.204         	17.37          	5.447
MS.205         	17.34          	5.449
MS.206         	17.305         	5.45
MS.207         	17.27          	5.413
MS.208         	17.235         	5.472
MS.209         	17.2           	5.442
MS.210         	17.165         	5.424
MS.211         	17.13          	5.449
MS.212         	17.095         	5.421
MS.213         	17.06          	5.447
MS.214         	17.03          	5.403
MS.215         	16.995         	5.416
MS.216         	16.96          	5.402
MS.217         	16.925         	5.372
MS.218         	16.895         	5.382
MS.219         	16.86          	5.395
MS.220         	16.825         	5.347
MS.221         	16.79          	5.396
MS.222         	16.76          	5.431
MS.223         	16.725         	5.402
MS.224         	16.69          	5.387
MS.225         	16.66          	5.407
MS.226         	16.625         	5.384
MS.227         	16.59          	5.414
MS.228         	16.56          	5.398
MS.229         	16.525         	5.383
MS.230         	16.49          	5.374
MS.231         	16.46          	5.414
MS.232         	16.425         	5.38
MS.233         	16.395         	5.399
MS.234         	16.36          	5.363
MS.235         	16.33          	5.388
MS.236         	16.295         	5.372
MS.237         	16.265         	5.381
MS.238         	16.23          	5.352
MS.239         	16.2           	5.392
MS.240         	16.165         	5.386
MS.241         	16.135         	5.378
MS.242         	16.1           	5.368
MS.243         	16.07          	5.327
MS.244         	16.035         	5.382
MS.245         	16.005         	5.347
MS.246         	15.975         	5.386
MS.247         	15.94          	5.369
MS.248         	15.91          	5.359
MS.249         	15.875         	5.312
MS.250         	15.845         	5.349
MS.251         	15.815         	5.334
MS.252         	15.78          	5.308
MS.253         	15.75          	5.359
MS.254         	15.72          	5.323
MS.255         	15.69          	5.364
MS.256         	15.655         	5.338
MS.257         	15.625         	5.347
MS.258         	15.595         	5.287
MS.259         	15.565         	5.309
MS.260         	15.53          	5.312
MS.261         	15.5           	5.26
MS.262         	15.47          	5.298
MS.263         	15.44          	5.302
MS.264         	15.41          	5.315
MS.265         	15.375         	5.269
MS.266         	15.345         	5.275
MS.267         	15.315         	5.289
MS.268         	15.285         	5.269
MS.269         	15.255         	5.28
MS.270         	15.225         	5.286
MS.271         	15.195         	5.28
MS.272         	15.165         	5.258
MS.273         	15.135         	5.233
MS.274         	15.105         	5.264
MS.275         	15.07          	5.225
MS.276         	15.04          	5.208
MS.277         	15.01          	5.226
MS.278         	14.98          	5.242
MS.279         	14.95          	5.234
MS.280         	14.925         	5.223
MS.281         	14.895         	5.231
MS.282         	14.865         	5.222
MS.283         	14.835         	5.212
MS.284         	14.805         	5.208
MS.285         	14.775         	5.193
MS.286         	14.745         	5.222
MS.287         	14.715         	5.175
MS.288         	14.685         	5.223
MS.289         	14.655         	5.188
MS.290         	14.625         	5.229
MS.291         	14.6           	5.179
MS.292         	14.57          	5.187
MS.293         	14.54          	5.215
MS.294         	14.51          	5.177
MS.295         	14.48          	5.17
MS.296         	14.455         	5.175
MS.297         	14.425         	5.182
MS.298         	14.395         	5.076
MS.299         	14.365         	5.172
MS.300         	14.335         	5.066
MS.301         	14.31          	5.092
MS.302         	14.28          	5.071
MS.303         	14.25          	5.068
MS.304         	14.225         	5.024
MS.305         	14.195         	5.007
MS.306         	14.165         	5.013
MS.307         	14.14          	5.07
MS.308         	14.11          	5.059
MS.309         	14.08          	5.052
MS.310         	14.055         	5.048
MS.311         	14.025         	5.013
MS.312         	13.995         	5.005
MS.313         	13.97          	5.024
MS.314         	13.94          	4.944
MS.315         	13.915         	4.993
MS.316         	13.885         	4.973
MS.317         	13.86          	4.976
MS.318         	13.83          	4.913
MS.319         	13.805         	4.939
MS.320         	13.775         	4.932
MS.321         	13.75          	4.944
MS.322         	13.72          	4.947
MS.323         	13.695         	4.899
MS.324         	13.665         	4.904
MS.325         	13.64          	4.922
MS.326         	13.61          	4.921
MS.327         	13.585         	4.832
MS.328         	13.555         	4.821
MS.329         	13.53          	4.853
MS.330         	13.5           	4.915
MS.331         	13.475         	4.918
MS.332         	13.45          	4.938
MS.333         	13.42          	4.836
MS.334         	13.395         	4.734
MS.335         	13.37          	4.814
MS.336         	13.34          	4.783
MS.337         	13.315         	4.829
MS.338         	13.29          	4.901
MS.339         	13.26          	4.776
MS.340         	13.235         	4.666
MS.341         	13.21          	4.86
MS.342         	13.18          	4.778
MS.343         	13.155         	4.766
MS.344         	13.13          	4.792
MS.345         	13.105         	4.681
MS.346         	13.075         	4.636
MS.347         	13.05          	4.765
MS.348         	13.025         	4.626
MS.349         	13             	4.738
MS.350         	12.975         	4.716
MS.351         	12.945         	4.603
MS.352         	12.92          	4.62
MS.353         	12.895         	4.668
MS.354         	12.87          	4.565
MS.355         	12.845         	4.62
MS.356         	12.82          	4.584
MS.357         	12.795         	4.606
MS.358         	12.765         	4.522
MS.359         	12.74          	4.492
MS.360         	12.715         	4.626
MS.361         	12.69          	4.543
MS.362         	12.665         	4.523
MS.363         	12.64          	4.562
MS.364         	12.615         	4.46
MS.365         	12.59          	4.491
MS.366         	12.565         	4.446
MS.367         	12.54          	4.478
MS.368         	12.515         	4.387
MS.369         	12.49          	4.362
MS.370         	12.465         	4.357
MS.371         	12.44          	4.47
MS.372         	12.415         	4.478
MS.373         	12.39          	4.39
MS.374         	12.365         	4.309
MS.375         	12.34          	4.254
MS.376         	12.315         	4.268
MS.377         	12.29          	4.24
MS.378         	12.265         	4.274
MS.379         	12.24          	4.145
MS.380         	12.22          	4.171
MS.381         	12.195         	4.132
MS.382         	12.17          	4.149
MS.383         	12.145         	4.24
MS.384         	12.12          	4.24
MS.385         	12.095         	4.128
MS.386         	12.07          	4.178
MS.387         	12.05          	4.121
MS.388         	12.025         	4.218
MS.389         	12             	4.086
MS.390         	11.975         	4.068
MS.391         	11.95          	4.124
MS.392         	11.93          	4.135
MS.393         	11.905         	4.085
MS.394         	11.88          	3.953
MS.395         	11.855         	4.042
MS.396         	11.835         	4
MS.397         	11.81          	3.929
MS.398         	11.785         	3.994
MS.399         	11.76          	3.892
MS.400         	11.74          	3.964
MS.401         	11.715         	4.025
MS.402         	11.69          	3.852
MS.403         	11.67          	3.896
MS.404         	11.645         	3.828
MS.405         	11.62          	3.832
MS.406         	11.6           	3.914
MS.407         	11.575         	3.806
MS.408         	11.55          	3.811
MS.409         	11.53          	3.799
MS.410         	11.505         	3.847
MS.411         	11.485         	3.863
MS.412         	11.46          	3.879
MS.413         	11.435         	3.701
MS.414         	11.415         	3.75
MS.415         	11.39          	3.751
MS.416         	11.37          	3.748
MS.417         	11.345         	3.802
MS.418         	11.325         	3.657
MS.419         	11.3           	3.747
MS.420         	11.28          	3.646
MS.421         	11.255         	3.765
MS.422         	11.235         	3.587
MS.423         	11.21          	3.677
MS.424         	11.19          	3.616
MS.425         	11.165         	3.721
MS.426         	11.145         	3.645
MS.427         	11.12          	3.716
MS.428         	11.1           	3.625
MS.429         	11.075         	3.602
MS.430         	11.055         	3.68
MS.431         	11.035         	3.668
MS.432         	11.01          	3.599
MS.433         	10.99          	3.529
MS.434         	10.965         	3.608
MS.435         	10.945         	3.549
MS.436         	10.925         	3.632
MS.437         	10.9           	3.524
MS.438         	10.88          	3.602
MS.439         	10.86          	3.531
MS.440         	10.835         	3.47
MS.441         	10.815         	3.517
MS.442         	10.795         	3.453
MS.443         	10.77          	3.372
MS.444         	10.75          	3.372
MS.445         	10.73          	3.36
MS.446         	10.705         	3.476
MS.447         	10.685         	3.386
MS.448         	10.665         	3.351
MS.449         	10.645         	3.496
MS.450         	10.62          	3.495
MS.451         	10.6           	3.279
MS.452         	10.58          	3.202
MS.453         	10.56          	3.291
MS.454         	10.535         	3.271
MS.455         	10.515         	3.276
MS.456         	10.495         	3.148
MS.457         	10.475         	3.32
MS.458         	10.455         	3.283
MS.459         	10.43          	3.274
MS.460         	10.41          	3.197
MS.461         	10.39          	3.266
MS.462         	10.37          	3.138
MS.463         	10.35          	3.087
MS.464         	10.33          	3.199
MS.465         	10.31          	3.115
MS.466         	10.285         	3.078
MS.467         	10.265         	3.19
MS.468         	10.245         	3.156
MS.469         	10.225         	3.04
MS.470         	10.205         	2.902
MS.471         	10.185         	3.024
MS.472         	10.165         	3.03
MS.473         	10.145         	3.008
MS.474         	10.125         	2.988
MS.475         	10.105         	2.899
MS.476         	10.085         	2.98
MS.477         	10.065         	3.049
MS.478         	10.045         	2.909
MS.479         	10.025         	2.946
MS.480         	10.005         	2.97
MS.481         	9.985          	2.856
MS.482         	9.965          	2.798
MS.483         	9.945          	2.962
MS.484         	9.925          	2.88
MS.485         	9.905          	2.881
MS.486         	9.885          	2.879
MS.487         	9.865          	2.83
MS.488         	9.845          	2.881
MS.489         	9.825          	2.901
MS.490         	9.805          	2.811
MS.491         	9.785          	2.823
MS.492         	9.765          	2.602
MS.493         	9.745          	2.789
MS.494         	9.725          	2.563
MS.495         	9.705          	2.646
MS.496         	9.69           	2.727
MS.497         	9.67           	2.546
MS.498         	9.65           	2.517
MS.499         	9.63           	2.623
MS.500         	9.61           	2.408
MS.501         	9.59           	2.471
MS.502         	9.57           	2.48
MS.503         	9.555          	2.518
