File:              	C:\Qtrac\Data\CKMC01118H.QZD
Name:              	RHS08
Protocol:          	MSCAN-R2
Date:              	18/11/20
Start time:        	11:46:32
Age:               	65
Sex:               	F
Temperature:       	36.4
S/R sites:         	RPer FH-AT
NC/disease:        	NC
Operator:          	CK
Comments:          	CG
M-SCAN DATA (7-1.4m)
Scanpts: 1, 24, 589, 608
Stim. (mA)     	Amp. (mV)
MS.1           	31             	4.133
MS.2           	31             	4.118
MS.3           	31             	4.143
MS.4           	31             	4.117
MS.5           	31             	4.116
MS.6           	31             	4.108
MS.7           	31             	4.121
MS.8           	31             	4.116
MS.9           	31             	4.114
MS.10          	31             	4.118
MS.11          	31             	4.116
MS.12          	31             	4.111
MS.13          	31             	4.11
MS.14          	31             	4.114
MS.15          	31             	4.108
MS.16          	31             	4.123
MS.17          	31             	4.11
MS.18          	31             	4.122
MS.19          	31             	4.117
MS.20          	31             	4.113
MS.21          	31             	4.108
MS.22          	31             	4.108
MS.23          	31             	4.127
MS.24          	30.875         	4.126
MS.25          	30.815         	4.113
MS.26          	30.755         	4.12
MS.27          	30.69          	4.111
MS.28          	30.63          	4.105
MS.29          	30.57          	4.12
MS.30          	30.51          	4.119
MS.31          	30.445         	4.116
MS.32          	30.385         	4.12
MS.33          	30.325         	4.119
MS.34          	30.265         	4.128
MS.35          	30.205         	4.131
MS.36          	30.145         	4.132
MS.37          	30.085         	4.114
MS.38          	30.025         	4.12
MS.39          	29.965         	4.113
MS.40          	29.905         	4.123
MS.41          	29.845         	4.138
MS.42          	29.785         	4.128
MS.43          	29.725         	4.116
MS.44          	29.665         	4.12
MS.45          	29.605         	4.126
MS.46          	29.545         	4.131
MS.47          	29.49          	4.128
MS.48          	29.43          	4.113
MS.49          	29.37          	4.131
MS.50          	29.31          	4.12
MS.51          	29.255         	4.116
MS.52          	29.195         	4.13
MS.53          	29.135         	4.122
MS.54          	29.08          	4.13
MS.55          	29.02          	4.137
MS.56          	28.96          	4.136
MS.57          	28.905         	4.119
MS.58          	28.845         	4.124
MS.59          	28.79          	4.124
MS.60          	28.73          	4.13
MS.61          	28.675         	4.126
MS.62          	28.615         	4.129
MS.63          	28.56          	4.13
MS.64          	28.5           	4.126
MS.65          	28.445         	4.119
MS.66          	28.39          	4.109
MS.67          	28.33          	4.13
MS.68          	28.275         	4.126
MS.69          	28.22          	4.119
MS.70          	28.16          	4.117
MS.71          	28.105         	4.133
MS.72          	28.05          	4.125
MS.73          	27.995         	4.112
MS.74          	27.94          	4.093
MS.75          	27.88          	4.116
MS.76          	27.825         	4.139
MS.77          	27.77          	4.12
MS.78          	27.715         	4.131
MS.79          	27.66          	4.11
MS.80          	27.605         	4.111
MS.81          	27.55          	4.114
MS.82          	27.495         	4.121
MS.83          	27.44          	4.116
MS.84          	27.385         	4.105
MS.85          	27.33          	4.108
MS.86          	27.275         	4.097
MS.87          	27.22          	4.116
MS.88          	27.165         	4.098
MS.89          	27.11          	4.091
MS.90          	27.06          	4.097
MS.91          	27.005         	4.105
MS.92          	26.95          	4.094
MS.93          	26.895         	4.096
MS.94          	26.84          	4.089
MS.95          	26.79          	4.09
MS.96          	26.735         	4.099
MS.97          	26.68          	4.113
MS.98          	26.63          	4.089
MS.99          	26.575         	4.084
MS.100         	26.52          	4.092
MS.101         	26.47          	4.077
MS.102         	26.415         	4.092
MS.103         	26.365         	4.025
MS.104         	26.31          	4.042
MS.105         	26.26          	4.039
MS.106         	26.205         	3.97
MS.107         	26.155         	3.972
MS.108         	26.1           	4.061
MS.109         	26.05          	4.09
MS.110         	25.995         	4.097
MS.111         	25.945         	4.025
MS.112         	25.895         	4.066
MS.113         	25.84          	4.083
MS.114         	25.79          	4.043
MS.115         	25.74          	4.056
MS.116         	25.685         	4.068
MS.117         	25.635         	4.081
MS.118         	25.585         	4.057
MS.119         	25.535         	3.992
MS.120         	25.48          	4.057
MS.121         	25.43          	4.004
MS.122         	25.38          	4.038
MS.123         	25.33          	4
MS.124         	25.28          	3.961
MS.125         	25.23          	3.972
MS.126         	25.18          	3.829
MS.127         	25.13          	3.986
MS.128         	25.08          	3.946
MS.129         	25.03          	3.966
MS.130         	24.98          	3.956
MS.131         	24.93          	3.97
MS.132         	24.88          	3.825
MS.133         	24.83          	3.846
MS.134         	24.78          	3.946
MS.135         	24.73          	3.808
MS.136         	24.68          	3.799
MS.137         	24.63          	3.773
MS.138         	24.58          	3.909
MS.139         	24.53          	3.911
MS.140         	24.485         	3.778
MS.141         	24.435         	3.885
MS.142         	24.385         	3.803
MS.143         	24.335         	3.914
MS.144         	24.29          	3.762
MS.145         	24.24          	3.766
MS.146         	24.19          	3.737
MS.147         	24.145         	3.744
MS.148         	24.095         	3.765
MS.149         	24.045         	3.723
MS.150         	24             	3.769
MS.151         	23.95          	3.759
MS.152         	23.9           	3.73
MS.153         	23.855         	3.693
MS.154         	23.805         	3.71
MS.155         	23.76          	3.68
MS.156         	23.71          	3.696
MS.157         	23.665         	3.697
MS.158         	23.615         	3.696
MS.159         	23.57          	3.683
MS.160         	23.525         	3.694
MS.161         	23.475         	3.624
MS.162         	23.43          	3.663
MS.163         	23.38          	3.59
MS.164         	23.335         	3.652
MS.165         	23.29          	3.608
MS.166         	23.245         	3.603
MS.167         	23.195         	3.623
MS.168         	23.15          	3.582
MS.169         	23.105         	3.573
MS.170         	23.055         	3.556
MS.171         	23.01          	3.529
MS.172         	22.965         	3.562
MS.173         	22.92          	3.552
MS.174         	22.875         	3.536
MS.175         	22.83          	3.495
MS.176         	22.78          	3.547
MS.177         	22.735         	3.51
MS.178         	22.69          	3.519
MS.179         	22.645         	3.483
MS.180         	22.6           	3.444
MS.181         	22.555         	3.412
MS.182         	22.51          	3.457
MS.183         	22.465         	3.453
MS.184         	22.42          	3.458
MS.185         	22.375         	3.452
MS.186         	22.33          	3.39
MS.187         	22.285         	3.469
MS.188         	22.24          	3.345
MS.189         	22.2           	3.339
MS.190         	22.155         	3.351
MS.191         	22.11          	3.432
MS.192         	22.065         	3.36
MS.193         	22.02          	3.307
MS.194         	21.975         	3.323
MS.195         	21.935         	3.302
MS.196         	21.89          	3.336
MS.197         	21.845         	3.219
MS.198         	21.8           	3.306
MS.199         	21.76          	3.249
MS.200         	21.715         	3.207
MS.201         	21.67          	3.242
MS.202         	21.63          	3.215
MS.203         	21.585         	3.204
MS.204         	21.54          	3.212
MS.205         	21.5           	3.182
MS.206         	21.455         	3.198
MS.207         	21.415         	3.147
MS.208         	21.37          	3.156
MS.209         	21.325         	3.145
MS.210         	21.285         	3.15
MS.211         	21.24          	3.124
MS.212         	21.2           	3.12
MS.213         	21.155         	3.095
MS.214         	21.115         	3.126
MS.215         	21.075         	3.065
MS.216         	21.03          	3.03
MS.217         	20.99          	3.052
MS.218         	20.945         	3.003
MS.219         	20.905         	3.024
MS.220         	20.865         	2.983
MS.221         	20.82          	3.036
MS.222         	20.78          	3.033
MS.223         	20.74          	3.008
MS.224         	20.695         	3.021
MS.225         	20.655         	2.965
MS.226         	20.615         	2.932
MS.227         	20.575         	2.863
MS.228         	20.53          	2.88
MS.229         	20.49          	2.846
MS.230         	20.45          	2.933
MS.231         	20.41          	2.755
MS.232         	20.37          	2.869
MS.233         	20.33          	2.858
MS.234         	20.285         	2.833
MS.235         	20.245         	2.745
MS.236         	20.205         	2.721
MS.237         	20.165         	2.643
MS.238         	20.125         	2.661
MS.239         	20.085         	2.495
MS.240         	20.045         	2.641
MS.241         	20.005         	2.628
MS.242         	19.965         	2.554
MS.243         	19.925         	2.574
MS.244         	19.885         	2.584
MS.245         	19.845         	2.664
MS.246         	19.805         	2.427
MS.247         	19.765         	2.528
MS.248         	19.725         	2.538
MS.249         	19.685         	2.423
MS.250         	19.65          	2.45
MS.251         	19.61          	2.408
MS.252         	19.57          	2.419
MS.253         	19.53          	2.382
MS.254         	19.49          	2.319
MS.255         	19.455         	2.371
MS.256         	19.415         	2.377
MS.257         	19.375         	2.296
MS.258         	19.335         	2.327
MS.259         	19.3           	2.313
MS.260         	19.26          	2.29
MS.261         	19.22          	2.312
MS.262         	19.18          	2.204
MS.263         	19.145         	2.274
MS.264         	19.105         	2.209
MS.265         	19.065         	2.159
MS.266         	19.03          	2.206
MS.267         	18.99          	2.145
MS.268         	18.955         	2.137
MS.269         	18.915         	2.178
MS.270         	18.88          	2.09
MS.271         	18.84          	2.159
MS.272         	18.8           	2.108
MS.273         	18.765         	2.121
MS.274         	18.725         	2.036
MS.275         	18.69          	2.036
MS.276         	18.655         	2.011
MS.277         	18.615         	2.01
MS.278         	18.58          	1.885
MS.279         	18.54          	1.968
MS.280         	18.505         	1.882
MS.281         	18.465         	1.844
MS.282         	18.43          	1.972
MS.283         	18.395         	1.947
MS.284         	18.355         	1.862
MS.285         	18.32          	1.816
MS.286         	18.285         	1.765
MS.287         	18.245         	1.802
MS.288         	18.21          	1.732
MS.289         	18.175         	1.761
MS.290         	18.14          	1.698
MS.291         	18.1           	1.712
MS.292         	18.065         	1.766
MS.293         	18.03          	1.674
MS.294         	17.995         	1.624
MS.295         	17.955         	1.61
MS.296         	17.92          	1.593
MS.297         	17.885         	1.702
MS.298         	17.85          	1.658
MS.299         	17.815         	1.666
MS.300         	17.78          	1.669
MS.301         	17.745         	1.58
MS.302         	17.705         	1.478
MS.303         	17.67          	1.494
MS.304         	17.635         	1.553
MS.305         	17.6           	1.509
MS.306         	17.565         	1.458
MS.307         	17.53          	1.406
MS.308         	17.495         	1.464
MS.309         	17.46          	1.332
MS.310         	17.425         	1.4
MS.311         	17.39          	1.462
MS.312         	17.355         	1.262
MS.313         	17.32          	1.385
MS.314         	17.285         	1.385
MS.315         	17.255         	1.343
MS.316         	17.22          	1.393
MS.317         	17.185         	1.246
MS.318         	17.15          	1.259
MS.319         	17.115         	1.269
MS.320         	17.08          	1.22
MS.321         	17.045         	1.317
MS.322         	17.015         	1.198
MS.323         	16.98          	1.17
MS.324         	16.945         	1.212
MS.325         	16.91          	1.257
MS.326         	16.88          	1.212
MS.327         	16.845         	1.123
MS.328         	16.81          	1.176
MS.329         	16.775         	1.159
MS.330         	16.745         	1.168
MS.331         	16.71          	1.163
MS.332         	16.675         	1.171
MS.333         	16.645         	1.074
MS.334         	16.61          	1.06
MS.335         	16.575         	1.03
MS.336         	16.545         	1.066
MS.337         	16.51          	1.111
MS.338         	16.475         	1.104
MS.339         	16.445         	1.036
MS.340         	16.41          	1.002
MS.341         	16.38          	1.002
MS.342         	16.345         	1.108
MS.343         	16.315         	1.187
MS.344         	16.28          	1.046
MS.345         	16.25          	1.077
MS.346         	16.215         	1.068
MS.347         	16.185         	1.096
MS.348         	16.15          	1.113
MS.349         	16.12          	0.985
MS.350         	16.085         	0.968
MS.351         	16.055         	0.767
MS.352         	16.02          	0.963
MS.353         	15.99          	0.93
MS.354         	15.96          	0.857
MS.355         	15.925         	0.95
MS.356         	15.895         	0.853
MS.357         	15.865         	0.84
MS.358         	15.83          	0.688
MS.359         	15.8           	0.837
MS.360         	15.77          	0.778
MS.361         	15.735         	0.706
MS.362         	15.705         	0.824
MS.363         	15.675         	0.659
MS.364         	15.64          	0.729
MS.365         	15.61          	0.831
MS.366         	15.58          	0.667
MS.367         	15.55          	0.634
MS.368         	15.52          	0.58
MS.369         	15.485         	0.649
MS.370         	15.455         	0.599
MS.371         	15.425         	0.494
MS.372         	15.395         	0.568
MS.373         	15.365         	0.558
MS.374         	15.335         	0.551
MS.375         	15.3           	0.491
MS.376         	15.27          	0.562
MS.377         	15.24          	0.524
MS.378         	15.21          	0.491
MS.379         	15.18          	0.485
MS.380         	15.15          	0.434
MS.381         	15.12          	0.468
MS.382         	15.09          	0.458
MS.383         	15.06          	0.395
MS.384         	15.03          	0.389
MS.385         	15             	0.409
MS.386         	14.97          	0.368
MS.387         	14.94          	0.383
MS.388         	14.91          	0.368
MS.389         	14.88          	0.356
MS.390         	14.85          	0.367
MS.391         	14.82          	0.359
MS.392         	14.79          	0.355
MS.393         	14.76          	0.326
MS.394         	14.73          	0.372
MS.395         	14.7           	0.349
MS.396         	14.675         	0.334
MS.397         	14.645         	0.339
MS.398         	14.615         	0.318
MS.399         	14.585         	0.314
MS.400         	14.555         	0.334
MS.401         	14.525         	0.289
MS.402         	14.5           	0.298
MS.403         	14.47          	0.307
MS.404         	14.44          	0.311
MS.405         	14.41          	0.276
MS.406         	14.38          	0.294
MS.407         	14.355         	0.294
MS.408         	14.325         	0.284
MS.409         	14.295         	0.285
MS.410         	14.265         	0.266
MS.411         	14.24          	0.266
MS.412         	14.21          	0.266
MS.413         	14.18          	0.264
MS.414         	14.155         	0.261
MS.415         	14.125         	0.247
MS.416         	14.095         	0.244
MS.417         	14.07          	0.253
MS.418         	14.04          	0.256
MS.419         	14.015         	0.251
MS.420         	13.985         	0.237
MS.421         	13.955         	0.255
MS.422         	13.93          	0.235
MS.423         	13.9           	0.231
MS.424         	13.875         	0.224
MS.425         	13.845         	0.229
MS.426         	13.82          	0.222
MS.427         	13.79          	0.224
MS.428         	13.765         	0.209
MS.429         	13.735         	0.201
MS.430         	13.71          	0.209
MS.431         	13.68          	0.2
MS.432         	13.655         	0.195
MS.433         	13.625         	0.197
MS.434         	13.6           	0.194
MS.435         	13.57          	0.189
MS.436         	13.545         	0.184
MS.437         	13.515         	0.177
MS.438         	13.49          	0.187
MS.439         	13.465         	0.167
MS.440         	13.435         	0.178
MS.441         	13.41          	0.148
MS.442         	13.385         	0.167
MS.443         	13.355         	0.181
MS.444         	13.33          	0.147
MS.445         	13.305         	0.15
MS.446         	13.275         	0.144
MS.447         	13.25          	0.145
MS.448         	13.225         	0.134
MS.449         	13.195         	0.132
MS.450         	13.17          	0.139
MS.451         	13.145         	0.139
MS.452         	13.12          	0.138
MS.453         	13.09          	0.134
MS.454         	13.065         	0.128
MS.455         	13.04          	0.132
MS.456         	13.015         	0.103
MS.457         	12.985         	0.123
MS.458         	12.96          	0.11
MS.459         	12.935         	0.125
MS.460         	12.91          	0.115
MS.461         	12.885         	0.12
MS.462         	12.86          	0.095
MS.463         	12.835         	0.118
MS.464         	12.805         	0.107
MS.465         	12.78          	0.118
MS.466         	12.755         	0.103
MS.467         	12.73          	0.101
MS.468         	12.705         	0.094
MS.469         	12.68          	0.101
MS.470         	12.655         	0.102
MS.471         	12.63          	0.093
MS.472         	12.605         	0.098
MS.473         	12.58          	0.09
MS.474         	12.555         	0.096
MS.475         	12.53          	0.091
MS.476         	12.505         	0.085
MS.477         	12.48          	0.081
MS.478         	12.455         	0.079
MS.479         	12.43          	0.087
MS.480         	12.405         	0.079
MS.481         	12.38          	0.07
MS.482         	12.355         	0.067
MS.483         	12.33          	0.068
MS.484         	12.305         	0.073
MS.485         	12.28          	0.057
MS.486         	12.255         	0.07
MS.487         	12.23          	0.067
MS.488         	12.205         	0.064
MS.489         	12.18          	0.078
MS.490         	12.16          	0.057
MS.491         	12.135         	0.053
MS.492         	12.11          	0.06
MS.493         	12.085         	0.052
MS.494         	12.06          	0.054
MS.495         	12.035         	0.056
MS.496         	12.015         	0.056
MS.497         	11.99          	0.054
MS.498         	11.965         	0.062
MS.499         	11.94          	0.056
MS.500         	11.915         	0.049
MS.501         	11.895         	0.047
MS.502         	11.87          	0.056
MS.503         	11.845         	0.048
