File:              	C:\Qtrac\Data\CKMC01104G.QZD
Name:              	RHS06
Protocol:          	MSCAN-R2
Date:              	4/11/20
Start time:        	11:42:15
Age:               	43
Sex:               	F
Temperature:       	38.0
S/R sites:         	RPer FH-AT
NC/disease:        	NC
Operator:          	CK
Comments:          	CG
M-SCAN DATA (7.6-2.2m)
Scanpts: 38, 41, 565, 585
Stim. (mA)     	Amp. (mV)
MS.1           	30             	5.742
MS.2           	30             	5.706
MS.3           	30             	5.707
MS.4           	30             	5.768
MS.5           	30             	5.797
MS.6           	30             	5.796
MS.7           	30             	5.819
MS.8           	30             	5.814
MS.9           	30             	5.826
MS.10          	30             	5.825
MS.11          	30             	5.817
MS.12          	30             	5.827
MS.13          	30             	5.827
MS.14          	30             	5.833
MS.15          	30             	5.825
MS.16          	30             	5.831
MS.17          	30             	5.832
MS.18          	30             	5.862
MS.19          	30             	5.859
MS.20          	30             	5.858
MS.21          	30             	5.874
MS.22          	30             	5.883
MS.23          	30             	5.822
MS.24          	29.88          	5.805
MS.25          	29.82          	5.839
MS.26          	29.76          	5.851
MS.27          	29.7           	5.866
MS.28          	29.64          	5.869
MS.29          	29.585         	5.873
MS.30          	29.525         	5.897
MS.31          	29.465         	5.902
MS.32          	29.405         	5.877
MS.33          	29.345         	5.911
MS.34          	29.29          	5.876
MS.35          	29.23          	5.881
MS.36          	29.17          	5.903
MS.37          	29.115         	5.912
MS.38          	29.055         	5.916
MS.39          	28.995         	5.922
MS.40          	28.94          	5.913
MS.41          	28.88          	5.884
MS.42          	28.825         	5.917
MS.43          	28.765         	5.909
MS.44          	28.71          	5.906
MS.45          	28.65          	5.905
MS.46          	28.595         	5.914
MS.47          	28.535         	5.917
MS.48          	28.48          	5.939
MS.49          	28.425         	5.907
MS.50          	28.365         	5.914
MS.51          	28.31          	5.905
MS.52          	28.255         	5.898
MS.53          	28.195         	5.91
MS.54          	28.14          	5.922
MS.55          	28.085         	5.936
MS.56          	28.03          	5.934
MS.57          	27.97          	5.933
MS.58          	27.915         	5.894
MS.59          	27.86          	5.93
MS.60          	27.805         	5.894
MS.61          	27.75          	5.908
MS.62          	27.695         	5.901
MS.63          	27.64          	5.914
MS.64          	27.585         	5.912
MS.65          	27.53          	5.89
MS.66          	27.475         	5.893
MS.67          	27.42          	5.876
MS.68          	27.365         	5.869
MS.69          	27.31          	5.853
MS.70          	27.255         	5.881
MS.71          	27.2           	5.881
MS.72          	27.145         	5.905
MS.73          	27.09          	5.865
MS.74          	27.035         	5.878
MS.75          	26.985         	5.881
MS.76          	26.93          	5.898
MS.77          	26.875         	5.867
MS.78          	26.82          	5.834
MS.79          	26.77          	5.858
MS.80          	26.715         	5.844
MS.81          	26.66          	5.812
MS.82          	26.61          	5.816
MS.83          	26.555         	5.837
MS.84          	26.5           	5.826
MS.85          	26.45          	5.818
MS.86          	26.395         	5.831
MS.87          	26.345         	5.825
MS.88          	26.29          	5.834
MS.89          	26.24          	5.796
MS.90          	26.185         	5.783
MS.91          	26.135         	5.784
MS.92          	26.08          	5.783
MS.93          	26.03          	5.792
MS.94          	25.975         	5.794
MS.95          	25.925         	5.815
MS.96          	25.875         	5.806
MS.97          	25.82          	5.799
MS.98          	25.77          	5.804
MS.99          	25.72          	5.77
MS.100         	25.665         	5.782
MS.101         	25.615         	5.784
MS.102         	25.565         	5.767
MS.103         	25.515         	5.765
MS.104         	25.46          	5.775
MS.105         	25.41          	5.8
MS.106         	25.36          	5.761
MS.107         	25.31          	5.754
MS.108         	25.26          	5.784
MS.109         	25.21          	5.786
MS.110         	25.16          	5.778
MS.111         	25.11          	5.772
MS.112         	25.06          	5.78
MS.113         	25.01          	5.781
MS.114         	24.96          	5.773
MS.115         	24.91          	5.75
MS.116         	24.86          	5.746
MS.117         	24.81          	5.716
MS.118         	24.76          	5.722
MS.119         	24.71          	5.72
MS.120         	24.66          	5.705
MS.121         	24.61          	5.707
MS.122         	24.56          	5.726
MS.123         	24.515         	5.685
MS.124         	24.465         	5.702
MS.125         	24.415         	5.685
MS.126         	24.365         	5.701
MS.127         	24.315         	5.692
MS.128         	24.27          	5.726
MS.129         	24.22          	5.694
MS.130         	24.17          	5.705
MS.131         	24.125         	5.669
MS.132         	24.075         	5.673
MS.133         	24.025         	5.632
MS.134         	23.98          	5.717
MS.135         	23.93          	5.717
MS.136         	23.885         	5.69
MS.137         	23.835         	5.712
MS.138         	23.79          	5.713
MS.139         	23.74          	5.707
MS.140         	23.695         	5.66
MS.141         	23.645         	5.685
MS.142         	23.6           	5.583
MS.143         	23.55          	5.672
MS.144         	23.505         	5.663
MS.145         	23.46          	5.61
MS.146         	23.41          	5.588
MS.147         	23.365         	5.552
MS.148         	23.315         	5.596
MS.149         	23.27          	5.626
MS.150         	23.225         	5.596
MS.151         	23.18          	5.679
MS.152         	23.13          	5.686
MS.153         	23.085         	5.682
MS.154         	23.04          	5.566
MS.155         	22.995         	5.674
MS.156         	22.945         	5.672
MS.157         	22.9           	5.555
MS.158         	22.855         	5.656
MS.159         	22.81          	5.568
MS.160         	22.765         	5.674
MS.161         	22.72          	5.561
MS.162         	22.675         	5.604
MS.163         	22.63          	5.588
MS.164         	22.585         	5.579
MS.165         	22.54          	5.577
MS.166         	22.495         	5.701
MS.167         	22.45          	5.555
MS.168         	22.405         	5.55
MS.169         	22.36          	5.596
MS.170         	22.315         	5.527
MS.171         	22.27          	5.574
MS.172         	22.225         	5.546
MS.173         	22.18          	5.562
MS.174         	22.135         	5.577
MS.175         	22.09          	5.67
MS.176         	22.045         	5.551
MS.177         	22.005         	5.538
MS.178         	21.96          	5.564
MS.179         	21.915         	5.536
MS.180         	21.87          	5.564
MS.181         	21.83          	5.525
MS.182         	21.785         	5.536
MS.183         	21.74          	5.508
MS.184         	21.695         	5.451
MS.185         	21.655         	5.505
MS.186         	21.61          	5.468
MS.187         	21.57          	5.504
MS.188         	21.525         	5.437
MS.189         	21.48          	5.503
MS.190         	21.44          	5.49
MS.191         	21.395         	5.395
MS.192         	21.355         	5.413
MS.193         	21.31          	5.468
MS.194         	21.27          	5.45
MS.195         	21.225         	5.444
MS.196         	21.185         	5.424
MS.197         	21.14          	5.36
MS.198         	21.1           	5.429
MS.199         	21.055         	5.32
MS.200         	21.015         	5.361
MS.201         	20.97          	5.312
MS.202         	20.93          	5.395
MS.203         	20.89          	5.343
MS.204         	20.845         	5.334
MS.205         	20.805         	5.349
MS.206         	20.765         	5.37
MS.207         	20.72          	5.341
MS.208         	20.68          	5.267
MS.209         	20.64          	5.308
MS.210         	20.6           	5.305
MS.211         	20.555         	5.229
MS.212         	20.515         	5.206
MS.213         	20.475         	5.241
MS.214         	20.435         	5.203
MS.215         	20.395         	5.232
MS.216         	20.35          	5.236
MS.217         	20.31          	5.22
MS.218         	20.27          	5.207
MS.219         	20.23          	5.189
MS.220         	20.19          	5.215
MS.221         	20.15          	5.249
MS.222         	20.11          	5.106
MS.223         	20.07          	5.225
MS.224         	20.03          	5.225
MS.225         	19.99          	5.187
MS.226         	19.95          	5.182
MS.227         	19.91          	5.146
MS.228         	19.87          	5.125
MS.229         	19.83          	5.091
MS.230         	19.79          	5.17
MS.231         	19.75          	5.145
MS.232         	19.71          	5.164
MS.233         	19.67          	5.095
MS.234         	19.635         	5.067
MS.235         	19.595         	5.083
MS.236         	19.555         	5.052
MS.237         	19.515         	5.077
MS.238         	19.475         	5.045
MS.239         	19.435         	5.075
MS.240         	19.4           	4.982
MS.241         	19.36          	4.996
MS.242         	19.32          	5.029
MS.243         	19.28          	5.028
MS.244         	19.245         	5.04
MS.245         	19.205         	5.034
MS.246         	19.165         	4.945
MS.247         	19.13          	4.96
MS.248         	19.09          	4.948
MS.249         	19.05          	4.984
MS.250         	19.015         	4.94
MS.251         	18.975         	4.927
MS.252         	18.94          	4.927
MS.253         	18.9           	4.904
MS.254         	18.865         	4.911
MS.255         	18.825         	4.876
MS.256         	18.79          	4.855
MS.257         	18.75          	4.863
MS.258         	18.715         	4.877
MS.259         	18.675         	4.849
MS.260         	18.64          	4.799
MS.261         	18.6           	4.838
MS.262         	18.565         	4.824
MS.263         	18.525         	4.813
MS.264         	18.49          	4.729
MS.265         	18.45          	4.783
MS.266         	18.415         	4.794
MS.267         	18.38          	4.821
MS.268         	18.34          	4.804
MS.269         	18.305         	4.804
MS.270         	18.27          	4.778
MS.271         	18.23          	4.719
MS.272         	18.195         	4.756
MS.273         	18.16          	4.693
MS.274         	18.125         	4.635
MS.275         	18.085         	4.684
MS.276         	18.05          	4.636
MS.277         	18.015         	4.652
MS.278         	17.98          	4.699
MS.279         	17.945         	4.686
MS.280         	17.905         	4.623
MS.281         	17.87          	4.61
MS.282         	17.835         	4.557
MS.283         	17.8           	4.534
MS.284         	17.765         	4.559
MS.285         	17.73          	4.561
MS.286         	17.695         	4.494
MS.287         	17.66          	4.57
MS.288         	17.625         	4.521
MS.289         	17.59          	4.568
MS.290         	17.55          	4.528
MS.291         	17.515         	4.219
MS.292         	17.48          	4.434
MS.293         	17.445         	4.325
MS.294         	17.415         	4.296
MS.295         	17.38          	4.54
MS.296         	17.345         	4.332
MS.297         	17.31          	4.238
MS.298         	17.275         	4.299
MS.299         	17.24          	4.156
MS.300         	17.205         	3.984
MS.301         	17.17          	4.114
MS.302         	17.135         	4.054
MS.303         	17.1           	4.014
MS.304         	17.07          	4.092
MS.305         	17.035         	3.99
MS.306         	17             	3.876
MS.307         	16.965         	4.038
MS.308         	16.93          	3.939
MS.309         	16.9           	3.909
MS.310         	16.865         	3.804
MS.311         	16.83          	3.857
MS.312         	16.795         	3.9
MS.313         	16.765         	3.83
MS.314         	16.73          	3.792
MS.315         	16.695         	3.765
MS.316         	16.665         	3.737
MS.317         	16.63          	3.653
MS.318         	16.595         	3.637
MS.319         	16.565         	3.667
MS.320         	16.53          	3.702
MS.321         	16.495         	3.541
MS.322         	16.465         	3.529
MS.323         	16.43          	3.506
MS.324         	16.4           	3.464
MS.325         	16.365         	3.365
MS.326         	16.335         	3.361
MS.327         	16.3           	3.367
MS.328         	16.27          	3.373
MS.329         	16.235         	3.361
MS.330         	16.205         	3.455
MS.331         	16.17          	3.389
MS.332         	16.14          	3.386
MS.333         	16.105         	3.359
MS.334         	16.075         	3.268
MS.335         	16.04          	3.234
MS.336         	16.01          	3.325
MS.337         	15.98          	3.245
MS.338         	15.945         	3.127
MS.339         	15.915         	3.143
MS.340         	15.88          	3.093
MS.341         	15.85          	3.168
MS.342         	15.82          	3.138
MS.343         	15.785         	3.237
MS.344         	15.755         	3.03
MS.345         	15.725         	3.067
MS.346         	15.695         	2.948
MS.347         	15.66          	2.97
MS.348         	15.63          	2.895
MS.349         	15.6           	2.946
MS.350         	15.57          	2.927
MS.351         	15.535         	2.811
MS.352         	15.505         	2.869
MS.353         	15.475         	2.874
MS.354         	15.445         	2.832
MS.355         	15.415         	2.725
MS.356         	15.38          	2.741
MS.357         	15.35          	2.631
MS.358         	15.32          	2.661
MS.359         	15.29          	2.738
MS.360         	15.26          	2.573
MS.361         	15.23          	2.589
MS.362         	15.2           	2.599
MS.363         	15.17          	2.637
MS.364         	15.14          	2.388
MS.365         	15.11          	2.328
MS.366         	15.075         	2.243
MS.367         	15.045         	2.216
MS.368         	15.015         	2.444
MS.369         	14.985         	2.224
MS.370         	14.955         	2.301
MS.371         	14.925         	2.321
MS.372         	14.895         	2.292
MS.373         	14.87          	2.25
MS.374         	14.84          	2.225
MS.375         	14.81          	2.015
MS.376         	14.78          	2.066
MS.377         	14.75          	1.985
MS.378         	14.72          	2.032
MS.379         	14.69          	1.964
MS.380         	14.66          	1.859
MS.381         	14.63          	1.898
MS.382         	14.605         	1.832
MS.383         	14.575         	1.699
MS.384         	14.545         	1.667
MS.385         	14.515         	1.722
MS.386         	14.485         	1.578
MS.387         	14.455         	1.675
MS.388         	14.43          	1.612
MS.389         	14.4           	1.638
MS.390         	14.37          	1.588
MS.391         	14.34          	1.51
MS.392         	14.315         	1.63
MS.393         	14.285         	1.532
MS.394         	14.255         	1.533
MS.395         	14.23          	1.483
MS.396         	14.2           	1.48
MS.397         	14.17          	1.412
MS.398         	14.145         	1.39
MS.399         	14.115         	1.417
MS.400         	14.085         	1.366
MS.401         	14.06          	1.32
MS.402         	14.03          	1.33
MS.403         	14             	1.364
MS.404         	13.975         	1.318
MS.405         	13.945         	1.326
MS.406         	13.92          	1.345
MS.407         	13.89          	1.293
MS.408         	13.865         	1.271
MS.409         	13.835         	1.219
MS.410         	13.805         	1.236
MS.411         	13.78          	1.197
MS.412         	13.75          	1.198
MS.413         	13.725         	1.12
MS.414         	13.695         	1.143
MS.415         	13.67          	1.077
MS.416         	13.645         	1.127
MS.417         	13.615         	1.088
MS.418         	13.59          	1.105
MS.419         	13.56          	1.021
MS.420         	13.535         	1.106
MS.421         	13.505         	0.913
MS.422         	13.48          	0.955
MS.423         	13.455         	0.954
MS.424         	13.425         	0.99
MS.425         	13.4           	0.97
MS.426         	13.37          	0.842
MS.427         	13.345         	0.87
MS.428         	13.32          	0.916
MS.429         	13.29          	0.837
MS.430         	13.265         	0.867
MS.431         	13.24          	0.905
MS.432         	13.215         	0.737
MS.433         	13.185         	0.733
MS.434         	13.16          	0.715
MS.435         	13.135         	0.667
MS.436         	13.11          	0.69
MS.437         	13.08          	0.66
MS.438         	13.055         	0.676
MS.439         	13.03          	0.663
MS.440         	13.005         	0.64
MS.441         	12.975         	0.607
MS.442         	12.95          	0.599
MS.443         	12.925         	0.646
MS.444         	12.9           	0.541
MS.445         	12.875         	0.5
MS.446         	12.85          	0.579
MS.447         	12.82          	0.576
MS.448         	12.795         	0.573
MS.449         	12.77          	0.508
MS.450         	12.745         	0.483
MS.451         	12.72          	0.446
MS.452         	12.695         	0.543
MS.453         	12.67          	0.518
MS.454         	12.645         	0.464
MS.455         	12.62          	0.494
MS.456         	12.595         	0.457
MS.457         	12.57          	0.339
MS.458         	12.545         	0.38
MS.459         	12.52          	0.363
MS.460         	12.495         	0.386
MS.461         	12.47          	0.358
MS.462         	12.445         	0.356
MS.463         	12.42          	0.337
MS.464         	12.395         	0.405
MS.465         	12.37          	0.264
MS.466         	12.345         	0.256
MS.467         	12.32          	0.281
MS.468         	12.295         	0.282
MS.469         	12.27          	0.272
MS.470         	12.245         	0.181
MS.471         	12.22          	0.211
MS.472         	12.195         	0.223
MS.473         	12.175         	0.192
MS.474         	12.15          	0.172
MS.475         	12.125         	0.225
MS.476         	12.1           	0.168
MS.477         	12.075         	0.159
MS.478         	12.05          	0.173
MS.479         	12.025         	0.188
MS.480         	12.005         	0.154
MS.481         	11.98          	0.145
MS.482         	11.955         	0.152
MS.483         	11.93          	0.129
MS.484         	11.91          	0.137
MS.485         	11.885         	0.15
MS.486         	11.86          	0.134
MS.487         	11.835         	0.124
MS.488         	11.815         	0.107
MS.489         	11.79          	0.103
MS.490         	11.765         	0.112
MS.491         	11.74          	0.107
MS.492         	11.72          	0.103
MS.493         	11.695         	0.067
MS.494         	11.67          	0.12
MS.495         	11.65          	0.102
MS.496         	11.625         	0.1
MS.497         	11.6           	0.117
MS.498         	11.58          	0.107
MS.499         	11.555         	0.092
MS.500         	11.535         	0.083
MS.501         	11.51          	0.084
MS.502         	11.485         	0.045
MS.503         	11.465         	0.038
