File:              	C:\Qtrac\Data\CKMC01111L.QZD
Name:              	RHS09
Protocol:          	MSCAN-R2
Date:              	11/11/20
Start time:        	15:03:35
Age:               	73
Sex:               	F
Temperature:       	35.0
S/R sites:         	RPer FH-AT
NC/disease:        	NC
Operator:          	CK
Comments:          	CG
M-SCAN DATA (8.2-1.8m)
Scanpts: 10, 20, 670, 690
Stim. (mA)     	Amp. (mV)
MS.1           	41             	3.74
MS.2           	41             	3.74
MS.3           	41             	3.747
MS.4           	41             	3.728
MS.5           	41             	3.71
MS.6           	41             	3.667
MS.7           	41             	3.721
MS.8           	41             	3.716
MS.9           	41             	3.721
MS.10          	41             	3.689
MS.11          	41             	3.719
MS.12          	41             	3.708
MS.13          	41             	3.703
MS.14          	41             	3.699
MS.15          	41             	3.728
MS.16          	41             	3.711
MS.17          	41             	3.709
MS.18          	41             	3.712
MS.19          	41             	3.713
MS.20          	41             	3.731
MS.21          	41             	3.719
MS.22          	41             	3.701
MS.23          	41             	3.69
MS.24          	40.835         	3.71
MS.25          	40.755         	3.695
MS.26          	40.675         	3.66
MS.27          	40.59          	3.688
MS.28          	40.51          	3.713
MS.29          	40.43          	3.65
MS.30          	40.35          	3.701
MS.31          	40.27          	3.677
MS.32          	40.19          	3.675
MS.33          	40.11          	3.664
MS.34          	40.03          	3.672
MS.35          	39.95          	3.624
MS.36          	39.87          	3.612
MS.37          	39.79          	3.643
MS.38          	39.71          	3.638
MS.39          	39.63          	3.611
MS.40          	39.55          	3.622
MS.41          	39.47          	3.643
MS.42          	39.39          	3.6
MS.43          	39.315         	3.608
MS.44          	39.235         	3.61
MS.45          	39.155         	3.611
MS.46          	39.08          	3.615
MS.47          	39             	3.572
MS.48          	38.92          	3.593
MS.49          	38.845         	3.583
MS.50          	38.765         	3.616
MS.51          	38.69          	3.617
MS.52          	38.61          	3.589
MS.53          	38.535         	3.581
MS.54          	38.46          	3.591
MS.55          	38.38          	3.611
MS.56          	38.305         	3.618
MS.57          	38.23          	3.596
MS.58          	38.15          	3.602
MS.59          	38.075         	3.596
MS.60          	38             	3.616
MS.61          	37.925         	3.604
MS.62          	37.85          	3.586
MS.63          	37.77          	3.581
MS.64          	37.695         	3.577
MS.65          	37.62          	3.571
MS.66          	37.545         	3.552
MS.67          	37.47          	3.557
MS.68          	37.395         	3.524
MS.69          	37.32          	3.569
MS.70          	37.245         	3.563
MS.71          	37.17          	3.53
MS.72          	37.1           	3.531
MS.73          	37.025         	3.511
MS.74          	36.95          	3.541
MS.75          	36.875         	3.482
MS.76          	36.805         	3.508
MS.77          	36.73          	3.5
MS.78          	36.655         	3.485
MS.79          	36.58          	3.508
MS.80          	36.51          	3.469
MS.81          	36.435         	3.473
MS.82          	36.365         	3.465
MS.83          	36.29          	3.511
MS.84          	36.22          	3.519
MS.85          	36.145         	3.506
MS.86          	36.075         	3.491
MS.87          	36             	3.461
MS.88          	35.93          	3.461
MS.89          	35.86          	3.501
MS.90          	35.785         	3.468
MS.91          	35.715         	3.475
MS.92          	35.645         	3.437
MS.93          	35.57          	3.46
MS.94          	35.5           	3.455
MS.95          	35.43          	3.482
MS.96          	35.36          	3.434
MS.97          	35.29          	3.48
MS.98          	35.22          	3.44
MS.99          	35.15          	3.45
MS.100         	35.08          	3.344
MS.101         	35.01          	3.443
MS.102         	34.94          	3.433
MS.103         	34.87          	3.462
MS.104         	34.8           	3.414
MS.105         	34.73          	3.326
MS.106         	34.66          	3.365
MS.107         	34.59          	3.444
MS.108         	34.52          	3.45
MS.109         	34.45          	3.346
MS.110         	34.385         	3.458
MS.111         	34.315         	3.417
MS.112         	34.245         	3.418
MS.113         	34.18          	3.363
MS.114         	34.11          	3.409
MS.115         	34.04          	3.409
MS.116         	33.975         	3.412
MS.117         	33.905         	3.364
MS.118         	33.835         	3.456
MS.119         	33.77          	3.383
MS.120         	33.7           	3.377
MS.121         	33.635         	3.372
MS.122         	33.57          	3.384
MS.123         	33.5           	3.444
MS.124         	33.435         	3.364
MS.125         	33.365         	3.384
MS.126         	33.3           	3.506
MS.127         	33.235         	3.269
MS.128         	33.165         	3.434
MS.129         	33.1           	3.374
MS.130         	33.035         	3.407
MS.131         	32.97          	3.356
MS.132         	32.905         	3.364
MS.133         	32.835         	3.187
MS.134         	32.77          	3.184
MS.135         	32.705         	3.289
MS.136         	32.64          	3.375
MS.137         	32.575         	3.41
MS.138         	32.51          	3.335
MS.139         	32.445         	3.301
MS.140         	32.38          	3.338
MS.141         	32.315         	3.265
MS.142         	32.25          	3.144
MS.143         	32.185         	3.167
MS.144         	32.125         	3.174
MS.145         	32.06          	3.183
MS.146         	31.995         	3.152
MS.147         	31.93          	3.252
MS.148         	31.865         	3.256
MS.149         	31.805         	3.187
MS.150         	31.74          	3.237
MS.151         	31.675         	3.224
MS.152         	31.615         	3.26
MS.153         	31.55          	3.208
MS.154         	31.485         	3.162
MS.155         	31.425         	3.196
MS.156         	31.36          	3.167
MS.157         	31.3           	3.142
MS.158         	31.235         	3.109
MS.159         	31.175         	3.178
MS.160         	31.11          	3.178
MS.161         	31.05          	3.115
MS.162         	30.985         	3.154
MS.163         	30.925         	3.094
MS.164         	30.865         	3.159
MS.165         	30.8           	3.113
MS.166         	30.74          	3.099
MS.167         	30.68          	3.137
MS.168         	30.615         	3.057
MS.169         	30.555         	3.096
MS.170         	30.495         	3.09
MS.171         	30.435         	3.08
MS.172         	30.375         	3.146
MS.173         	30.315         	3.111
MS.174         	30.25          	3.087
MS.175         	30.19          	3.073
MS.176         	30.13          	3.134
MS.177         	30.07          	3.143
MS.178         	30.01          	3.069
MS.179         	29.95          	3.068
MS.180         	29.89          	2.973
MS.181         	29.83          	3.004
MS.182         	29.77          	3.023
MS.183         	29.715         	3.035
MS.184         	29.655         	2.92
MS.185         	29.595         	2.95
MS.186         	29.535         	2.979
MS.187         	29.475         	2.987
MS.188         	29.415         	3
MS.189         	29.36          	2.993
MS.190         	29.3           	2.971
MS.191         	29.24          	2.902
MS.192         	29.18          	2.88
MS.193         	29.125         	2.859
MS.194         	29.065         	2.806
MS.195         	29.01          	2.867
MS.196         	28.95          	2.92
MS.197         	28.89          	2.852
MS.198         	28.835         	2.855
MS.199         	28.775         	2.856
MS.200         	28.72          	2.806
MS.201         	28.66          	2.914
MS.202         	28.605         	2.894
MS.203         	28.545         	2.812
MS.204         	28.49          	2.817
MS.205         	28.435         	2.74
MS.206         	28.375         	2.85
MS.207         	28.32          	2.779
MS.208         	28.265         	2.786
MS.209         	28.205         	2.649
MS.210         	28.15          	2.747
MS.211         	28.095         	2.749
MS.212         	28.04          	2.668
MS.213         	27.98          	2.705
MS.214         	27.925         	2.688
MS.215         	27.87          	2.653
MS.216         	27.815         	2.625
MS.217         	27.76          	2.643
MS.218         	27.705         	2.612
MS.219         	27.65          	2.61
MS.220         	27.595         	2.636
MS.221         	27.54          	2.661
MS.222         	27.485         	2.637
MS.223         	27.43          	2.592
MS.224         	27.375         	2.57
MS.225         	27.32          	2.533
MS.226         	27.265         	2.627
MS.227         	27.21          	2.559
MS.228         	27.155         	2.604
MS.229         	27.1           	2.573
MS.230         	27.045         	2.547
MS.231         	26.995         	2.531
MS.232         	26.94          	2.538
MS.233         	26.885         	2.505
MS.234         	26.83          	2.522
MS.235         	26.78          	2.446
MS.236         	26.725         	2.53
MS.237         	26.67          	2.516
MS.238         	26.615         	2.518
MS.239         	26.565         	2.486
MS.240         	26.51          	2.493
MS.241         	26.46          	2.401
MS.242         	26.405         	2.478
MS.243         	26.355         	2.432
MS.244         	26.3           	2.46
MS.245         	26.245         	2.453
MS.246         	26.195         	2.435
MS.247         	26.145         	2.457
MS.248         	26.09          	2.38
MS.249         	26.04          	2.464
MS.250         	25.985         	2.376
MS.251         	25.935         	2.346
MS.252         	25.885         	2.379
MS.253         	25.83          	2.324
MS.254         	25.78          	2.405
MS.255         	25.73          	2.275
MS.256         	25.675         	2.342
MS.257         	25.625         	2.324
MS.258         	25.575         	2.296
MS.259         	25.525         	2.292
MS.260         	25.47          	2.303
MS.261         	25.42          	2.292
MS.262         	25.37          	2.189
MS.263         	25.32          	2.245
MS.264         	25.27          	2.181
MS.265         	25.22          	2.216
MS.266         	25.17          	2.234
MS.267         	25.12          	2.248
MS.268         	25.065         	2.084
MS.269         	25.015         	2.133
MS.270         	24.965         	2.117
MS.271         	24.915         	2.17
MS.272         	24.87          	2.121
MS.273         	24.82          	2.146
MS.274         	24.77          	2.076
MS.275         	24.72          	2.085
MS.276         	24.67          	2.042
MS.277         	24.62          	2.093
MS.278         	24.57          	2.064
MS.279         	24.52          	2.083
MS.280         	24.475         	1.972
MS.281         	24.425         	2.041
MS.282         	24.375         	2.023
MS.283         	24.325         	1.923
MS.284         	24.28          	1.94
MS.285         	24.23          	1.931
MS.286         	24.18          	1.969
MS.287         	24.135         	1.956
MS.288         	24.085         	1.932
MS.289         	24.035         	2.002
MS.290         	23.99          	1.936
MS.291         	23.94          	1.885
MS.292         	23.895         	1.84
MS.293         	23.845         	1.852
MS.294         	23.795         	1.87
MS.295         	23.75          	1.838
MS.296         	23.7           	1.859
MS.297         	23.655         	1.87
MS.298         	23.61          	1.891
MS.299         	23.56          	1.874
MS.300         	23.515         	1.797
MS.301         	23.465         	1.835
MS.302         	23.42          	1.742
MS.303         	23.375         	1.754
MS.304         	23.325         	1.767
MS.305         	23.28          	1.762
MS.306         	23.235         	1.744
MS.307         	23.185         	1.678
MS.308         	23.14          	1.765
MS.309         	23.095         	1.686
MS.310         	23.05          	1.692
MS.311         	23             	1.677
MS.312         	22.955         	1.588
MS.313         	22.91          	1.615
MS.314         	22.865         	1.657
MS.315         	22.82          	1.571
MS.316         	22.775         	1.661
MS.317         	22.725         	1.678
MS.318         	22.68          	1.595
MS.319         	22.635         	1.528
MS.320         	22.59          	1.65
MS.321         	22.545         	1.552
MS.322         	22.5           	1.603
MS.323         	22.455         	1.391
MS.324         	22.41          	1.445
MS.325         	22.365         	1.543
MS.326         	22.32          	1.621
MS.327         	22.275         	1.514
MS.328         	22.235         	1.449
MS.329         	22.19          	1.454
MS.330         	22.145         	1.6
MS.331         	22.1           	1.432
MS.332         	22.055         	1.368
MS.333         	22.01          	1.393
MS.334         	21.97          	1.421
MS.335         	21.925         	1.472
MS.336         	21.88          	1.404
MS.337         	21.835         	1.302
MS.338         	21.795         	1.436
MS.339         	21.75          	1.375
MS.340         	21.705         	1.462
MS.341         	21.66          	1.325
MS.342         	21.62          	1.268
MS.343         	21.575         	1.299
MS.344         	21.535         	1.236
MS.345         	21.49          	1.257
MS.346         	21.445         	1.245
MS.347         	21.405         	1.224
MS.348         	21.36          	1.227
MS.349         	21.32          	1.237
MS.350         	21.275         	1.24
MS.351         	21.235         	1.307
MS.352         	21.19          	1.297
MS.353         	21.15          	1.188
MS.354         	21.105         	1.207
MS.355         	21.065         	1.247
MS.356         	21.02          	1.208
MS.357         	20.98          	1.244
MS.358         	20.94          	1.193
MS.359         	20.895         	1.147
MS.360         	20.855         	1.169
MS.361         	20.815         	1.146
MS.362         	20.77          	1.127
MS.363         	20.73          	1.128
MS.364         	20.69          	1.109
MS.365         	20.645         	1.094
MS.366         	20.605         	1.078
MS.367         	20.565         	1.098
MS.368         	20.525         	1.111
MS.369         	20.48          	1.141
MS.370         	20.44          	1.07
MS.371         	20.4           	1.014
MS.372         	20.36          	1.011
MS.373         	20.32          	1.023
MS.374         	20.28          	1.056
MS.375         	20.24          	1.049
MS.376         	20.2           	1.058
MS.377         	20.155         	1.024
MS.378         	20.115         	0.992
MS.379         	20.075         	0.964
MS.380         	20.035         	0.955
MS.381         	19.995         	0.914
MS.382         	19.955         	1.011
MS.383         	19.915         	1.033
MS.384         	19.875         	0.906
MS.385         	19.835         	0.958
MS.386         	19.8           	0.884
MS.387         	19.76          	0.959
MS.388         	19.72          	0.858
MS.389         	19.68          	0.876
MS.390         	19.64          	0.845
MS.391         	19.6           	0.866
MS.392         	19.56          	0.784
MS.393         	19.525         	0.804
MS.394         	19.485         	0.803
MS.395         	19.445         	0.814
MS.396         	19.405         	0.775
MS.397         	19.365         	0.805
MS.398         	19.33          	0.762
MS.399         	19.29          	0.714
MS.400         	19.25          	0.714
MS.401         	19.215         	0.76
MS.402         	19.175         	0.679
MS.403         	19.135         	0.756
MS.404         	19.1           	0.651
MS.405         	19.06          	0.634
MS.406         	19.02          	0.687
MS.407         	18.985         	0.605
MS.408         	18.945         	0.711
MS.409         	18.91          	0.658
MS.410         	18.87          	0.631
MS.411         	18.83          	0.639
MS.412         	18.795         	0.599
MS.413         	18.755         	0.648
MS.414         	18.72          	0.601
MS.415         	18.68          	0.619
MS.416         	18.645         	0.594
MS.417         	18.61          	0.594
MS.418         	18.57          	0.59
MS.419         	18.535         	0.588
MS.420         	18.495         	0.591
MS.421         	18.46          	0.516
MS.422         	18.42          	0.491
MS.423         	18.385         	0.513
MS.424         	18.35          	0.536
MS.425         	18.31          	0.493
MS.426         	18.275         	0.52
MS.427         	18.24          	0.558
MS.428         	18.205         	0.482
MS.429         	18.165         	0.522
MS.430         	18.13          	0.453
MS.431         	18.095         	0.514
MS.432         	18.06          	0.452
MS.433         	18.02          	0.469
MS.434         	17.985         	0.488
MS.435         	17.95          	0.487
MS.436         	17.915         	0.482
MS.437         	17.88          	0.497
MS.438         	17.84          	0.473
MS.439         	17.805         	0.372
MS.440         	17.77          	0.483
MS.441         	17.735         	0.362
MS.442         	17.7           	0.374
MS.443         	17.665         	0.375
MS.444         	17.63          	0.463
MS.445         	17.595         	0.452
MS.446         	17.56          	0.369
MS.447         	17.525         	0.449
MS.448         	17.49          	0.45
MS.449         	17.455         	0.449
MS.450         	17.42          	0.447
MS.451         	17.385         	0.446
MS.452         	17.35          	0.405
MS.453         	17.315         	0.367
MS.454         	17.28          	0.306
MS.455         	17.245         	0.309
MS.456         	17.21          	0.31
MS.457         	17.175         	0.352
MS.458         	17.145         	0.308
MS.459         	17.11          	0.413
MS.460         	17.075         	0.325
MS.461         	17.04          	0.313
MS.462         	17.005         	0.282
MS.463         	16.97          	0.228
MS.464         	16.94          	0.234
MS.465         	16.905         	0.243
MS.466         	16.87          	0.283
MS.467         	16.835         	0.298
MS.468         	16.805         	0.272
MS.469         	16.77          	0.224
MS.470         	16.735         	0.274
MS.471         	16.705         	0.314
MS.472         	16.67          	0.275
MS.473         	16.635         	0.248
MS.474         	16.605         	0.231
MS.475         	16.57          	0.246
MS.476         	16.535         	0.238
MS.477         	16.505         	0.216
MS.478         	16.47          	0.297
MS.479         	16.44          	0.223
MS.480         	16.405         	0.189
MS.481         	16.37          	0.251
MS.482         	16.34          	0.197
MS.483         	16.305         	0.231
MS.484         	16.275         	0.201
MS.485         	16.24          	0.175
MS.486         	16.21          	0.216
MS.487         	16.175         	0.211
MS.488         	16.145         	0.147
MS.489         	16.11          	0.191
MS.490         	16.08          	0.234
MS.491         	16.05          	0.214
MS.492         	16.015         	0.18
MS.493         	15.985         	0.164
MS.494         	15.95          	0.203
MS.495         	15.92          	0.172
MS.496         	15.89          	0.172
MS.497         	15.855         	0.17
MS.498         	15.825         	0.181
MS.499         	15.795         	0.159
MS.500         	15.76          	0.177
MS.501         	15.73          	0.151
MS.502         	15.7           	0.156
MS.503         	15.665         	0.178
